# E (eV)   ldos(E)   pdos(E)   
 -21.420  0.834E-07  0.834E-07
 -21.410  0.244E-06  0.244E-06
 -21.400  0.683E-06  0.683E-06
 -21.390  0.184E-05  0.184E-05
 -21.380  0.472E-05  0.472E-05
 -21.370  0.116E-04  0.116E-04
 -21.360  0.275E-04  0.275E-04
 -21.350  0.623E-04  0.623E-04
 -21.340  0.135E-03  0.135E-03
 -21.330  0.281E-03  0.281E-03
 -21.320  0.561E-03  0.561E-03
 -21.310  0.107E-02  0.107E-02
 -21.300  0.197E-02  0.197E-02
 -21.290  0.346E-02  0.346E-02
 -21.280  0.583E-02  0.583E-02
 -21.270  0.944E-02  0.944E-02
 -21.260  0.147E-01  0.147E-01
 -21.250  0.219E-01  0.219E-01
 -21.240  0.314E-01  0.314E-01
 -21.230  0.433E-01  0.433E-01
 -21.220  0.574E-01  0.574E-01
 -21.210  0.734E-01  0.734E-01
 -21.200  0.904E-01  0.904E-01
 -21.190  0.107E+00  0.107E+00
 -21.180  0.124E+00  0.124E+00
 -21.170  0.138E+00  0.138E+00
 -21.160  0.149E+00  0.149E+00
 -21.150  0.157E+00  0.157E+00
 -21.140  0.162E+00  0.162E+00
 -21.130  0.164E+00  0.164E+00
 -21.120  0.164E+00  0.164E+00
 -21.110  0.162E+00  0.162E+00
 -21.100  0.159E+00  0.159E+00
 -21.090  0.156E+00  0.156E+00
 -21.080  0.152E+00  0.152E+00
 -21.070  0.149E+00  0.149E+00
 -21.060  0.147E+00  0.147E+00
 -21.050  0.145E+00  0.145E+00
 -21.040  0.143E+00  0.143E+00
 -21.030  0.141E+00  0.141E+00
 -21.020  0.140E+00  0.140E+00
 -21.010  0.139E+00  0.139E+00
 -21.000  0.138E+00  0.138E+00
 -20.990  0.137E+00  0.137E+00
 -20.980  0.136E+00  0.136E+00
 -20.970  0.135E+00  0.135E+00
 -20.960  0.134E+00  0.134E+00
 -20.950  0.133E+00  0.133E+00
 -20.940  0.132E+00  0.132E+00
 -20.930  0.131E+00  0.131E+00
 -20.920  0.130E+00  0.130E+00
 -20.910  0.130E+00  0.130E+00
 -20.900  0.129E+00  0.129E+00
 -20.890  0.128E+00  0.128E+00
 -20.880  0.127E+00  0.127E+00
 -20.870  0.127E+00  0.127E+00
 -20.860  0.126E+00  0.126E+00
 -20.850  0.125E+00  0.125E+00
 -20.840  0.124E+00  0.124E+00
 -20.830  0.123E+00  0.123E+00
 -20.820  0.123E+00  0.123E+00
 -20.810  0.122E+00  0.122E+00
 -20.800  0.121E+00  0.121E+00
 -20.790  0.121E+00  0.121E+00
 -20.780  0.120E+00  0.120E+00
 -20.770  0.119E+00  0.119E+00
 -20.760  0.118E+00  0.118E+00
 -20.750  0.118E+00  0.118E+00
 -20.740  0.117E+00  0.117E+00
 -20.730  0.117E+00  0.117E+00
 -20.720  0.116E+00  0.116E+00
 -20.710  0.116E+00  0.116E+00
 -20.700  0.115E+00  0.115E+00
 -20.690  0.114E+00  0.114E+00
 -20.680  0.113E+00  0.113E+00
 -20.670  0.112E+00  0.112E+00
 -20.660  0.111E+00  0.111E+00
 -20.650  0.111E+00  0.111E+00
 -20.640  0.111E+00  0.111E+00
 -20.630  0.111E+00  0.111E+00
 -20.620  0.111E+00  0.111E+00
 -20.610  0.110E+00  0.110E+00
 -20.600  0.109E+00  0.109E+00
 -20.590  0.108E+00  0.108E+00
 -20.580  0.107E+00  0.107E+00
 -20.570  0.106E+00  0.106E+00
 -20.560  0.105E+00  0.105E+00
 -20.550  0.105E+00  0.105E+00
 -20.540  0.106E+00  0.106E+00
 -20.530  0.106E+00  0.106E+00
 -20.520  0.106E+00  0.106E+00
 -20.510  0.105E+00  0.105E+00
 -20.500  0.104E+00  0.104E+00
 -20.490  0.102E+00  0.102E+00
 -20.480  0.101E+00  0.101E+00
 -20.470  0.996E-01  0.996E-01
 -20.460  0.995E-01  0.995E-01
 -20.450  0.100E+00  0.100E+00
 -20.440  0.101E+00  0.101E+00
 -20.430  0.102E+00  0.102E+00
 -20.420  0.102E+00  0.102E+00
 -20.410  0.101E+00  0.101E+00
 -20.400  0.997E-01  0.997E-01
 -20.390  0.977E-01  0.977E-01
 -20.380  0.957E-01  0.957E-01
 -20.370  0.942E-01  0.942E-01
 -20.360  0.936E-01  0.936E-01
 -20.350  0.939E-01  0.939E-01
 -20.340  0.951E-01  0.951E-01
 -20.330  0.965E-01  0.965E-01
 -20.320  0.976E-01  0.976E-01
 -20.310  0.979E-01  0.979E-01
 -20.300  0.971E-01  0.971E-01
 -20.290  0.954E-01  0.954E-01
 -20.280  0.930E-01  0.930E-01
 -20.270  0.906E-01  0.906E-01
 -20.260  0.888E-01  0.888E-01
 -20.250  0.880E-01  0.880E-01
 -20.240  0.883E-01  0.883E-01
 -20.230  0.896E-01  0.896E-01
 -20.220  0.914E-01  0.914E-01
 -20.210  0.931E-01  0.931E-01
 -20.200  0.941E-01  0.941E-01
 -20.190  0.939E-01  0.939E-01
 -20.180  0.926E-01  0.926E-01
 -20.170  0.902E-01  0.902E-01
 -20.160  0.874E-01  0.874E-01
 -20.150  0.849E-01  0.849E-01
 -20.140  0.831E-01  0.831E-01
 -20.130  0.825E-01  0.825E-01
 -20.120  0.833E-01  0.833E-01
 -20.110  0.850E-01  0.850E-01
 -20.100  0.872E-01  0.872E-01
 -20.090  0.892E-01  0.892E-01
 -20.080  0.904E-01  0.904E-01
 -20.070  0.904E-01  0.904E-01
 -20.060  0.890E-01  0.890E-01
 -20.050  0.866E-01  0.866E-01
 -20.040  0.835E-01  0.835E-01
 -20.030  0.806E-01  0.806E-01
 -20.020  0.784E-01  0.784E-01
 -20.010  0.774E-01  0.774E-01
 -20.000  0.777E-01  0.777E-01
 -19.990  0.794E-01  0.794E-01
 -19.980  0.817E-01  0.817E-01
 -19.970  0.842E-01  0.842E-01
 -19.960  0.862E-01  0.862E-01
 -19.950  0.870E-01  0.870E-01
 -19.940  0.864E-01  0.864E-01
 -19.930  0.845E-01  0.845E-01
 -19.920  0.817E-01  0.817E-01
 -19.910  0.784E-01  0.784E-01
 -19.900  0.755E-01  0.755E-01
 -19.890  0.734E-01  0.734E-01
 -19.880  0.727E-01  0.727E-01
 -19.870  0.733E-01  0.733E-01
 -19.860  0.751E-01  0.751E-01
 -19.850  0.777E-01  0.777E-01
 -19.840  0.804E-01  0.804E-01
 -19.830  0.825E-01  0.825E-01
 -19.820  0.835E-01  0.835E-01
 -19.810  0.831E-01  0.831E-01
 -19.800  0.814E-01  0.814E-01
 -19.790  0.785E-01  0.785E-01
 -19.780  0.751E-01  0.751E-01
 -19.770  0.719E-01  0.719E-01
 -19.760  0.695E-01  0.695E-01
 -19.750  0.683E-01  0.683E-01
 -19.740  0.686E-01  0.686E-01
 -19.730  0.701E-01  0.701E-01
 -19.720  0.725E-01  0.725E-01
 -19.710  0.753E-01  0.753E-01
 -19.700  0.778E-01  0.778E-01
 -19.690  0.795E-01  0.795E-01
 -19.680  0.800E-01  0.800E-01
 -19.670  0.790E-01  0.790E-01
 -19.660  0.768E-01  0.768E-01
 -19.650  0.736E-01  0.736E-01
 -19.640  0.702E-01  0.702E-01
 -19.630  0.671E-01  0.671E-01
 -19.620  0.650E-01  0.650E-01
 -19.610  0.642E-01  0.642E-01
 -19.600  0.648E-01  0.648E-01
 -19.590  0.666E-01  0.666E-01
 -19.580  0.693E-01  0.693E-01
 -19.570  0.721E-01  0.721E-01
 -19.560  0.746E-01  0.746E-01
 -19.550  0.762E-01  0.762E-01
 -19.540  0.765E-01  0.765E-01
 -19.530  0.754E-01  0.754E-01
 -19.520  0.732E-01  0.732E-01
 -19.510  0.701E-01  0.701E-01
 -19.500  0.668E-01  0.668E-01
 -19.490  0.637E-01  0.637E-01
 -19.480  0.615E-01  0.615E-01
 -19.470  0.605E-01  0.605E-01
 -19.460  0.609E-01  0.609E-01
 -19.450  0.625E-01  0.625E-01
 -19.440  0.651E-01  0.651E-01
 -19.430  0.680E-01  0.680E-01
 -19.420  0.707E-01  0.707E-01
 -19.410  0.725E-01  0.725E-01
 -19.400  0.732E-01  0.732E-01
 -19.390  0.725E-01  0.725E-01
 -19.380  0.706E-01  0.706E-01
 -19.370  0.677E-01  0.677E-01
 -19.360  0.645E-01  0.645E-01
 -19.350  0.614E-01  0.614E-01
 -19.340  0.589E-01  0.589E-01
 -19.330  0.575E-01  0.575E-01
 -19.320  0.573E-01  0.573E-01
 -19.310  0.584E-01  0.584E-01
 -19.300  0.604E-01  0.604E-01
 -19.290  0.631E-01  0.631E-01
 -19.280  0.659E-01  0.659E-01
 -19.270  0.682E-01  0.682E-01
 -19.260  0.696E-01  0.696E-01
 -19.250  0.697E-01  0.697E-01
 -19.240  0.684E-01  0.684E-01
 -19.230  0.661E-01  0.661E-01
 -19.220  0.631E-01  0.631E-01
 -19.210  0.599E-01  0.599E-01
 -19.200  0.571E-01  0.571E-01
 -19.190  0.551E-01  0.551E-01
 -19.180  0.543E-01  0.543E-01
 -19.170  0.546E-01  0.546E-01
 -19.160  0.560E-01  0.560E-01
 -19.150  0.582E-01  0.582E-01
 -19.140  0.609E-01  0.609E-01
 -19.130  0.634E-01  0.634E-01
 -19.120  0.653E-01  0.653E-01
 -19.110  0.663E-01  0.663E-01
 -19.100  0.661E-01  0.661E-01
 -19.090  0.646E-01  0.646E-01
 -19.080  0.622E-01  0.622E-01
 -19.070  0.592E-01  0.592E-01
 -19.060  0.562E-01  0.562E-01
 -19.050  0.536E-01  0.536E-01
 -19.040  0.520E-01  0.520E-01
 -19.030  0.514E-01  0.514E-01
 -19.020  0.521E-01  0.521E-01
 -19.010  0.537E-01  0.537E-01
 -19.000  0.559E-01  0.559E-01
 -18.990  0.585E-01  0.585E-01
 -18.980  0.607E-01  0.607E-01
 -18.970  0.623E-01  0.623E-01
 -18.960  0.630E-01  0.630E-01
 -18.950  0.625E-01  0.625E-01
 -18.940  0.610E-01  0.610E-01
 -18.930  0.586E-01  0.586E-01
 -18.920  0.558E-01  0.558E-01
 -18.910  0.530E-01  0.530E-01
 -18.900  0.507E-01  0.507E-01
 -18.890  0.493E-01  0.493E-01
 -18.880  0.491E-01  0.491E-01
 -18.870  0.499E-01  0.499E-01
 -18.860  0.516E-01  0.516E-01
 -18.850  0.538E-01  0.538E-01
 -18.840  0.562E-01  0.562E-01
 -18.830  0.582E-01  0.582E-01
 -18.820  0.595E-01  0.595E-01
 -18.810  0.598E-01  0.598E-01
 -18.800  0.591E-01  0.591E-01
 -18.790  0.574E-01  0.574E-01
 -18.780  0.550E-01  0.550E-01
 -18.770  0.524E-01  0.524E-01
 -18.760  0.499E-01  0.499E-01
 -18.750  0.481E-01  0.481E-01
 -18.740  0.471E-01  0.471E-01
 -18.730  0.471E-01  0.471E-01
 -18.720  0.482E-01  0.482E-01
 -18.710  0.499E-01  0.499E-01
 -18.700  0.521E-01  0.521E-01
 -18.690  0.543E-01  0.543E-01
 -18.680  0.559E-01  0.559E-01
 -18.670  0.568E-01  0.568E-01
 -18.660  0.567E-01  0.567E-01
 -18.650  0.557E-01  0.557E-01
 -18.640  0.538E-01  0.538E-01
 -18.630  0.515E-01  0.515E-01
 -18.620  0.491E-01  0.491E-01
 -18.610  0.471E-01  0.471E-01
 -18.600  0.458E-01  0.458E-01
 -18.590  0.454E-01  0.454E-01
 -18.580  0.460E-01  0.460E-01
 -18.570  0.473E-01  0.473E-01
 -18.560  0.492E-01  0.492E-01
 -18.550  0.512E-01  0.512E-01
 -18.540  0.530E-01  0.530E-01
 -18.530  0.541E-01  0.541E-01
 -18.520  0.543E-01  0.543E-01
 -18.510  0.537E-01  0.537E-01
 -18.500  0.522E-01  0.522E-01
 -18.490  0.502E-01  0.502E-01
 -18.480  0.481E-01  0.481E-01
 -18.470  0.463E-01  0.463E-01
 -18.460  0.451E-01  0.451E-01
 -18.450  0.447E-01  0.447E-01
 -18.440  0.452E-01  0.452E-01
 -18.430  0.464E-01  0.464E-01
 -18.420  0.482E-01  0.482E-01
 -18.410  0.501E-01  0.501E-01
 -18.400  0.517E-01  0.517E-01
 -18.390  0.527E-01  0.527E-01
 -18.380  0.529E-01  0.529E-01
 -18.370  0.523E-01  0.523E-01
 -18.360  0.510E-01  0.510E-01
 -18.350  0.494E-01  0.494E-01
 -18.340  0.477E-01  0.477E-01
 -18.330  0.465E-01  0.465E-01
 -18.320  0.459E-01  0.459E-01
 -18.310  0.462E-01  0.462E-01
 -18.300  0.473E-01  0.473E-01
 -18.290  0.491E-01  0.491E-01
 -18.280  0.513E-01  0.513E-01
 -18.270  0.534E-01  0.534E-01
 -18.260  0.551E-01  0.551E-01
 -18.250  0.563E-01  0.563E-01
 -18.240  0.568E-01  0.568E-01
 -18.230  0.568E-01  0.568E-01
 -18.220  0.565E-01  0.565E-01
 -18.210  0.563E-01  0.563E-01
 -18.200  0.563E-01  0.563E-01
 -18.190  0.568E-01  0.568E-01
 -18.180  0.578E-01  0.578E-01
 -18.170  0.589E-01  0.589E-01
 -18.160  0.599E-01  0.599E-01
 -18.150  0.602E-01  0.602E-01
 -18.140  0.595E-01  0.595E-01
 -18.130  0.575E-01  0.575E-01
 -18.120  0.542E-01  0.542E-01
 -18.110  0.500E-01  0.500E-01
 -18.100  0.453E-01  0.453E-01
 -18.090  0.407E-01  0.407E-01
 -18.080  0.368E-01  0.368E-01
 -18.070  0.338E-01  0.338E-01
 -18.060  0.318E-01  0.318E-01
 -18.050  0.306E-01  0.306E-01
 -18.040  0.299E-01  0.299E-01
 -18.030  0.293E-01  0.293E-01
 -18.020  0.285E-01  0.285E-01
 -18.010  0.273E-01  0.273E-01
 -18.000  0.258E-01  0.258E-01
 -17.990  0.241E-01  0.241E-01
 -17.980  0.226E-01  0.226E-01
 -17.970  0.213E-01  0.213E-01
 -17.960  0.204E-01  0.204E-01
 -17.950  0.198E-01  0.198E-01
 -17.940  0.194E-01  0.194E-01
 -17.930  0.189E-01  0.189E-01
 -17.920  0.184E-01  0.184E-01
 -17.910  0.177E-01  0.177E-01
 -17.900  0.168E-01  0.168E-01
 -17.890  0.159E-01  0.159E-01
 -17.880  0.149E-01  0.149E-01
 -17.870  0.140E-01  0.140E-01
 -17.860  0.133E-01  0.133E-01
 -17.850  0.127E-01  0.127E-01
 -17.840  0.121E-01  0.121E-01
 -17.830  0.116E-01  0.116E-01
 -17.820  0.111E-01  0.111E-01
 -17.810  0.105E-01  0.105E-01
 -17.800  0.984E-02  0.984E-02
 -17.790  0.920E-02  0.920E-02
 -17.780  0.857E-02  0.857E-02
 -17.770  0.798E-02  0.798E-02
 -17.760  0.743E-02  0.743E-02
 -17.750  0.690E-02  0.690E-02
 -17.740  0.640E-02  0.640E-02
 -17.730  0.590E-02  0.590E-02
 -17.720  0.540E-02  0.540E-02
 -17.710  0.490E-02  0.490E-02
 -17.700  0.440E-02  0.440E-02
 -17.690  0.391E-02  0.391E-02
 -17.680  0.344E-02  0.344E-02
 -17.670  0.298E-02  0.298E-02
 -17.660  0.254E-02  0.254E-02
 -17.650  0.211E-02  0.211E-02
 -17.640  0.171E-02  0.171E-02
 -17.630  0.133E-02  0.133E-02
 -17.620  0.984E-03  0.984E-03
 -17.610  0.673E-03  0.673E-03
 -17.600  0.404E-03  0.404E-03
 -17.590  0.182E-03  0.182E-03
 -17.580  0.833E-05  0.833E-05
 -17.570 -0.117E-03 -0.117E-03
 -17.560 -0.198E-03 -0.198E-03
 -17.550 -0.240E-03 -0.240E-03
 -17.540 -0.250E-03 -0.250E-03
 -17.530 -0.236E-03 -0.236E-03
 -17.520 -0.208E-03 -0.208E-03
 -17.510 -0.173E-03 -0.173E-03
 -17.500 -0.136E-03 -0.136E-03
 -17.490 -0.102E-03 -0.102E-03
 -17.480 -0.727E-04 -0.727E-04
 -17.470 -0.496E-04 -0.496E-04
 -17.460 -0.324E-04 -0.324E-04
 -17.450 -0.202E-04 -0.202E-04
 -17.440 -0.121E-04 -0.121E-04
 -17.430 -0.694E-05 -0.694E-05
 -17.420 -0.382E-05 -0.382E-05
 -17.410 -0.201E-05 -0.201E-05
 -17.400 -0.101E-05 -0.101E-05
 -17.390 -0.491E-06 -0.491E-06
 -17.380 -0.228E-06 -0.228E-06
 -17.370 -0.101E-06 -0.101E-06
 -17.360 -0.432E-07 -0.432E-07
 -17.350 -0.176E-07 -0.176E-07
 -17.340 -0.691E-08 -0.691E-08
 -17.330 -0.259E-08 -0.259E-08
 -17.320 -0.933E-09 -0.933E-09
 -17.310 -0.321E-09 -0.321E-09
 -17.300 -0.105E-09 -0.105E-09
 -17.290 -0.327E-10 -0.327E-10
 -17.280 -0.999E-11 -0.999E-11
 -17.270 -0.224E-11 -0.224E-11
 -17.260 -0.522E-12 -0.522E-12
 -17.250 -0.583E-21 -0.583E-21
 -17.240  0.000E+00  0.000E+00
 -17.230  0.000E+00  0.000E+00
 -17.220  0.000E+00  0.000E+00
 -17.210  0.000E+00  0.000E+00
 -17.200  0.000E+00  0.000E+00
 -17.190  0.000E+00  0.000E+00
 -17.180  0.000E+00  0.000E+00
 -17.170  0.000E+00  0.000E+00
 -17.160  0.000E+00  0.000E+00
 -17.150  0.000E+00  0.000E+00
 -17.140  0.000E+00  0.000E+00
 -17.130  0.000E+00  0.000E+00
 -17.120  0.000E+00  0.000E+00
 -17.110  0.000E+00  0.000E+00
 -17.100  0.000E+00  0.000E+00
 -17.090  0.000E+00  0.000E+00
 -17.080  0.000E+00  0.000E+00
 -17.070  0.000E+00  0.000E+00
 -17.060  0.000E+00  0.000E+00
 -17.050  0.000E+00  0.000E+00
 -17.040  0.000E+00  0.000E+00
 -17.030  0.000E+00  0.000E+00
 -17.020  0.000E+00  0.000E+00
 -17.010  0.000E+00  0.000E+00
 -17.000  0.000E+00  0.000E+00
 -16.990  0.000E+00  0.000E+00
 -16.980  0.000E+00  0.000E+00
 -16.970  0.000E+00  0.000E+00
 -16.960  0.000E+00  0.000E+00
 -16.950  0.000E+00  0.000E+00
 -16.940  0.000E+00  0.000E+00
 -16.930  0.000E+00  0.000E+00
 -16.920  0.000E+00  0.000E+00
 -16.910  0.000E+00  0.000E+00
 -16.900  0.000E+00  0.000E+00
 -16.890  0.000E+00  0.000E+00
 -16.880  0.000E+00  0.000E+00
 -16.870  0.000E+00  0.000E+00
 -16.860  0.000E+00  0.000E+00
 -16.850  0.000E+00  0.000E+00
 -16.840  0.000E+00  0.000E+00
 -16.830  0.000E+00  0.000E+00
 -16.820  0.000E+00  0.000E+00
 -16.810  0.000E+00  0.000E+00
 -16.800  0.000E+00  0.000E+00
 -16.790  0.000E+00  0.000E+00
 -16.780  0.000E+00  0.000E+00
 -16.770  0.000E+00  0.000E+00
 -16.760  0.000E+00  0.000E+00
 -16.750  0.000E+00  0.000E+00
 -16.740  0.000E+00  0.000E+00
 -16.730  0.000E+00  0.000E+00
 -16.720  0.000E+00  0.000E+00
 -16.710  0.000E+00  0.000E+00
 -16.700  0.000E+00  0.000E+00
 -16.690  0.000E+00  0.000E+00
 -16.680  0.000E+00  0.000E+00
 -16.670  0.000E+00  0.000E+00
 -16.660  0.000E+00  0.000E+00
 -16.650  0.000E+00  0.000E+00
 -16.640  0.000E+00  0.000E+00
 -16.630  0.000E+00  0.000E+00
 -16.620  0.000E+00  0.000E+00
 -16.610  0.000E+00  0.000E+00
 -16.600  0.000E+00  0.000E+00
 -16.590  0.000E+00  0.000E+00
 -16.580  0.000E+00  0.000E+00
 -16.570  0.000E+00  0.000E+00
 -16.560  0.000E+00  0.000E+00
 -16.550  0.000E+00  0.000E+00
 -16.540  0.000E+00  0.000E+00
 -16.530  0.000E+00  0.000E+00
 -16.520  0.000E+00  0.000E+00
 -16.510  0.000E+00  0.000E+00
 -16.500  0.000E+00  0.000E+00
 -16.490  0.000E+00  0.000E+00
 -16.480  0.000E+00  0.000E+00
 -16.470  0.000E+00  0.000E+00
 -16.460  0.000E+00  0.000E+00
 -16.450  0.000E+00  0.000E+00
 -16.440  0.000E+00  0.000E+00
 -16.430  0.000E+00  0.000E+00
 -16.420  0.000E+00  0.000E+00
 -16.410  0.000E+00  0.000E+00
 -16.400  0.000E+00  0.000E+00
 -16.390  0.000E+00  0.000E+00
 -16.380  0.000E+00  0.000E+00
 -16.370  0.000E+00  0.000E+00
 -16.360  0.000E+00  0.000E+00
 -16.350  0.000E+00  0.000E+00
 -16.340  0.000E+00  0.000E+00
 -16.330  0.000E+00  0.000E+00
 -16.320  0.000E+00  0.000E+00
 -16.310  0.000E+00  0.000E+00
 -16.300  0.000E+00  0.000E+00
 -16.290  0.000E+00  0.000E+00
 -16.280  0.000E+00  0.000E+00
 -16.270  0.000E+00  0.000E+00
 -16.260  0.000E+00  0.000E+00
 -16.250  0.000E+00  0.000E+00
 -16.240  0.000E+00  0.000E+00
 -16.230  0.000E+00  0.000E+00
 -16.220  0.000E+00  0.000E+00
 -16.210  0.000E+00  0.000E+00
 -16.200  0.000E+00  0.000E+00
 -16.190  0.000E+00  0.000E+00
 -16.180  0.000E+00  0.000E+00
 -16.170  0.000E+00  0.000E+00
 -16.160  0.000E+00  0.000E+00
 -16.150  0.000E+00  0.000E+00
 -16.140  0.000E+00  0.000E+00
 -16.130  0.000E+00  0.000E+00
 -16.120  0.000E+00  0.000E+00
 -16.110  0.000E+00  0.000E+00
 -16.100  0.000E+00  0.000E+00
 -16.090  0.000E+00  0.000E+00
 -16.080  0.000E+00  0.000E+00
 -16.070  0.000E+00  0.000E+00
 -16.060  0.000E+00  0.000E+00
 -16.050  0.000E+00  0.000E+00
 -16.040  0.000E+00  0.000E+00
 -16.030  0.000E+00  0.000E+00
 -16.020  0.000E+00  0.000E+00
 -16.010  0.000E+00  0.000E+00
 -16.000  0.000E+00  0.000E+00
 -15.990  0.000E+00  0.000E+00
 -15.980  0.000E+00  0.000E+00
 -15.970  0.000E+00  0.000E+00
 -15.960  0.000E+00  0.000E+00
 -15.950  0.000E+00  0.000E+00
 -15.940  0.000E+00  0.000E+00
 -15.930  0.000E+00  0.000E+00
 -15.920  0.000E+00  0.000E+00
 -15.910  0.000E+00  0.000E+00
 -15.900  0.000E+00  0.000E+00
 -15.890  0.000E+00  0.000E+00
 -15.880  0.000E+00  0.000E+00
 -15.870  0.000E+00  0.000E+00
 -15.860  0.000E+00  0.000E+00
 -15.850  0.000E+00  0.000E+00
 -15.840  0.000E+00  0.000E+00
 -15.830  0.000E+00  0.000E+00
 -15.820  0.000E+00  0.000E+00
 -15.810  0.000E+00  0.000E+00
 -15.800  0.000E+00  0.000E+00
 -15.790  0.000E+00  0.000E+00
 -15.780  0.000E+00  0.000E+00
 -15.770  0.000E+00  0.000E+00
 -15.760  0.000E+00  0.000E+00
 -15.750  0.000E+00  0.000E+00
 -15.740  0.000E+00  0.000E+00
 -15.730  0.000E+00  0.000E+00
 -15.720  0.000E+00  0.000E+00
 -15.710  0.000E+00  0.000E+00
 -15.700  0.000E+00  0.000E+00
 -15.690  0.000E+00  0.000E+00
 -15.680  0.000E+00  0.000E+00
 -15.670  0.000E+00  0.000E+00
 -15.660  0.000E+00  0.000E+00
 -15.650  0.000E+00  0.000E+00
 -15.640  0.000E+00  0.000E+00
 -15.630  0.000E+00  0.000E+00
 -15.620  0.000E+00  0.000E+00
 -15.610  0.000E+00  0.000E+00
 -15.600  0.000E+00  0.000E+00
 -15.590  0.000E+00  0.000E+00
 -15.580  0.000E+00  0.000E+00
 -15.570  0.000E+00  0.000E+00
 -15.560  0.000E+00  0.000E+00
 -15.550  0.000E+00  0.000E+00
 -15.540  0.000E+00  0.000E+00
 -15.530  0.000E+00  0.000E+00
 -15.520  0.000E+00  0.000E+00
 -15.510  0.000E+00  0.000E+00
 -15.500  0.000E+00  0.000E+00
 -15.490  0.000E+00  0.000E+00
 -15.480  0.000E+00  0.000E+00
 -15.470  0.000E+00  0.000E+00
 -15.460  0.000E+00  0.000E+00
 -15.450  0.000E+00  0.000E+00
 -15.440  0.000E+00  0.000E+00
 -15.430  0.000E+00  0.000E+00
 -15.420  0.000E+00  0.000E+00
 -15.410  0.000E+00  0.000E+00
 -15.400  0.000E+00  0.000E+00
 -15.390  0.000E+00  0.000E+00
 -15.380  0.000E+00  0.000E+00
 -15.370  0.000E+00  0.000E+00
 -15.360  0.000E+00  0.000E+00
 -15.350  0.000E+00  0.000E+00
 -15.340  0.000E+00  0.000E+00
 -15.330  0.000E+00  0.000E+00
 -15.320  0.000E+00  0.000E+00
 -15.310  0.000E+00  0.000E+00
 -15.300  0.000E+00  0.000E+00
 -15.290  0.000E+00  0.000E+00
 -15.280  0.000E+00  0.000E+00
 -15.270  0.000E+00  0.000E+00
 -15.260  0.000E+00  0.000E+00
 -15.250  0.000E+00  0.000E+00
 -15.240  0.000E+00  0.000E+00
 -15.230  0.000E+00  0.000E+00
 -15.220  0.000E+00  0.000E+00
 -15.210  0.000E+00  0.000E+00
 -15.200  0.000E+00  0.000E+00
 -15.190  0.000E+00  0.000E+00
 -15.180  0.000E+00  0.000E+00
 -15.170  0.000E+00  0.000E+00
 -15.160  0.000E+00  0.000E+00
 -15.150  0.000E+00  0.000E+00
 -15.140  0.000E+00  0.000E+00
 -15.130  0.000E+00  0.000E+00
 -15.120  0.000E+00  0.000E+00
 -15.110  0.000E+00  0.000E+00
 -15.100  0.000E+00  0.000E+00
 -15.090  0.000E+00  0.000E+00
 -15.080  0.000E+00  0.000E+00
 -15.070  0.000E+00  0.000E+00
 -15.060  0.000E+00  0.000E+00
 -15.050  0.000E+00  0.000E+00
 -15.040  0.000E+00  0.000E+00
 -15.030  0.000E+00  0.000E+00
 -15.020  0.000E+00  0.000E+00
 -15.010  0.000E+00  0.000E+00
 -15.000  0.000E+00  0.000E+00
 -14.990  0.000E+00  0.000E+00
 -14.980  0.000E+00  0.000E+00
 -14.970  0.000E+00  0.000E+00
 -14.960  0.000E+00  0.000E+00
 -14.950  0.000E+00  0.000E+00
 -14.940  0.000E+00  0.000E+00
 -14.930  0.000E+00  0.000E+00
 -14.920  0.000E+00  0.000E+00
 -14.910  0.000E+00  0.000E+00
 -14.900  0.000E+00  0.000E+00
 -14.890  0.000E+00  0.000E+00
 -14.880  0.000E+00  0.000E+00
 -14.870  0.000E+00  0.000E+00
 -14.860  0.000E+00  0.000E+00
 -14.850  0.000E+00  0.000E+00
 -14.840  0.000E+00  0.000E+00
 -14.830  0.000E+00  0.000E+00
 -14.820  0.000E+00  0.000E+00
 -14.810  0.000E+00  0.000E+00
 -14.800  0.000E+00  0.000E+00
 -14.790  0.000E+00  0.000E+00
 -14.780  0.000E+00  0.000E+00
 -14.770  0.000E+00  0.000E+00
 -14.760  0.000E+00  0.000E+00
 -14.750  0.000E+00  0.000E+00
 -14.740  0.000E+00  0.000E+00
 -14.730  0.000E+00  0.000E+00
 -14.720  0.000E+00  0.000E+00
 -14.710  0.000E+00  0.000E+00
 -14.700  0.000E+00  0.000E+00
 -14.690  0.000E+00  0.000E+00
 -14.680  0.000E+00  0.000E+00
 -14.670  0.000E+00  0.000E+00
 -14.660  0.000E+00  0.000E+00
 -14.650  0.000E+00  0.000E+00
 -14.640  0.000E+00  0.000E+00
 -14.630  0.000E+00  0.000E+00
 -14.620  0.000E+00  0.000E+00
 -14.610  0.000E+00  0.000E+00
 -14.600  0.000E+00  0.000E+00
 -14.590  0.000E+00  0.000E+00
 -14.580  0.000E+00  0.000E+00
 -14.570  0.000E+00  0.000E+00
 -14.560  0.000E+00  0.000E+00
 -14.550  0.000E+00  0.000E+00
 -14.540  0.000E+00  0.000E+00
 -14.530  0.000E+00  0.000E+00
 -14.520  0.000E+00  0.000E+00
 -14.510  0.000E+00  0.000E+00
 -14.500  0.000E+00  0.000E+00
 -14.490  0.000E+00  0.000E+00
 -14.480  0.000E+00  0.000E+00
 -14.470  0.000E+00  0.000E+00
 -14.460  0.000E+00  0.000E+00
 -14.450  0.000E+00  0.000E+00
 -14.440  0.000E+00  0.000E+00
 -14.430  0.000E+00  0.000E+00
 -14.420  0.000E+00  0.000E+00
 -14.410  0.000E+00  0.000E+00
 -14.400  0.000E+00  0.000E+00
 -14.390  0.000E+00  0.000E+00
 -14.380  0.000E+00  0.000E+00
 -14.370  0.000E+00  0.000E+00
 -14.360  0.000E+00  0.000E+00
 -14.350  0.000E+00  0.000E+00
 -14.340  0.000E+00  0.000E+00
 -14.330  0.000E+00  0.000E+00
 -14.320  0.000E+00  0.000E+00
 -14.310  0.000E+00  0.000E+00
 -14.300  0.000E+00  0.000E+00
 -14.290  0.000E+00  0.000E+00
 -14.280  0.000E+00  0.000E+00
 -14.270  0.000E+00  0.000E+00
 -14.260  0.000E+00  0.000E+00
 -14.250  0.000E+00  0.000E+00
 -14.240  0.000E+00  0.000E+00
 -14.230  0.000E+00  0.000E+00
 -14.220  0.000E+00  0.000E+00
 -14.210  0.000E+00  0.000E+00
 -14.200  0.000E+00  0.000E+00
 -14.190  0.000E+00  0.000E+00
 -14.180  0.000E+00  0.000E+00
 -14.170  0.000E+00  0.000E+00
 -14.160  0.000E+00  0.000E+00
 -14.150  0.000E+00  0.000E+00
 -14.140  0.000E+00  0.000E+00
 -14.130  0.000E+00  0.000E+00
 -14.120  0.000E+00  0.000E+00
 -14.110  0.000E+00  0.000E+00
 -14.100  0.000E+00  0.000E+00
 -14.090  0.000E+00  0.000E+00
 -14.080  0.000E+00  0.000E+00
 -14.070  0.000E+00  0.000E+00
 -14.060  0.000E+00  0.000E+00
 -14.050  0.000E+00  0.000E+00
 -14.040  0.000E+00  0.000E+00
 -14.030  0.000E+00  0.000E+00
 -14.020  0.000E+00  0.000E+00
 -14.010  0.000E+00  0.000E+00
 -14.000  0.000E+00  0.000E+00
 -13.990  0.000E+00  0.000E+00
 -13.980  0.000E+00  0.000E+00
 -13.970  0.000E+00  0.000E+00
 -13.960  0.000E+00  0.000E+00
 -13.950  0.000E+00  0.000E+00
 -13.940  0.000E+00  0.000E+00
 -13.930  0.000E+00  0.000E+00
 -13.920  0.000E+00  0.000E+00
 -13.910  0.000E+00  0.000E+00
 -13.900  0.000E+00  0.000E+00
 -13.890  0.000E+00  0.000E+00
 -13.880  0.000E+00  0.000E+00
 -13.870  0.000E+00  0.000E+00
 -13.860  0.000E+00  0.000E+00
 -13.850  0.000E+00  0.000E+00
 -13.840  0.000E+00  0.000E+00
 -13.830  0.000E+00  0.000E+00
 -13.820  0.000E+00  0.000E+00
 -13.810  0.000E+00  0.000E+00
 -13.800  0.000E+00  0.000E+00
 -13.790  0.000E+00  0.000E+00
 -13.780  0.000E+00  0.000E+00
 -13.770  0.000E+00  0.000E+00
 -13.760  0.000E+00  0.000E+00
 -13.750  0.000E+00  0.000E+00
 -13.740  0.000E+00  0.000E+00
 -13.730  0.000E+00  0.000E+00
 -13.720  0.000E+00  0.000E+00
 -13.710  0.000E+00  0.000E+00
 -13.700  0.000E+00  0.000E+00
 -13.690  0.000E+00  0.000E+00
 -13.680  0.000E+00  0.000E+00
 -13.670  0.000E+00  0.000E+00
 -13.660  0.000E+00  0.000E+00
 -13.650  0.000E+00  0.000E+00
 -13.640  0.000E+00  0.000E+00
 -13.630  0.000E+00  0.000E+00
 -13.620  0.000E+00  0.000E+00
 -13.610  0.000E+00  0.000E+00
 -13.600  0.000E+00  0.000E+00
 -13.590  0.000E+00  0.000E+00
 -13.580  0.000E+00  0.000E+00
 -13.570  0.000E+00  0.000E+00
 -13.560  0.000E+00  0.000E+00
 -13.550  0.000E+00  0.000E+00
 -13.540  0.000E+00  0.000E+00
 -13.530  0.000E+00  0.000E+00
 -13.520  0.000E+00  0.000E+00
 -13.510  0.000E+00  0.000E+00
 -13.500  0.000E+00  0.000E+00
 -13.490  0.000E+00  0.000E+00
 -13.480  0.000E+00  0.000E+00
 -13.470  0.000E+00  0.000E+00
 -13.460  0.000E+00  0.000E+00
 -13.450  0.000E+00  0.000E+00
 -13.440  0.000E+00  0.000E+00
 -13.430  0.000E+00  0.000E+00
 -13.420  0.000E+00  0.000E+00
 -13.410  0.000E+00  0.000E+00
 -13.400  0.000E+00  0.000E+00
 -13.390  0.000E+00  0.000E+00
 -13.380  0.000E+00  0.000E+00
 -13.370  0.000E+00  0.000E+00
 -13.360  0.000E+00  0.000E+00
 -13.350  0.000E+00  0.000E+00
 -13.340  0.000E+00  0.000E+00
 -13.330  0.000E+00  0.000E+00
 -13.320  0.000E+00  0.000E+00
 -13.310  0.000E+00  0.000E+00
 -13.300  0.000E+00  0.000E+00
 -13.290  0.000E+00  0.000E+00
 -13.280  0.000E+00  0.000E+00
 -13.270  0.000E+00  0.000E+00
 -13.260  0.000E+00  0.000E+00
 -13.250  0.000E+00  0.000E+00
 -13.240  0.000E+00  0.000E+00
 -13.230  0.000E+00  0.000E+00
 -13.220  0.000E+00  0.000E+00
 -13.210  0.000E+00  0.000E+00
 -13.200  0.000E+00  0.000E+00
 -13.190  0.000E+00  0.000E+00
 -13.180  0.000E+00  0.000E+00
 -13.170  0.000E+00  0.000E+00
 -13.160  0.000E+00  0.000E+00
 -13.150  0.000E+00  0.000E+00
 -13.140  0.000E+00  0.000E+00
 -13.130  0.000E+00  0.000E+00
 -13.120  0.000E+00  0.000E+00
 -13.110  0.000E+00  0.000E+00
 -13.100  0.000E+00  0.000E+00
 -13.090  0.000E+00  0.000E+00
 -13.080  0.000E+00  0.000E+00
 -13.070  0.000E+00  0.000E+00
 -13.060  0.000E+00  0.000E+00
 -13.050  0.000E+00  0.000E+00
 -13.040  0.000E+00  0.000E+00
 -13.030  0.000E+00  0.000E+00
 -13.020  0.000E+00  0.000E+00
 -13.010  0.000E+00  0.000E+00
 -13.000  0.000E+00  0.000E+00
 -12.990  0.000E+00  0.000E+00
 -12.980  0.000E+00  0.000E+00
 -12.970  0.000E+00  0.000E+00
 -12.960  0.000E+00  0.000E+00
 -12.950  0.000E+00  0.000E+00
 -12.940  0.000E+00  0.000E+00
 -12.930  0.000E+00  0.000E+00
 -12.920  0.000E+00  0.000E+00
 -12.910  0.000E+00  0.000E+00
 -12.900  0.000E+00  0.000E+00
 -12.890  0.000E+00  0.000E+00
 -12.880  0.000E+00  0.000E+00
 -12.870  0.000E+00  0.000E+00
 -12.860  0.000E+00  0.000E+00
 -12.850  0.000E+00  0.000E+00
 -12.840  0.000E+00  0.000E+00
 -12.830  0.000E+00  0.000E+00
 -12.820  0.230E-16  0.230E-16
 -12.810  0.228E-15  0.228E-15
 -12.800  0.136E-14  0.136E-14
 -12.790  0.704E-14  0.704E-14
 -12.780  0.347E-13  0.347E-13
 -12.770  0.162E-12  0.162E-12
 -12.760  0.724E-12  0.724E-12
 -12.750  0.310E-11  0.310E-11
 -12.740  0.127E-10  0.127E-10
 -12.730  0.501E-10  0.501E-10
 -12.720  0.189E-09  0.189E-09
 -12.710  0.681E-09  0.681E-09
 -12.700  0.235E-08  0.235E-08
 -12.690  0.779E-08  0.779E-08
 -12.680  0.247E-07  0.247E-07
 -12.670  0.751E-07  0.751E-07
 -12.660  0.219E-06  0.219E-06
 -12.650  0.610E-06  0.610E-06
 -12.640  0.163E-05  0.163E-05
 -12.630  0.418E-05  0.418E-05
 -12.620  0.103E-04  0.103E-04
 -12.610  0.241E-04  0.241E-04
 -12.600  0.544E-04  0.544E-04
 -12.590  0.118E-03  0.118E-03
 -12.580  0.243E-03  0.243E-03
 -12.570  0.483E-03  0.483E-03
 -12.560  0.920E-03  0.920E-03
 -12.550  0.168E-02  0.168E-02
 -12.540  0.294E-02  0.294E-02
 -12.530  0.494E-02  0.494E-02
 -12.520  0.797E-02  0.797E-02
 -12.510  0.123E-01  0.123E-01
 -12.500  0.183E-01  0.183E-01
 -12.490  0.262E-01  0.262E-01
 -12.480  0.360E-01  0.360E-01
 -12.470  0.476E-01  0.476E-01
 -12.460  0.607E-01  0.607E-01
 -12.450  0.746E-01  0.746E-01
 -12.440  0.885E-01  0.885E-01
 -12.430  0.102E+00  0.102E+00
 -12.420  0.113E+00  0.113E+00
 -12.410  0.123E+00  0.123E+00
 -12.400  0.129E+00  0.129E+00
 -12.390  0.134E+00  0.134E+00
 -12.380  0.136E+00  0.136E+00
 -12.370  0.136E+00  0.136E+00
 -12.360  0.135E+00  0.135E+00
 -12.350  0.133E+00  0.133E+00
 -12.340  0.131E+00  0.131E+00
 -12.330  0.129E+00  0.129E+00
 -12.320  0.128E+00  0.128E+00
 -12.310  0.126E+00  0.126E+00
 -12.300  0.125E+00  0.125E+00
 -12.290  0.124E+00  0.124E+00
 -12.280  0.123E+00  0.123E+00
 -12.270  0.123E+00  0.123E+00
 -12.260  0.123E+00  0.123E+00
 -12.250  0.123E+00  0.123E+00
 -12.240  0.122E+00  0.122E+00
 -12.230  0.122E+00  0.122E+00
 -12.220  0.122E+00  0.122E+00
 -12.210  0.121E+00  0.121E+00
 -12.200  0.120E+00  0.120E+00
 -12.190  0.120E+00  0.120E+00
 -12.180  0.120E+00  0.120E+00
 -12.170  0.120E+00  0.120E+00
 -12.160  0.121E+00  0.121E+00
 -12.150  0.121E+00  0.121E+00
 -12.140  0.121E+00  0.121E+00
 -12.130  0.121E+00  0.121E+00
 -12.120  0.119E+00  0.119E+00
 -12.110  0.118E+00  0.118E+00
 -12.100  0.117E+00  0.117E+00
 -12.090  0.116E+00  0.116E+00
 -12.080  0.117E+00  0.117E+00
 -12.070  0.117E+00  0.117E+00
 -12.060  0.119E+00  0.119E+00
 -12.050  0.120E+00  0.120E+00
 -12.040  0.120E+00  0.120E+00
 -12.030  0.120E+00  0.120E+00
 -12.020  0.118E+00  0.118E+00
 -12.010  0.116E+00  0.116E+00
 -12.000  0.114E+00  0.114E+00
 -11.990  0.113E+00  0.113E+00
 -11.980  0.113E+00  0.113E+00
 -11.970  0.114E+00  0.114E+00
 -11.960  0.115E+00  0.115E+00
 -11.950  0.117E+00  0.117E+00
 -11.940  0.118E+00  0.118E+00
 -11.930  0.119E+00  0.119E+00
 -11.920  0.118E+00  0.118E+00
 -11.910  0.116E+00  0.116E+00
 -11.900  0.114E+00  0.114E+00
 -11.890  0.112E+00  0.112E+00
 -11.880  0.111E+00  0.111E+00
 -11.870  0.110E+00  0.110E+00
 -11.860  0.111E+00  0.111E+00
 -11.850  0.113E+00  0.113E+00
 -11.840  0.114E+00  0.114E+00
 -11.830  0.116E+00  0.116E+00
 -11.820  0.116E+00  0.116E+00
 -11.810  0.116E+00  0.116E+00
 -11.800  0.115E+00  0.115E+00
 -11.790  0.113E+00  0.113E+00
 -11.780  0.112E+00  0.112E+00
 -11.770  0.110E+00  0.110E+00
 -11.760  0.110E+00  0.110E+00
 -11.750  0.111E+00  0.111E+00
 -11.740  0.112E+00  0.112E+00
 -11.730  0.113E+00  0.113E+00
 -11.720  0.114E+00  0.114E+00
 -11.710  0.115E+00  0.115E+00
 -11.700  0.115E+00  0.115E+00
 -11.690  0.114E+00  0.114E+00
 -11.680  0.113E+00  0.113E+00
 -11.670  0.113E+00  0.113E+00
 -11.660  0.113E+00  0.113E+00
 -11.650  0.114E+00  0.114E+00
 -11.640  0.116E+00  0.116E+00
 -11.630  0.118E+00  0.118E+00
 -11.620  0.121E+00  0.121E+00
 -11.610  0.123E+00  0.123E+00
 -11.600  0.124E+00  0.124E+00
 -11.590  0.123E+00  0.123E+00
 -11.580  0.122E+00  0.122E+00
 -11.570  0.120E+00  0.120E+00
 -11.560  0.117E+00  0.117E+00
 -11.550  0.114E+00  0.114E+00
 -11.540  0.111E+00  0.111E+00
 -11.530  0.108E+00  0.108E+00
 -11.520  0.105E+00  0.105E+00
 -11.510  0.101E+00  0.101E+00
 -11.500  0.979E-01  0.979E-01
 -11.490  0.940E-01  0.940E-01
 -11.480  0.896E-01  0.896E-01
 -11.470  0.848E-01  0.848E-01
 -11.460  0.800E-01  0.800E-01
 -11.450  0.756E-01  0.756E-01
 -11.440  0.720E-01  0.720E-01
 -11.430  0.694E-01  0.694E-01
 -11.420  0.682E-01  0.682E-01
 -11.410  0.681E-01  0.681E-01
 -11.400  0.691E-01  0.691E-01
 -11.390  0.706E-01  0.706E-01
 -11.380  0.722E-01  0.722E-01
 -11.370  0.735E-01  0.735E-01
 -11.360  0.740E-01  0.740E-01
 -11.350  0.735E-01  0.735E-01
 -11.340  0.719E-01  0.719E-01
 -11.330  0.696E-01  0.696E-01
 -11.320  0.667E-01  0.667E-01
 -11.310  0.637E-01  0.637E-01
 -11.300  0.610E-01  0.610E-01
 -11.290  0.591E-01  0.591E-01
 -11.280  0.581E-01  0.581E-01
 -11.270  0.583E-01  0.583E-01
 -11.260  0.594E-01  0.594E-01
 -11.250  0.613E-01  0.613E-01
 -11.240  0.635E-01  0.635E-01
 -11.230  0.656E-01  0.656E-01
 -11.220  0.669E-01  0.669E-01
 -11.210  0.671E-01  0.671E-01
 -11.200  0.659E-01  0.659E-01
 -11.190  0.633E-01  0.633E-01
 -11.180  0.597E-01  0.597E-01
 -11.170  0.557E-01  0.557E-01
 -11.160  0.519E-01  0.519E-01
 -11.150  0.492E-01  0.492E-01
 -11.140  0.480E-01  0.480E-01
 -11.130  0.485E-01  0.485E-01
 -11.120  0.506E-01  0.506E-01
 -11.110  0.537E-01  0.537E-01
 -11.100  0.572E-01  0.572E-01
 -11.090  0.602E-01  0.602E-01
 -11.080  0.620E-01  0.620E-01
 -11.070  0.623E-01  0.623E-01
 -11.060  0.611E-01  0.611E-01
 -11.050  0.584E-01  0.584E-01
 -11.040  0.548E-01  0.548E-01
 -11.030  0.510E-01  0.510E-01
 -11.020  0.475E-01  0.475E-01
 -11.010  0.448E-01  0.448E-01
 -11.000  0.432E-01  0.432E-01
 -10.990  0.428E-01  0.428E-01
 -10.980  0.436E-01  0.436E-01
 -10.970  0.452E-01  0.452E-01
 -10.960  0.475E-01  0.475E-01
 -10.950  0.501E-01  0.501E-01
 -10.940  0.526E-01  0.526E-01
 -10.930  0.547E-01  0.547E-01
 -10.920  0.561E-01  0.561E-01
 -10.910  0.565E-01  0.565E-01
 -10.900  0.558E-01  0.558E-01
 -10.890  0.538E-01  0.538E-01
 -10.880  0.509E-01  0.509E-01
 -10.870  0.472E-01  0.472E-01
 -10.860  0.432E-01  0.432E-01
 -10.850  0.397E-01  0.397E-01
 -10.840  0.371E-01  0.371E-01
 -10.830  0.361E-01  0.361E-01
 -10.820  0.371E-01  0.371E-01
 -10.810  0.402E-01  0.402E-01
 -10.800  0.454E-01  0.454E-01
 -10.790  0.522E-01  0.522E-01
 -10.780  0.597E-01  0.597E-01
 -10.770  0.670E-01  0.670E-01
 -10.760  0.732E-01  0.732E-01
 -10.750  0.774E-01  0.774E-01
 -10.740  0.792E-01  0.792E-01
 -10.730  0.785E-01  0.785E-01
 -10.720  0.755E-01  0.755E-01
 -10.710  0.710E-01  0.710E-01
 -10.700  0.661E-01  0.661E-01
 -10.690  0.619E-01  0.619E-01
 -10.680  0.594E-01  0.594E-01
 -10.670  0.594E-01  0.594E-01
 -10.660  0.621E-01  0.621E-01
 -10.650  0.670E-01  0.670E-01
 -10.640  0.732E-01  0.732E-01
 -10.630  0.796E-01  0.796E-01
 -10.620  0.848E-01  0.848E-01
 -10.610  0.876E-01  0.876E-01
 -10.600  0.875E-01  0.875E-01
 -10.590  0.846E-01  0.846E-01
 -10.580  0.794E-01  0.794E-01
 -10.570  0.730E-01  0.730E-01
 -10.560  0.665E-01  0.665E-01
 -10.550  0.611E-01  0.611E-01
 -10.540  0.577E-01  0.577E-01
 -10.530  0.567E-01  0.567E-01
 -10.520  0.583E-01  0.583E-01
 -10.510  0.619E-01  0.619E-01
 -10.500  0.671E-01  0.671E-01
 -10.490  0.730E-01  0.730E-01
 -10.480  0.785E-01  0.785E-01
 -10.470  0.828E-01  0.828E-01
 -10.460  0.852E-01  0.852E-01
 -10.450  0.850E-01  0.850E-01
 -10.440  0.822E-01  0.822E-01
 -10.430  0.771E-01  0.771E-01
 -10.420  0.705E-01  0.705E-01
 -10.410  0.634E-01  0.634E-01
 -10.400  0.569E-01  0.569E-01
 -10.390  0.522E-01  0.522E-01
 -10.380  0.499E-01  0.499E-01
 -10.370  0.506E-01  0.506E-01
 -10.360  0.542E-01  0.542E-01
 -10.350  0.603E-01  0.603E-01
 -10.340  0.680E-01  0.680E-01
 -10.330  0.764E-01  0.764E-01
 -10.320  0.843E-01  0.843E-01
 -10.310  0.903E-01  0.903E-01
 -10.300  0.934E-01  0.934E-01
 -10.290  0.930E-01  0.930E-01
 -10.280  0.888E-01  0.888E-01
 -10.270  0.813E-01  0.813E-01
 -10.260  0.715E-01  0.715E-01
 -10.250  0.607E-01  0.607E-01
 -10.240  0.506E-01  0.506E-01
 -10.230  0.426E-01  0.426E-01
 -10.220  0.378E-01  0.378E-01
 -10.210  0.369E-01  0.369E-01
 -10.200  0.400E-01  0.400E-01
 -10.190  0.466E-01  0.466E-01
 -10.180  0.558E-01  0.558E-01
 -10.170  0.667E-01  0.667E-01
 -10.160  0.778E-01  0.778E-01
 -10.150  0.879E-01  0.879E-01
 -10.140  0.955E-01  0.955E-01
 -10.130  0.995E-01  0.995E-01
 -10.120  0.994E-01  0.994E-01
 -10.110  0.949E-01  0.949E-01
 -10.100  0.865E-01  0.865E-01
 -10.090  0.754E-01  0.754E-01
 -10.080  0.631E-01  0.631E-01
 -10.070  0.513E-01  0.513E-01
 -10.060  0.416E-01  0.416E-01
 -10.050  0.352E-01  0.352E-01
 -10.040  0.328E-01  0.328E-01
 -10.030  0.344E-01  0.344E-01
 -10.020  0.397E-01  0.397E-01
 -10.010  0.478E-01  0.478E-01
 -10.000  0.575E-01  0.575E-01
  -9.990  0.676E-01  0.676E-01
  -9.980  0.768E-01  0.768E-01
  -9.970  0.842E-01  0.842E-01
  -9.960  0.888E-01  0.888E-01
  -9.950  0.904E-01  0.904E-01
  -9.940  0.887E-01  0.887E-01
  -9.930  0.843E-01  0.843E-01
  -9.920  0.777E-01  0.777E-01
  -9.910  0.700E-01  0.700E-01
  -9.900  0.622E-01  0.622E-01
  -9.890  0.551E-01  0.551E-01
  -9.880  0.496E-01  0.496E-01
  -9.870  0.462E-01  0.462E-01
  -9.860  0.451E-01  0.451E-01
  -9.850  0.464E-01  0.464E-01
  -9.840  0.496E-01  0.496E-01
  -9.830  0.542E-01  0.542E-01
  -9.820  0.595E-01  0.595E-01
  -9.810  0.647E-01  0.647E-01
  -9.800  0.690E-01  0.690E-01
  -9.790  0.718E-01  0.718E-01
  -9.780  0.727E-01  0.727E-01
  -9.770  0.717E-01  0.717E-01
  -9.760  0.692E-01  0.692E-01
  -9.750  0.656E-01  0.656E-01
  -9.740  0.618E-01  0.618E-01
  -9.730  0.584E-01  0.584E-01
  -9.720  0.560E-01  0.560E-01
  -9.710  0.549E-01  0.549E-01
  -9.700  0.552E-01  0.552E-01
  -9.690  0.568E-01  0.568E-01
  -9.680  0.594E-01  0.594E-01
  -9.670  0.625E-01  0.625E-01
  -9.660  0.656E-01  0.656E-01
  -9.650  0.684E-01  0.684E-01
  -9.640  0.702E-01  0.702E-01
  -9.630  0.707E-01  0.707E-01
  -9.620  0.697E-01  0.697E-01
  -9.610  0.672E-01  0.672E-01
  -9.600  0.634E-01  0.634E-01
  -9.590  0.588E-01  0.588E-01
  -9.580  0.539E-01  0.539E-01
  -9.570  0.496E-01  0.496E-01
  -9.560  0.463E-01  0.463E-01
  -9.550  0.445E-01  0.445E-01
  -9.540  0.444E-01  0.444E-01
  -9.530  0.461E-01  0.461E-01
  -9.520  0.494E-01  0.494E-01
  -9.510  0.540E-01  0.540E-01
  -9.500  0.594E-01  0.594E-01
  -9.490  0.650E-01  0.650E-01
  -9.480  0.702E-01  0.702E-01
  -9.470  0.744E-01  0.744E-01
  -9.460  0.770E-01  0.770E-01
  -9.450  0.774E-01  0.774E-01
  -9.440  0.757E-01  0.757E-01
  -9.430  0.718E-01  0.718E-01
  -9.420  0.662E-01  0.662E-01
  -9.410  0.596E-01  0.596E-01
  -9.400  0.529E-01  0.529E-01
  -9.390  0.468E-01  0.468E-01
  -9.380  0.421E-01  0.421E-01
  -9.370  0.393E-01  0.393E-01
  -9.360  0.386E-01  0.386E-01
  -9.350  0.399E-01  0.399E-01
  -9.340  0.431E-01  0.431E-01
  -9.330  0.476E-01  0.476E-01
  -9.320  0.530E-01  0.530E-01
  -9.310  0.587E-01  0.587E-01
  -9.300  0.641E-01  0.641E-01
  -9.290  0.687E-01  0.687E-01
  -9.280  0.721E-01  0.721E-01
  -9.270  0.738E-01  0.738E-01
  -9.260  0.736E-01  0.736E-01
  -9.250  0.715E-01  0.715E-01
  -9.240  0.675E-01  0.675E-01
  -9.230  0.620E-01  0.620E-01
  -9.220  0.557E-01  0.557E-01
  -9.210  0.493E-01  0.493E-01
  -9.200  0.436E-01  0.436E-01
  -9.190  0.394E-01  0.394E-01
  -9.180  0.372E-01  0.372E-01
  -9.170  0.373E-01  0.373E-01
  -9.160  0.397E-01  0.397E-01
  -9.150  0.441E-01  0.441E-01
  -9.140  0.497E-01  0.497E-01
  -9.130  0.558E-01  0.558E-01
  -9.120  0.616E-01  0.616E-01
  -9.110  0.665E-01  0.665E-01
  -9.100  0.698E-01  0.698E-01
  -9.090  0.712E-01  0.712E-01
  -9.080  0.705E-01  0.705E-01
  -9.070  0.680E-01  0.680E-01
  -9.060  0.641E-01  0.641E-01
  -9.050  0.591E-01  0.591E-01
  -9.040  0.538E-01  0.538E-01
  -9.030  0.487E-01  0.487E-01
  -9.020  0.443E-01  0.443E-01
  -9.010  0.409E-01  0.409E-01
  -9.000  0.387E-01  0.387E-01
  -8.990  0.377E-01  0.377E-01
  -8.980  0.379E-01  0.379E-01
  -8.970  0.394E-01  0.394E-01
  -8.960  0.421E-01  0.421E-01
  -8.950  0.459E-01  0.459E-01
  -8.940  0.506E-01  0.506E-01
  -8.930  0.557E-01  0.557E-01
  -8.920  0.608E-01  0.608E-01
  -8.910  0.652E-01  0.652E-01
  -8.900  0.682E-01  0.682E-01
  -8.890  0.694E-01  0.694E-01
  -8.880  0.686E-01  0.686E-01
  -8.870  0.657E-01  0.657E-01
  -8.860  0.613E-01  0.613E-01
  -8.850  0.558E-01  0.558E-01
  -8.840  0.500E-01  0.500E-01
  -8.830  0.446E-01  0.446E-01
  -8.820  0.402E-01  0.402E-01
  -8.810  0.372E-01  0.372E-01
  -8.800  0.360E-01  0.360E-01
  -8.790  0.364E-01  0.364E-01
  -8.780  0.382E-01  0.382E-01
  -8.770  0.411E-01  0.411E-01
  -8.760  0.446E-01  0.446E-01
  -8.750  0.483E-01  0.483E-01
  -8.740  0.515E-01  0.515E-01
  -8.730  0.541E-01  0.541E-01
  -8.720  0.559E-01  0.559E-01
  -8.710  0.567E-01  0.567E-01
  -8.700  0.565E-01  0.565E-01
  -8.690  0.557E-01  0.557E-01
  -8.680  0.544E-01  0.544E-01
  -8.670  0.529E-01  0.529E-01
  -8.660  0.514E-01  0.514E-01
  -8.650  0.499E-01  0.499E-01
  -8.640  0.486E-01  0.486E-01
  -8.630  0.475E-01  0.475E-01
  -8.620  0.464E-01  0.464E-01
  -8.610  0.456E-01  0.456E-01
  -8.600  0.449E-01  0.449E-01
  -8.590  0.444E-01  0.444E-01
  -8.580  0.444E-01  0.444E-01
  -8.570  0.449E-01  0.449E-01
  -8.560  0.459E-01  0.459E-01
  -8.550  0.472E-01  0.472E-01
  -8.540  0.485E-01  0.485E-01
  -8.530  0.497E-01  0.497E-01
  -8.520  0.502E-01  0.502E-01
  -8.510  0.500E-01  0.500E-01
  -8.500  0.490E-01  0.490E-01
  -8.490  0.471E-01  0.471E-01
  -8.480  0.448E-01  0.448E-01
  -8.470  0.425E-01  0.425E-01
  -8.460  0.404E-01  0.404E-01
  -8.450  0.389E-01  0.389E-01
  -8.440  0.384E-01  0.384E-01
  -8.430  0.389E-01  0.389E-01
  -8.420  0.403E-01  0.403E-01
  -8.410  0.424E-01  0.424E-01
  -8.400  0.448E-01  0.448E-01
  -8.390  0.473E-01  0.473E-01
  -8.380  0.495E-01  0.495E-01
  -8.370  0.510E-01  0.510E-01
  -8.360  0.518E-01  0.518E-01
  -8.350  0.519E-01  0.519E-01
  -8.340  0.512E-01  0.512E-01
  -8.330  0.500E-01  0.500E-01
  -8.320  0.485E-01  0.485E-01
  -8.310  0.467E-01  0.467E-01
  -8.300  0.447E-01  0.447E-01
  -8.290  0.428E-01  0.428E-01
  -8.280  0.408E-01  0.408E-01
  -8.270  0.388E-01  0.388E-01
  -8.260  0.370E-01  0.370E-01
  -8.250  0.353E-01  0.353E-01
  -8.240  0.342E-01  0.342E-01
  -8.230  0.336E-01  0.336E-01
  -8.220  0.339E-01  0.339E-01
  -8.210  0.350E-01  0.350E-01
  -8.200  0.370E-01  0.370E-01
  -8.190  0.395E-01  0.395E-01
  -8.180  0.423E-01  0.423E-01
  -8.170  0.449E-01  0.449E-01
  -8.160  0.468E-01  0.468E-01
  -8.150  0.477E-01  0.477E-01
  -8.140  0.476E-01  0.476E-01
  -8.130  0.465E-01  0.465E-01
  -8.120  0.447E-01  0.447E-01
  -8.110  0.428E-01  0.428E-01
  -8.100  0.409E-01  0.409E-01
  -8.090  0.396E-01  0.396E-01
  -8.080  0.388E-01  0.388E-01
  -8.070  0.386E-01  0.386E-01
  -8.060  0.387E-01  0.387E-01
  -8.050  0.389E-01  0.389E-01
  -8.040  0.390E-01  0.390E-01
  -8.030  0.387E-01  0.387E-01
  -8.020  0.381E-01  0.381E-01
  -8.010  0.372E-01  0.372E-01
  -8.000  0.361E-01  0.361E-01
  -7.990  0.352E-01  0.352E-01
  -7.980  0.345E-01  0.345E-01
  -7.970  0.342E-01  0.342E-01
  -7.960  0.343E-01  0.343E-01
  -7.950  0.347E-01  0.347E-01
  -7.940  0.351E-01  0.351E-01
  -7.930  0.353E-01  0.353E-01
  -7.920  0.353E-01  0.353E-01
  -7.910  0.351E-01  0.351E-01
  -7.900  0.346E-01  0.346E-01
  -7.890  0.342E-01  0.342E-01
  -7.880  0.340E-01  0.340E-01
  -7.870  0.343E-01  0.343E-01
  -7.860  0.349E-01  0.349E-01
  -7.850  0.360E-01  0.360E-01
  -7.840  0.371E-01  0.371E-01
  -7.830  0.380E-01  0.380E-01
  -7.820  0.383E-01  0.383E-01
  -7.810  0.379E-01  0.379E-01
  -7.800  0.367E-01  0.367E-01
  -7.790  0.350E-01  0.350E-01
  -7.780  0.330E-01  0.330E-01
  -7.770  0.310E-01  0.310E-01
  -7.760  0.293E-01  0.293E-01
  -7.750  0.283E-01  0.283E-01
  -7.740  0.277E-01  0.277E-01
  -7.730  0.277E-01  0.277E-01
  -7.720  0.279E-01  0.279E-01
  -7.710  0.282E-01  0.282E-01
  -7.700  0.284E-01  0.284E-01
  -7.690  0.284E-01  0.284E-01
  -7.680  0.282E-01  0.282E-01
  -7.670  0.280E-01  0.280E-01
  -7.660  0.276E-01  0.276E-01
  -7.650  0.273E-01  0.273E-01
  -7.640  0.271E-01  0.271E-01
  -7.630  0.267E-01  0.267E-01
  -7.620  0.264E-01  0.264E-01
  -7.610  0.259E-01  0.259E-01
  -7.600  0.254E-01  0.254E-01
  -7.590  0.251E-01  0.251E-01
  -7.580  0.250E-01  0.250E-01
  -7.570  0.253E-01  0.253E-01
  -7.560  0.261E-01  0.261E-01
  -7.550  0.272E-01  0.272E-01
  -7.540  0.286E-01  0.286E-01
  -7.530  0.300E-01  0.300E-01
  -7.520  0.310E-01  0.310E-01
  -7.510  0.315E-01  0.315E-01
  -7.500  0.313E-01  0.313E-01
  -7.490  0.304E-01  0.304E-01
  -7.480  0.288E-01  0.288E-01
  -7.470  0.267E-01  0.267E-01
  -7.460  0.242E-01  0.242E-01
  -7.450  0.218E-01  0.218E-01
  -7.440  0.196E-01  0.196E-01
  -7.430  0.178E-01  0.178E-01
  -7.420  0.165E-01  0.165E-01
  -7.410  0.159E-01  0.159E-01
  -7.400  0.159E-01  0.159E-01
  -7.390  0.164E-01  0.164E-01
  -7.380  0.175E-01  0.175E-01
  -7.370  0.189E-01  0.189E-01
  -7.360  0.206E-01  0.206E-01
  -7.350  0.225E-01  0.225E-01
  -7.340  0.244E-01  0.244E-01
  -7.330  0.261E-01  0.261E-01
  -7.320  0.276E-01  0.276E-01
  -7.310  0.286E-01  0.286E-01
  -7.300  0.290E-01  0.290E-01
  -7.290  0.287E-01  0.287E-01
  -7.280  0.278E-01  0.278E-01
  -7.270  0.261E-01  0.261E-01
  -7.260  0.240E-01  0.240E-01
  -7.250  0.217E-01  0.217E-01
  -7.240  0.193E-01  0.193E-01
  -7.230  0.172E-01  0.172E-01
  -7.220  0.156E-01  0.156E-01
  -7.210  0.146E-01  0.146E-01
  -7.200  0.144E-01  0.144E-01
  -7.190  0.148E-01  0.148E-01
  -7.180  0.158E-01  0.158E-01
  -7.170  0.171E-01  0.171E-01
  -7.160  0.185E-01  0.185E-01
  -7.150  0.198E-01  0.198E-01
  -7.140  0.209E-01  0.209E-01
  -7.130  0.215E-01  0.215E-01
  -7.120  0.217E-01  0.217E-01
  -7.110  0.214E-01  0.214E-01
  -7.100  0.206E-01  0.206E-01
  -7.090  0.196E-01  0.196E-01
  -7.080  0.184E-01  0.184E-01
  -7.070  0.172E-01  0.172E-01
  -7.060  0.161E-01  0.161E-01
  -7.050  0.153E-01  0.153E-01
  -7.040  0.149E-01  0.149E-01
  -7.030  0.150E-01  0.150E-01
  -7.020  0.156E-01  0.156E-01
  -7.010  0.166E-01  0.166E-01
  -7.000  0.180E-01  0.180E-01
  -6.990  0.194E-01  0.194E-01
  -6.980  0.208E-01  0.208E-01
  -6.970  0.217E-01  0.217E-01
  -6.960  0.222E-01  0.222E-01
  -6.950  0.219E-01  0.219E-01
  -6.940  0.209E-01  0.209E-01
  -6.930  0.193E-01  0.193E-01
  -6.920  0.173E-01  0.173E-01
  -6.910  0.152E-01  0.152E-01
  -6.900  0.132E-01  0.132E-01
  -6.890  0.116E-01  0.116E-01
  -6.880  0.105E-01  0.105E-01
  -6.870  0.100E-01  0.100E-01
  -6.860  0.100E-01  0.100E-01
  -6.850  0.105E-01  0.105E-01
  -6.840  0.113E-01  0.113E-01
  -6.830  0.123E-01  0.123E-01
  -6.820  0.135E-01  0.135E-01
  -6.810  0.147E-01  0.147E-01
  -6.800  0.160E-01  0.160E-01
  -6.790  0.171E-01  0.171E-01
  -6.780  0.180E-01  0.180E-01
  -6.770  0.187E-01  0.187E-01
  -6.760  0.190E-01  0.190E-01
  -6.750  0.189E-01  0.189E-01
  -6.740  0.183E-01  0.183E-01
  -6.730  0.175E-01  0.175E-01
  -6.720  0.164E-01  0.164E-01
  -6.710  0.152E-01  0.152E-01
  -6.700  0.140E-01  0.140E-01
  -6.690  0.129E-01  0.129E-01
  -6.680  0.120E-01  0.120E-01
  -6.670  0.113E-01  0.113E-01
  -6.660  0.108E-01  0.108E-01
  -6.650  0.104E-01  0.104E-01
  -6.640  0.101E-01  0.101E-01
  -6.630  0.992E-02  0.992E-02
  -6.620  0.986E-02  0.986E-02
  -6.610  0.994E-02  0.994E-02
  -6.600  0.102E-01  0.102E-01
  -6.590  0.107E-01  0.107E-01
  -6.580  0.113E-01  0.113E-01
  -6.570  0.120E-01  0.120E-01
  -6.560  0.128E-01  0.128E-01
  -6.550  0.134E-01  0.134E-01
  -6.540  0.140E-01  0.140E-01
  -6.530  0.143E-01  0.143E-01
  -6.520  0.144E-01  0.144E-01
  -6.510  0.143E-01  0.143E-01
  -6.500  0.140E-01  0.140E-01
  -6.490  0.135E-01  0.135E-01
  -6.480  0.130E-01  0.130E-01
  -6.470  0.122E-01  0.122E-01
  -6.460  0.114E-01  0.114E-01
  -6.450  0.106E-01  0.106E-01
  -6.440  0.981E-02  0.981E-02
  -6.430  0.918E-02  0.918E-02
  -6.420  0.881E-02  0.881E-02
  -6.410  0.874E-02  0.874E-02
  -6.400  0.896E-02  0.896E-02
  -6.390  0.939E-02  0.939E-02
  -6.380  0.990E-02  0.990E-02
  -6.370  0.103E-01  0.103E-01
  -6.360  0.105E-01  0.105E-01
  -6.350  0.105E-01  0.105E-01
  -6.340  0.101E-01  0.101E-01
  -6.330  0.949E-02  0.949E-02
  -6.320  0.878E-02  0.878E-02
  -6.310  0.814E-02  0.814E-02
  -6.300  0.770E-02  0.770E-02
  -6.290  0.758E-02  0.758E-02
  -6.280  0.784E-02  0.784E-02
  -6.270  0.845E-02  0.845E-02
  -6.260  0.933E-02  0.933E-02
  -6.250  0.103E-01  0.103E-01
  -6.240  0.113E-01  0.113E-01
  -6.230  0.121E-01  0.121E-01
  -6.220  0.125E-01  0.125E-01
  -6.210  0.125E-01  0.125E-01
  -6.200  0.120E-01  0.120E-01
  -6.190  0.110E-01  0.110E-01
  -6.180  0.959E-02  0.959E-02
  -6.170  0.800E-02  0.800E-02
  -6.160  0.640E-02  0.640E-02
  -6.150  0.500E-02  0.500E-02
  -6.140  0.398E-02  0.398E-02
  -6.130  0.346E-02  0.346E-02
  -6.120  0.350E-02  0.350E-02
  -6.110  0.407E-02  0.407E-02
  -6.100  0.507E-02  0.507E-02
  -6.090  0.634E-02  0.634E-02
  -6.080  0.769E-02  0.769E-02
  -6.070  0.892E-02  0.892E-02
  -6.060  0.988E-02  0.988E-02
  -6.050  0.104E-01  0.104E-01
  -6.040  0.106E-01  0.106E-01
  -6.030  0.103E-01  0.103E-01
  -6.020  0.962E-02  0.962E-02
  -6.010  0.872E-02  0.872E-02
  -6.000  0.771E-02  0.771E-02
  -5.990  0.671E-02  0.671E-02
  -5.980  0.585E-02  0.585E-02
  -5.970  0.521E-02  0.521E-02
  -5.960  0.485E-02  0.485E-02
  -5.950  0.476E-02  0.476E-02
  -5.940  0.490E-02  0.490E-02
  -5.930  0.520E-02  0.520E-02
  -5.920  0.554E-02  0.554E-02
  -5.910  0.582E-02  0.582E-02
  -5.900  0.595E-02  0.595E-02
  -5.890  0.591E-02  0.591E-02
  -5.880  0.571E-02  0.571E-02
  -5.870  0.541E-02  0.541E-02
  -5.860  0.512E-02  0.512E-02
  -5.850  0.494E-02  0.494E-02
  -5.840  0.492E-02  0.492E-02
  -5.830  0.509E-02  0.509E-02
  -5.820  0.543E-02  0.543E-02
  -5.810  0.586E-02  0.586E-02
  -5.800  0.627E-02  0.627E-02
  -5.790  0.658E-02  0.658E-02
  -5.780  0.668E-02  0.668E-02
  -5.770  0.653E-02  0.653E-02
  -5.760  0.614E-02  0.614E-02
  -5.750  0.553E-02  0.553E-02
  -5.740  0.480E-02  0.480E-02
  -5.730  0.406E-02  0.406E-02
  -5.720  0.340E-02  0.340E-02
  -5.710  0.293E-02  0.293E-02
  -5.700  0.268E-02  0.268E-02
  -5.690  0.268E-02  0.268E-02
  -5.680  0.288E-02  0.288E-02
  -5.670  0.324E-02  0.324E-02
  -5.660  0.366E-02  0.366E-02
  -5.650  0.409E-02  0.409E-02
  -5.640  0.446E-02  0.446E-02
  -5.630  0.473E-02  0.473E-02
  -5.620  0.488E-02  0.488E-02
  -5.610  0.489E-02  0.489E-02
  -5.600  0.478E-02  0.478E-02
  -5.590  0.454E-02  0.454E-02
  -5.580  0.421E-02  0.421E-02
  -5.570  0.381E-02  0.381E-02
  -5.560  0.339E-02  0.339E-02
  -5.550  0.298E-02  0.298E-02
  -5.540  0.263E-02  0.263E-02
  -5.530  0.237E-02  0.237E-02
  -5.520  0.222E-02  0.222E-02
  -5.510  0.218E-02  0.218E-02
  -5.500  0.224E-02  0.224E-02
  -5.490  0.238E-02  0.238E-02
  -5.480  0.256E-02  0.256E-02
  -5.470  0.275E-02  0.275E-02
  -5.460  0.291E-02  0.291E-02
  -5.450  0.302E-02  0.302E-02
  -5.440  0.306E-02  0.306E-02
  -5.430  0.303E-02  0.303E-02
  -5.420  0.292E-02  0.292E-02
  -5.410  0.274E-02  0.274E-02
  -5.400  0.252E-02  0.252E-02
  -5.390  0.228E-02  0.228E-02
  -5.380  0.204E-02  0.204E-02
  -5.370  0.182E-02  0.182E-02
  -5.360  0.165E-02  0.165E-02
  -5.350  0.152E-02  0.152E-02
  -5.340  0.147E-02  0.147E-02
  -5.330  0.147E-02  0.147E-02
  -5.320  0.152E-02  0.152E-02
  -5.310  0.160E-02  0.160E-02
  -5.300  0.169E-02  0.169E-02
  -5.290  0.174E-02  0.174E-02
  -5.280  0.176E-02  0.176E-02
  -5.270  0.171E-02  0.171E-02
  -5.260  0.161E-02  0.161E-02
  -5.250  0.146E-02  0.146E-02
  -5.240  0.129E-02  0.129E-02
  -5.230  0.113E-02  0.113E-02
  -5.220  0.990E-03  0.990E-03
  -5.210  0.893E-03  0.893E-03
  -5.200  0.838E-03  0.838E-03
  -5.190  0.818E-03  0.818E-03
  -5.180  0.818E-03  0.818E-03
  -5.170  0.821E-03  0.821E-03
  -5.160  0.813E-03  0.813E-03
  -5.150  0.784E-03  0.784E-03
  -5.140  0.733E-03  0.733E-03
  -5.130  0.664E-03  0.664E-03
  -5.120  0.585E-03  0.585E-03
  -5.110  0.504E-03  0.504E-03
  -5.100  0.428E-03  0.428E-03
  -5.090  0.362E-03  0.362E-03
  -5.080  0.308E-03  0.308E-03
  -5.070  0.263E-03  0.263E-03
  -5.060  0.223E-03  0.223E-03
  -5.050  0.186E-03  0.186E-03
  -5.040  0.150E-03  0.150E-03
  -5.030  0.114E-03  0.114E-03
  -5.020  0.790E-04  0.790E-04
  -5.010  0.470E-04  0.470E-04
  -5.000  0.197E-04  0.197E-04
  -4.990 -0.167E-05 -0.167E-05
  -4.980 -0.166E-04 -0.166E-04
  -4.970 -0.255E-04 -0.255E-04
  -4.960 -0.294E-04 -0.294E-04
  -4.950 -0.295E-04 -0.295E-04
  -4.940 -0.271E-04 -0.271E-04
  -4.930 -0.232E-04 -0.232E-04
  -4.920 -0.188E-04 -0.188E-04
  -4.910 -0.146E-04 -0.146E-04
  -4.900 -0.108E-04 -0.108E-04
  -4.890 -0.760E-05 -0.760E-05
  -4.880 -0.514E-05 -0.514E-05
  -4.870 -0.333E-05 -0.333E-05
  -4.860 -0.207E-05 -0.207E-05
  -4.850 -0.123E-05 -0.123E-05
  -4.840 -0.698E-06 -0.698E-06
  -4.830 -0.380E-06 -0.380E-06
  -4.820 -0.197E-06 -0.197E-06
  -4.810 -0.982E-07 -0.982E-07
  -4.800 -0.467E-07 -0.467E-07
  -4.790 -0.212E-07 -0.212E-07
  -4.780 -0.922E-08 -0.922E-08
  -4.770 -0.382E-08 -0.382E-08
  -4.760 -0.151E-08 -0.151E-08
  -4.750 -0.568E-09 -0.568E-09
  -4.740 -0.201E-09 -0.201E-09
  -4.730 -0.637E-10 -0.637E-10
  -4.720 -0.147E-10 -0.147E-10
  -4.710  0.185E-11  0.185E-11
  -4.700  0.735E-11  0.735E-11
  -4.690  0.919E-11  0.919E-11
  -4.680  0.100E-10  0.100E-10
  -4.670  0.101E-10  0.101E-10
  -4.660  0.100E-10  0.100E-10
  -4.650  0.988E-11  0.988E-11
  -4.640  0.959E-11  0.959E-11
  -4.630  0.921E-11  0.921E-11
  -4.620  0.880E-11  0.880E-11
  -4.610  0.845E-11  0.845E-11
  -4.600  0.826E-11  0.826E-11
  -4.590  0.831E-11  0.831E-11
  -4.580  0.869E-11  0.869E-11
  -4.570  0.943E-11  0.943E-11
  -4.560  0.105E-10  0.105E-10
  -4.550  0.119E-10  0.119E-10
  -4.540  0.134E-10  0.134E-10
  -4.530  0.149E-10  0.149E-10
  -4.520  0.163E-10  0.163E-10
  -4.510  0.174E-10  0.174E-10
  -4.500  0.181E-10  0.181E-10
  -4.490  0.183E-10  0.183E-10
  -4.480  0.180E-10  0.180E-10
  -4.470  0.172E-10  0.172E-10
  -4.460  0.161E-10  0.161E-10
  -4.450  0.149E-10  0.149E-10
  -4.440  0.136E-10  0.136E-10
  -4.430  0.126E-10  0.126E-10
  -4.420  0.118E-10  0.118E-10
  -4.410  0.114E-10  0.114E-10
  -4.400  0.114E-10  0.114E-10
  -4.390  0.117E-10  0.117E-10
  -4.380  0.122E-10  0.122E-10
  -4.370  0.126E-10  0.126E-10
  -4.360  0.129E-10  0.129E-10
  -4.350  0.129E-10  0.129E-10
  -4.340  0.124E-10  0.124E-10
  -4.330  0.116E-10  0.116E-10
  -4.320  0.105E-10  0.105E-10
  -4.310  0.936E-11  0.936E-11
  -4.300  0.827E-11  0.827E-11
  -4.290  0.742E-11  0.742E-11
  -4.280  0.694E-11  0.694E-11
  -4.270  0.687E-11  0.687E-11
  -4.260  0.718E-11  0.718E-11
  -4.250  0.781E-11  0.781E-11
  -4.240  0.865E-11  0.865E-11
  -4.230  0.961E-11  0.961E-11
  -4.220  0.106E-10  0.106E-10
  -4.210  0.116E-10  0.116E-10
  -4.200  0.125E-10  0.125E-10
  -4.190  0.133E-10  0.133E-10
  -4.180  0.141E-10  0.141E-10
  -4.170  0.147E-10  0.147E-10
  -4.160  0.153E-10  0.153E-10
  -4.150  0.158E-10  0.158E-10
  -4.140  0.161E-10  0.161E-10
  -4.130  0.162E-10  0.162E-10
  -4.120  0.161E-10  0.161E-10
  -4.110  0.158E-10  0.158E-10
  -4.100  0.153E-10  0.153E-10
  -4.090  0.147E-10  0.147E-10
  -4.080  0.140E-10  0.140E-10
  -4.070  0.135E-10  0.135E-10
  -4.060  0.133E-10  0.133E-10
  -4.050  0.137E-10  0.137E-10
  -4.040  0.147E-10  0.147E-10
  -4.030  0.166E-10  0.166E-10
  -4.020  0.194E-10  0.194E-10
  -4.010  0.231E-10  0.231E-10
  -4.000  0.277E-10  0.277E-10
  -3.990  0.329E-10  0.329E-10
  -3.980  0.385E-10  0.385E-10
  -3.970  0.441E-10  0.441E-10
  -3.960  0.491E-10  0.491E-10
  -3.950  0.531E-10  0.531E-10
  -3.940  0.559E-10  0.559E-10
  -3.930  0.574E-10  0.574E-10
  -3.920  0.577E-10  0.577E-10
  -3.910  0.570E-10  0.570E-10
  -3.900  0.559E-10  0.559E-10
  -3.890  0.547E-10  0.547E-10
  -3.880  0.536E-10  0.536E-10
  -3.870  0.525E-10  0.525E-10
  -3.860  0.511E-10  0.511E-10
  -3.850  0.490E-10  0.490E-10
  -3.840  0.456E-10  0.456E-10
  -3.830  0.408E-10  0.408E-10
  -3.820  0.348E-10  0.348E-10
  -3.810  0.280E-10  0.280E-10
  -3.800  0.211E-10  0.211E-10
  -3.790  0.149E-10  0.149E-10
  -3.780  0.100E-10  0.100E-10
  -3.770  0.688E-11  0.688E-11
  -3.760  0.556E-11  0.556E-11
  -3.750  0.588E-11  0.588E-11
  -3.740  0.745E-11  0.745E-11
  -3.730  0.972E-11  0.972E-11
  -3.720  0.122E-10  0.122E-10
  -3.710  0.143E-10  0.143E-10
  -3.700  0.157E-10  0.157E-10
  -3.690  0.162E-10  0.162E-10
  -3.680  0.157E-10  0.157E-10
  -3.670  0.143E-10  0.143E-10
  -3.660  0.123E-10  0.123E-10
  -3.650  0.978E-11  0.978E-11
  -3.640  0.718E-11  0.718E-11
  -3.630  0.473E-11  0.473E-11
  -3.620  0.262E-11  0.262E-11
  -3.610  0.953E-12  0.953E-12
  -3.600 -0.236E-12 -0.236E-12
  -3.590 -0.985E-12 -0.985E-12
  -3.580 -0.137E-11 -0.137E-11
  -3.570 -0.148E-11 -0.148E-11
  -3.560 -0.141E-11 -0.141E-11
  -3.550 -0.123E-11 -0.123E-11
  -3.540 -0.101E-11 -0.101E-11
  -3.530 -0.780E-12 -0.780E-12
  -3.520 -0.577E-12 -0.577E-12
  -3.510 -0.408E-12 -0.408E-12
  -3.500 -0.277E-12 -0.277E-12
  -3.490 -0.180E-12 -0.180E-12
  -3.480 -0.112E-12 -0.112E-12
  -3.470 -0.672E-13 -0.672E-13
  -3.460 -0.386E-13 -0.386E-13
  -3.450 -0.213E-13 -0.213E-13
  -3.440 -0.113E-13 -0.113E-13
  -3.430 -0.571E-14 -0.571E-14
  -3.420 -0.278E-14 -0.278E-14
  -3.410 -0.129E-14 -0.129E-14
  -3.400 -0.578E-15 -0.578E-15
  -3.390 -0.248E-15 -0.248E-15
  -3.380 -0.102E-15 -0.102E-15
  -3.370 -0.399E-16 -0.399E-16
  -3.360 -0.150E-16 -0.150E-16
  -3.350 -0.541E-17 -0.541E-17
  -3.340 -0.187E-17 -0.187E-17
  -3.330 -0.615E-18 -0.615E-18
  -3.320 -0.186E-18 -0.186E-18
  -3.310 -0.537E-19 -0.537E-19
  -3.300 -0.158E-19 -0.158E-19
  -3.290 -0.277E-21 -0.277E-21
  -3.280 -0.786E-22 -0.786E-22
  -3.270  0.000E+00  0.000E+00
  -3.260  0.000E+00  0.000E+00
  -3.250  0.000E+00  0.000E+00
  -3.240  0.000E+00  0.000E+00
  -3.230  0.000E+00  0.000E+00
  -3.220  0.000E+00  0.000E+00
  -3.210  0.000E+00  0.000E+00
  -3.200  0.000E+00  0.000E+00
  -3.190  0.000E+00  0.000E+00
  -3.180  0.000E+00  0.000E+00
  -3.170  0.000E+00  0.000E+00
  -3.160  0.000E+00  0.000E+00
  -3.150  0.000E+00  0.000E+00
  -3.140  0.000E+00  0.000E+00
  -3.130  0.000E+00  0.000E+00
  -3.120  0.000E+00  0.000E+00
  -3.110  0.000E+00  0.000E+00
  -3.100  0.000E+00  0.000E+00
  -3.090  0.000E+00  0.000E+00
  -3.080  0.000E+00  0.000E+00
  -3.070  0.000E+00  0.000E+00
  -3.060  0.000E+00  0.000E+00
  -3.050  0.000E+00  0.000E+00
  -3.040  0.000E+00  0.000E+00
  -3.030  0.000E+00  0.000E+00
  -3.020  0.000E+00  0.000E+00
  -3.010  0.000E+00  0.000E+00
  -3.000  0.000E+00  0.000E+00
  -2.990  0.000E+00  0.000E+00
  -2.980  0.000E+00  0.000E+00
  -2.970  0.000E+00  0.000E+00
  -2.960  0.000E+00  0.000E+00
  -2.950  0.000E+00  0.000E+00
  -2.940  0.000E+00  0.000E+00
  -2.930  0.000E+00  0.000E+00
  -2.920  0.000E+00  0.000E+00
  -2.910  0.000E+00  0.000E+00
  -2.900  0.000E+00  0.000E+00
  -2.890  0.000E+00  0.000E+00
  -2.880  0.000E+00  0.000E+00
  -2.870  0.000E+00  0.000E+00
  -2.860  0.000E+00  0.000E+00
  -2.850  0.000E+00  0.000E+00
  -2.840  0.000E+00  0.000E+00
  -2.830  0.000E+00  0.000E+00
  -2.820  0.000E+00  0.000E+00
  -2.810  0.000E+00  0.000E+00
  -2.800  0.000E+00  0.000E+00
  -2.790  0.000E+00  0.000E+00
  -2.780  0.000E+00  0.000E+00
  -2.770  0.000E+00  0.000E+00
  -2.760  0.000E+00  0.000E+00
  -2.750  0.000E+00  0.000E+00
  -2.740  0.000E+00  0.000E+00
  -2.730  0.000E+00  0.000E+00
  -2.720  0.000E+00  0.000E+00
  -2.710  0.000E+00  0.000E+00
  -2.700  0.000E+00  0.000E+00
  -2.690  0.000E+00  0.000E+00
  -2.680  0.000E+00  0.000E+00
  -2.670  0.000E+00  0.000E+00
  -2.660  0.000E+00  0.000E+00
  -2.650  0.000E+00  0.000E+00
  -2.640  0.000E+00  0.000E+00
  -2.630  0.000E+00  0.000E+00
  -2.620  0.000E+00  0.000E+00
  -2.610  0.000E+00  0.000E+00
  -2.600  0.000E+00  0.000E+00
  -2.590  0.000E+00  0.000E+00
  -2.580  0.000E+00  0.000E+00
  -2.570  0.000E+00  0.000E+00
  -2.560  0.000E+00  0.000E+00
  -2.550  0.000E+00  0.000E+00
  -2.540  0.000E+00  0.000E+00
  -2.530  0.000E+00  0.000E+00
  -2.520  0.000E+00  0.000E+00
  -2.510  0.000E+00  0.000E+00
  -2.500  0.000E+00  0.000E+00
  -2.490  0.000E+00  0.000E+00
  -2.480  0.000E+00  0.000E+00
  -2.470  0.000E+00  0.000E+00
  -2.460  0.000E+00  0.000E+00
  -2.450  0.000E+00  0.000E+00
  -2.440  0.000E+00  0.000E+00
  -2.430  0.000E+00  0.000E+00
  -2.420  0.000E+00  0.000E+00
  -2.410  0.000E+00  0.000E+00
  -2.400  0.000E+00  0.000E+00
  -2.390  0.000E+00  0.000E+00
  -2.380  0.000E+00  0.000E+00
  -2.370  0.000E+00  0.000E+00
  -2.360  0.000E+00  0.000E+00
  -2.350  0.000E+00  0.000E+00
  -2.340  0.000E+00  0.000E+00
  -2.330  0.000E+00  0.000E+00
  -2.320  0.000E+00  0.000E+00
  -2.310  0.000E+00  0.000E+00
  -2.300  0.000E+00  0.000E+00
  -2.290  0.000E+00  0.000E+00
  -2.280  0.000E+00  0.000E+00
  -2.270  0.000E+00  0.000E+00
  -2.260  0.000E+00  0.000E+00
  -2.250  0.000E+00  0.000E+00
  -2.240  0.000E+00  0.000E+00
  -2.230  0.000E+00  0.000E+00
  -2.220  0.000E+00  0.000E+00
  -2.210  0.000E+00  0.000E+00
  -2.200  0.000E+00  0.000E+00
  -2.190  0.000E+00  0.000E+00
  -2.180  0.000E+00  0.000E+00
  -2.170  0.000E+00  0.000E+00
  -2.160  0.000E+00  0.000E+00
  -2.150  0.000E+00  0.000E+00
  -2.140  0.000E+00  0.000E+00
  -2.130  0.000E+00  0.000E+00
  -2.120  0.000E+00  0.000E+00
  -2.110  0.000E+00  0.000E+00
  -2.100  0.000E+00  0.000E+00
  -2.090  0.000E+00  0.000E+00
  -2.080  0.000E+00  0.000E+00
  -2.070  0.000E+00  0.000E+00
  -2.060  0.000E+00  0.000E+00
  -2.050  0.000E+00  0.000E+00
  -2.040  0.000E+00  0.000E+00
  -2.030  0.000E+00  0.000E+00
  -2.020  0.000E+00  0.000E+00
  -2.010  0.000E+00  0.000E+00
  -2.000  0.000E+00  0.000E+00
  -1.990  0.000E+00  0.000E+00
  -1.980  0.000E+00  0.000E+00
  -1.970  0.000E+00  0.000E+00
  -1.960  0.000E+00  0.000E+00
  -1.950  0.000E+00  0.000E+00
  -1.940  0.000E+00  0.000E+00
  -1.930  0.000E+00  0.000E+00
  -1.920  0.000E+00  0.000E+00
  -1.910  0.000E+00  0.000E+00
  -1.900  0.000E+00  0.000E+00
  -1.890  0.000E+00  0.000E+00
  -1.880  0.000E+00  0.000E+00
  -1.870  0.000E+00  0.000E+00
  -1.860  0.000E+00  0.000E+00
  -1.850  0.000E+00  0.000E+00
  -1.840  0.000E+00  0.000E+00
  -1.830  0.000E+00  0.000E+00
  -1.820  0.000E+00  0.000E+00
  -1.810  0.000E+00  0.000E+00
  -1.800  0.000E+00  0.000E+00
  -1.790  0.000E+00  0.000E+00
  -1.780  0.000E+00  0.000E+00
  -1.770  0.000E+00  0.000E+00
  -1.760  0.000E+00  0.000E+00
  -1.750  0.000E+00  0.000E+00
  -1.740  0.000E+00  0.000E+00
  -1.730  0.000E+00  0.000E+00
  -1.720  0.000E+00  0.000E+00
  -1.710  0.000E+00  0.000E+00
  -1.700  0.000E+00  0.000E+00
  -1.690  0.000E+00  0.000E+00
  -1.680  0.000E+00  0.000E+00
  -1.670  0.000E+00  0.000E+00
  -1.660  0.000E+00  0.000E+00
  -1.650  0.000E+00  0.000E+00
  -1.640  0.000E+00  0.000E+00
  -1.630  0.000E+00  0.000E+00
  -1.620  0.000E+00  0.000E+00
  -1.610  0.000E+00  0.000E+00
  -1.600  0.000E+00  0.000E+00
  -1.590  0.000E+00  0.000E+00
  -1.580  0.000E+00  0.000E+00
  -1.570  0.000E+00  0.000E+00
  -1.560  0.000E+00  0.000E+00
  -1.550  0.000E+00  0.000E+00
  -1.540  0.000E+00  0.000E+00
  -1.530  0.000E+00  0.000E+00
  -1.520  0.000E+00  0.000E+00
  -1.510  0.000E+00  0.000E+00
  -1.500  0.000E+00  0.000E+00
  -1.490  0.000E+00  0.000E+00
  -1.480  0.000E+00  0.000E+00
  -1.470  0.000E+00  0.000E+00
  -1.460  0.000E+00  0.000E+00
  -1.450  0.000E+00  0.000E+00
  -1.440  0.000E+00  0.000E+00
  -1.430  0.000E+00  0.000E+00
  -1.420  0.000E+00  0.000E+00
  -1.410  0.000E+00  0.000E+00
  -1.400  0.000E+00  0.000E+00
  -1.390  0.000E+00  0.000E+00
  -1.380  0.000E+00  0.000E+00
  -1.370  0.000E+00  0.000E+00
  -1.360  0.000E+00  0.000E+00
  -1.350  0.000E+00  0.000E+00
  -1.340  0.000E+00  0.000E+00
  -1.330  0.000E+00  0.000E+00
  -1.320  0.000E+00  0.000E+00
  -1.310  0.000E+00  0.000E+00
  -1.300  0.000E+00  0.000E+00
  -1.290  0.000E+00  0.000E+00
  -1.280  0.000E+00  0.000E+00
  -1.270  0.000E+00  0.000E+00
  -1.260  0.000E+00  0.000E+00
  -1.250  0.000E+00  0.000E+00
  -1.240  0.000E+00  0.000E+00
  -1.230  0.000E+00  0.000E+00
  -1.220  0.000E+00  0.000E+00
  -1.210  0.000E+00  0.000E+00
  -1.200  0.000E+00  0.000E+00
  -1.190  0.000E+00  0.000E+00
  -1.180  0.000E+00  0.000E+00
  -1.170  0.000E+00  0.000E+00
  -1.160  0.000E+00  0.000E+00
  -1.150  0.000E+00  0.000E+00
  -1.140  0.000E+00  0.000E+00
  -1.130  0.000E+00  0.000E+00
  -1.120  0.000E+00  0.000E+00
  -1.110  0.000E+00  0.000E+00
  -1.100  0.000E+00  0.000E+00
  -1.090  0.000E+00  0.000E+00
  -1.080  0.000E+00  0.000E+00
  -1.070  0.000E+00  0.000E+00
  -1.060  0.000E+00  0.000E+00
  -1.050  0.000E+00  0.000E+00
  -1.040  0.000E+00  0.000E+00
  -1.030  0.000E+00  0.000E+00
  -1.020  0.000E+00  0.000E+00
  -1.010  0.000E+00  0.000E+00
  -1.000  0.000E+00  0.000E+00
  -0.990  0.000E+00  0.000E+00
  -0.980  0.000E+00  0.000E+00
  -0.970  0.000E+00  0.000E+00
  -0.960  0.000E+00  0.000E+00
  -0.950  0.000E+00  0.000E+00
  -0.940  0.000E+00  0.000E+00
  -0.930  0.000E+00  0.000E+00
  -0.920  0.000E+00  0.000E+00
  -0.910  0.000E+00  0.000E+00
  -0.900  0.000E+00  0.000E+00
  -0.890  0.000E+00  0.000E+00
  -0.880  0.000E+00  0.000E+00
  -0.870  0.000E+00  0.000E+00
  -0.860  0.000E+00  0.000E+00
  -0.850  0.000E+00  0.000E+00
  -0.840  0.000E+00  0.000E+00
  -0.830  0.000E+00  0.000E+00
  -0.820  0.000E+00  0.000E+00
  -0.810  0.000E+00  0.000E+00
  -0.800  0.000E+00  0.000E+00
  -0.790  0.000E+00  0.000E+00
  -0.780  0.000E+00  0.000E+00
  -0.770  0.000E+00  0.000E+00
  -0.760  0.000E+00  0.000E+00
  -0.750  0.000E+00  0.000E+00
  -0.740  0.000E+00  0.000E+00
  -0.730  0.000E+00  0.000E+00
  -0.720  0.000E+00  0.000E+00
  -0.710  0.000E+00  0.000E+00
  -0.700  0.000E+00  0.000E+00
  -0.690  0.000E+00  0.000E+00
  -0.680  0.000E+00  0.000E+00
  -0.670  0.000E+00  0.000E+00
  -0.660  0.000E+00  0.000E+00
  -0.650  0.000E+00  0.000E+00
  -0.640  0.000E+00  0.000E+00
  -0.630  0.000E+00  0.000E+00
  -0.620  0.000E+00  0.000E+00
  -0.610  0.000E+00  0.000E+00
  -0.600  0.000E+00  0.000E+00
  -0.590  0.000E+00  0.000E+00
  -0.580  0.000E+00  0.000E+00
  -0.570  0.000E+00  0.000E+00
  -0.560  0.000E+00  0.000E+00
  -0.550  0.000E+00  0.000E+00
  -0.540  0.000E+00  0.000E+00
  -0.530  0.000E+00  0.000E+00
  -0.520  0.000E+00  0.000E+00
  -0.510  0.000E+00  0.000E+00
  -0.500  0.000E+00  0.000E+00
  -0.490  0.000E+00  0.000E+00
  -0.480  0.000E+00  0.000E+00
  -0.470  0.000E+00  0.000E+00
  -0.460  0.000E+00  0.000E+00
  -0.450  0.000E+00  0.000E+00
  -0.440  0.000E+00  0.000E+00
  -0.430  0.000E+00  0.000E+00
  -0.420  0.000E+00  0.000E+00
  -0.410  0.000E+00  0.000E+00
  -0.400  0.000E+00  0.000E+00
  -0.390  0.000E+00  0.000E+00
  -0.380  0.000E+00  0.000E+00
  -0.370  0.000E+00  0.000E+00
  -0.360  0.000E+00  0.000E+00
  -0.350  0.000E+00  0.000E+00
  -0.340  0.000E+00  0.000E+00
  -0.330  0.000E+00  0.000E+00
  -0.320  0.000E+00  0.000E+00
  -0.310  0.000E+00  0.000E+00
  -0.300  0.000E+00  0.000E+00
  -0.290  0.000E+00  0.000E+00
  -0.280  0.000E+00  0.000E+00
  -0.270  0.000E+00  0.000E+00
  -0.260  0.000E+00  0.000E+00
  -0.250  0.000E+00  0.000E+00
  -0.240  0.000E+00  0.000E+00
  -0.230  0.000E+00  0.000E+00
  -0.220  0.000E+00  0.000E+00
  -0.210  0.000E+00  0.000E+00
  -0.200  0.000E+00  0.000E+00
  -0.190  0.000E+00  0.000E+00
  -0.180  0.000E+00  0.000E+00
  -0.170  0.000E+00  0.000E+00
  -0.160  0.000E+00  0.000E+00
  -0.150  0.000E+00  0.000E+00
  -0.140  0.000E+00  0.000E+00
  -0.130  0.000E+00  0.000E+00
  -0.120  0.000E+00  0.000E+00
  -0.110  0.000E+00  0.000E+00
  -0.100  0.000E+00  0.000E+00
  -0.090  0.000E+00  0.000E+00
  -0.080  0.000E+00  0.000E+00
  -0.070  0.000E+00  0.000E+00
  -0.060  0.000E+00  0.000E+00
  -0.050  0.000E+00  0.000E+00
  -0.040  0.000E+00  0.000E+00
  -0.030  0.000E+00  0.000E+00
  -0.020  0.000E+00  0.000E+00
  -0.010  0.000E+00  0.000E+00
   0.000  0.000E+00  0.000E+00
   0.010  0.000E+00  0.000E+00
   0.020  0.000E+00  0.000E+00
   0.030  0.000E+00  0.000E+00
   0.040  0.000E+00  0.000E+00
   0.050  0.000E+00  0.000E+00
   0.060  0.000E+00  0.000E+00
   0.070  0.000E+00  0.000E+00
   0.080  0.000E+00  0.000E+00
   0.090  0.000E+00  0.000E+00
   0.100  0.000E+00  0.000E+00
   0.110  0.000E+00  0.000E+00
   0.120  0.000E+00  0.000E+00
   0.130  0.000E+00  0.000E+00
   0.140  0.000E+00  0.000E+00
   0.150  0.000E+00  0.000E+00
   0.160  0.000E+00  0.000E+00
   0.170  0.000E+00  0.000E+00
   0.180  0.000E+00  0.000E+00
   0.190  0.000E+00  0.000E+00
   0.200  0.000E+00  0.000E+00
   0.210  0.000E+00  0.000E+00
   0.220  0.000E+00  0.000E+00
   0.230  0.000E+00  0.000E+00
   0.240  0.000E+00  0.000E+00
   0.250  0.000E+00  0.000E+00
   0.260  0.000E+00  0.000E+00
   0.270  0.000E+00  0.000E+00
   0.280  0.000E+00  0.000E+00
   0.290  0.000E+00  0.000E+00
   0.300  0.000E+00  0.000E+00
   0.310  0.000E+00  0.000E+00
   0.320  0.000E+00  0.000E+00
   0.330  0.000E+00  0.000E+00
   0.340  0.000E+00  0.000E+00
   0.350  0.000E+00  0.000E+00
   0.360  0.000E+00  0.000E+00
   0.370  0.000E+00  0.000E+00
   0.380  0.000E+00  0.000E+00
   0.390  0.000E+00  0.000E+00
   0.400  0.881E-17  0.881E-17
   0.410  0.106E-15  0.106E-15
   0.420  0.558E-15  0.558E-15
   0.430  0.288E-14  0.288E-14
   0.440  0.140E-13  0.140E-13
   0.450  0.646E-13  0.646E-13
   0.460  0.286E-12  0.286E-12
   0.470  0.121E-11  0.121E-11
   0.480  0.494E-11  0.494E-11
   0.490  0.192E-10  0.192E-10
   0.500  0.717E-10  0.717E-10
   0.510  0.256E-09  0.256E-09
   0.520  0.877E-09  0.877E-09
   0.530  0.288E-08  0.288E-08
   0.540  0.903E-08  0.903E-08
   0.550  0.272E-07  0.272E-07
   0.560  0.784E-07  0.784E-07
   0.570  0.217E-06  0.217E-06
   0.580  0.573E-06  0.573E-06
   0.590  0.145E-05  0.145E-05
   0.600  0.353E-05  0.353E-05
   0.610  0.823E-05  0.823E-05
   0.620  0.184E-04  0.184E-04
   0.630  0.393E-04  0.393E-04
   0.640  0.805E-04  0.805E-04
   0.650  0.158E-03  0.158E-03
   0.660  0.298E-03  0.298E-03
   0.670  0.539E-03  0.539E-03
   0.680  0.935E-03  0.935E-03
   0.690  0.156E-02  0.156E-02
   0.700  0.248E-02  0.248E-02
   0.710  0.380E-02  0.380E-02
   0.720  0.560E-02  0.560E-02
   0.730  0.792E-02  0.792E-02
   0.740  0.108E-01  0.108E-01
   0.750  0.141E-01  0.141E-01
   0.760  0.178E-01  0.178E-01
   0.770  0.216E-01  0.216E-01
   0.780  0.253E-01  0.253E-01
   0.790  0.288E-01  0.288E-01
   0.800  0.317E-01  0.317E-01
   0.810  0.339E-01  0.339E-01
   0.820  0.354E-01  0.354E-01
   0.830  0.362E-01  0.362E-01
   0.840  0.364E-01  0.364E-01
   0.850  0.360E-01  0.360E-01
   0.860  0.354E-01  0.354E-01
   0.870  0.345E-01  0.345E-01
   0.880  0.336E-01  0.336E-01
   0.890  0.328E-01  0.328E-01
   0.900  0.320E-01  0.320E-01
   0.910  0.313E-01  0.313E-01
   0.920  0.308E-01  0.308E-01
   0.930  0.303E-01  0.303E-01
   0.940  0.299E-01  0.299E-01
   0.950  0.295E-01  0.295E-01
   0.960  0.291E-01  0.291E-01
   0.970  0.288E-01  0.288E-01
   0.980  0.285E-01  0.285E-01
   0.990  0.282E-01  0.282E-01
   1.000  0.280E-01  0.280E-01
   1.010  0.277E-01  0.277E-01
   1.020  0.275E-01  0.275E-01
   1.030  0.273E-01  0.273E-01
   1.040  0.269E-01  0.269E-01
   1.050  0.266E-01  0.266E-01
   1.060  0.262E-01  0.262E-01
   1.070  0.259E-01  0.259E-01
   1.080  0.257E-01  0.257E-01
   1.090  0.256E-01  0.256E-01
   1.100  0.255E-01  0.255E-01
   1.110  0.255E-01  0.255E-01
   1.120  0.254E-01  0.254E-01
   1.130  0.251E-01  0.251E-01
   1.140  0.246E-01  0.246E-01
   1.150  0.241E-01  0.241E-01
   1.160  0.236E-01  0.236E-01
   1.170  0.233E-01  0.233E-01
   1.180  0.232E-01  0.232E-01
   1.190  0.233E-01  0.233E-01
   1.200  0.235E-01  0.235E-01
   1.210  0.237E-01  0.237E-01
   1.220  0.238E-01  0.238E-01
   1.230  0.236E-01  0.236E-01
   1.240  0.231E-01  0.231E-01
   1.250  0.224E-01  0.224E-01
   1.260  0.217E-01  0.217E-01
   1.270  0.210E-01  0.210E-01
   1.280  0.207E-01  0.207E-01
   1.290  0.207E-01  0.207E-01
   1.300  0.210E-01  0.210E-01
   1.310  0.216E-01  0.216E-01
   1.320  0.221E-01  0.221E-01
   1.330  0.225E-01  0.225E-01
   1.340  0.225E-01  0.225E-01
   1.350  0.222E-01  0.222E-01
   1.360  0.214E-01  0.214E-01
   1.370  0.205E-01  0.205E-01
   1.380  0.195E-01  0.195E-01
   1.390  0.187E-01  0.187E-01
   1.400  0.183E-01  0.183E-01
   1.410  0.183E-01  0.183E-01
   1.420  0.188E-01  0.188E-01
   1.430  0.196E-01  0.196E-01
   1.440  0.204E-01  0.204E-01
   1.450  0.212E-01  0.212E-01
   1.460  0.215E-01  0.215E-01
   1.470  0.215E-01  0.215E-01
   1.480  0.209E-01  0.209E-01
   1.490  0.200E-01  0.200E-01
   1.500  0.188E-01  0.188E-01
   1.510  0.177E-01  0.177E-01
   1.520  0.168E-01  0.168E-01
   1.530  0.162E-01  0.162E-01
   1.540  0.162E-01  0.162E-01
   1.550  0.166E-01  0.166E-01
   1.560  0.175E-01  0.175E-01
   1.570  0.185E-01  0.185E-01
   1.580  0.196E-01  0.196E-01
   1.590  0.204E-01  0.204E-01
   1.600  0.208E-01  0.208E-01
   1.610  0.206E-01  0.206E-01
   1.620  0.200E-01  0.200E-01
   1.630  0.189E-01  0.189E-01
   1.640  0.176E-01  0.176E-01
   1.650  0.164E-01  0.164E-01
   1.660  0.153E-01  0.153E-01
   1.670  0.147E-01  0.147E-01
   1.680  0.144E-01  0.144E-01
   1.690  0.147E-01  0.147E-01
   1.700  0.153E-01  0.153E-01
   1.710  0.163E-01  0.163E-01
   1.720  0.175E-01  0.175E-01
   1.730  0.186E-01  0.186E-01
   1.740  0.196E-01  0.196E-01
   1.750  0.201E-01  0.201E-01
   1.760  0.200E-01  0.200E-01
   1.770  0.195E-01  0.195E-01
   1.780  0.185E-01  0.185E-01
   1.790  0.171E-01  0.171E-01
   1.800  0.157E-01  0.157E-01
   1.810  0.144E-01  0.144E-01
   1.820  0.135E-01  0.135E-01
   1.830  0.130E-01  0.130E-01
   1.840  0.130E-01  0.130E-01
   1.850  0.135E-01  0.135E-01
   1.860  0.143E-01  0.143E-01
   1.870  0.154E-01  0.154E-01
   1.880  0.166E-01  0.166E-01
   1.890  0.177E-01  0.177E-01
   1.900  0.186E-01  0.186E-01
   1.910  0.192E-01  0.192E-01
   1.920  0.194E-01  0.194E-01
   1.930  0.191E-01  0.191E-01
   1.940  0.184E-01  0.184E-01
   1.950  0.173E-01  0.173E-01
   1.960  0.160E-01  0.160E-01
   1.970  0.146E-01  0.146E-01
   1.980  0.133E-01  0.133E-01
   1.990  0.123E-01  0.123E-01
   2.000  0.118E-01  0.118E-01
   2.010  0.117E-01  0.117E-01
   2.020  0.122E-01  0.122E-01
   2.030  0.131E-01  0.131E-01
   2.040  0.144E-01  0.144E-01
   2.050  0.157E-01  0.157E-01
   2.060  0.170E-01  0.170E-01
   2.070  0.181E-01  0.181E-01
   2.080  0.188E-01  0.188E-01
   2.090  0.190E-01  0.190E-01
   2.100  0.188E-01  0.188E-01
   2.110  0.182E-01  0.182E-01
   2.120  0.173E-01  0.173E-01
   2.130  0.162E-01  0.162E-01
   2.140  0.151E-01  0.151E-01
   2.150  0.139E-01  0.139E-01
   2.160  0.129E-01  0.129E-01
   2.170  0.120E-01  0.120E-01
   2.180  0.114E-01  0.114E-01
   2.190  0.111E-01  0.111E-01
   2.200  0.113E-01  0.113E-01
   2.210  0.118E-01  0.118E-01
   2.220  0.128E-01  0.128E-01
   2.230  0.141E-01  0.141E-01
   2.240  0.156E-01  0.156E-01
   2.250  0.171E-01  0.171E-01
   2.260  0.183E-01  0.183E-01
   2.270  0.190E-01  0.190E-01
   2.280  0.193E-01  0.193E-01
   2.290  0.189E-01  0.189E-01
   2.300  0.181E-01  0.181E-01
   2.310  0.169E-01  0.169E-01
   2.320  0.156E-01  0.156E-01
   2.330  0.143E-01  0.143E-01
   2.340  0.132E-01  0.132E-01
   2.350  0.123E-01  0.123E-01
   2.360  0.117E-01  0.117E-01
   2.370  0.114E-01  0.114E-01
   2.380  0.112E-01  0.112E-01
   2.390  0.113E-01  0.113E-01
   2.400  0.116E-01  0.116E-01
   2.410  0.121E-01  0.121E-01
   2.420  0.129E-01  0.129E-01
   2.430  0.139E-01  0.139E-01
   2.440  0.152E-01  0.152E-01
   2.450  0.165E-01  0.165E-01
   2.460  0.178E-01  0.178E-01
   2.470  0.188E-01  0.188E-01
   2.480  0.193E-01  0.193E-01
   2.490  0.194E-01  0.194E-01
   2.500  0.189E-01  0.189E-01
   2.510  0.179E-01  0.179E-01
   2.520  0.166E-01  0.166E-01
   2.530  0.152E-01  0.152E-01
   2.540  0.139E-01  0.139E-01
   2.550  0.129E-01  0.129E-01
   2.560  0.123E-01  0.123E-01
   2.570  0.123E-01  0.123E-01
   2.580  0.127E-01  0.127E-01
   2.590  0.135E-01  0.135E-01
   2.600  0.146E-01  0.146E-01
   2.610  0.158E-01  0.158E-01
   2.620  0.171E-01  0.171E-01
   2.630  0.185E-01  0.185E-01
   2.640  0.198E-01  0.198E-01
   2.650  0.210E-01  0.210E-01
   2.660  0.222E-01  0.222E-01
   2.670  0.232E-01  0.232E-01
   2.680  0.239E-01  0.239E-01
   2.690  0.244E-01  0.244E-01
   2.700  0.245E-01  0.245E-01
   2.710  0.243E-01  0.243E-01
   2.720  0.236E-01  0.236E-01
   2.730  0.227E-01  0.227E-01
   2.740  0.215E-01  0.215E-01
   2.750  0.201E-01  0.201E-01
   2.760  0.187E-01  0.187E-01
   2.770  0.173E-01  0.173E-01
   2.780  0.161E-01  0.161E-01
   2.790  0.152E-01  0.152E-01
   2.800  0.147E-01  0.147E-01
   2.810  0.146E-01  0.146E-01
   2.820  0.150E-01  0.150E-01
   2.830  0.158E-01  0.158E-01
   2.840  0.169E-01  0.169E-01
   2.850  0.182E-01  0.182E-01
   2.860  0.195E-01  0.195E-01
   2.870  0.207E-01  0.207E-01
   2.880  0.218E-01  0.218E-01
   2.890  0.226E-01  0.226E-01
   2.900  0.232E-01  0.232E-01
   2.910  0.235E-01  0.235E-01
   2.920  0.234E-01  0.234E-01
   2.930  0.231E-01  0.231E-01
   2.940  0.225E-01  0.225E-01
   2.950  0.217E-01  0.217E-01
   2.960  0.209E-01  0.209E-01
   2.970  0.200E-01  0.200E-01
   2.980  0.191E-01  0.191E-01
   2.990  0.183E-01  0.183E-01
   3.000  0.175E-01  0.175E-01
   3.010  0.168E-01  0.168E-01
   3.020  0.160E-01  0.160E-01
   3.030  0.153E-01  0.153E-01
   3.040  0.147E-01  0.147E-01
   3.050  0.144E-01  0.144E-01
   3.060  0.144E-01  0.144E-01
   3.070  0.150E-01  0.150E-01
   3.080  0.159E-01  0.159E-01
   3.090  0.173E-01  0.173E-01
   3.100  0.190E-01  0.190E-01
   3.110  0.208E-01  0.208E-01
   3.120  0.225E-01  0.225E-01
   3.130  0.239E-01  0.239E-01
   3.140  0.248E-01  0.248E-01
   3.150  0.251E-01  0.251E-01
   3.160  0.248E-01  0.248E-01
   3.170  0.239E-01  0.239E-01
   3.180  0.227E-01  0.227E-01
   3.190  0.212E-01  0.212E-01
   3.200  0.198E-01  0.198E-01
   3.210  0.185E-01  0.185E-01
   3.220  0.176E-01  0.176E-01
   3.230  0.170E-01  0.170E-01
   3.240  0.168E-01  0.168E-01
   3.250  0.168E-01  0.168E-01
   3.260  0.169E-01  0.169E-01
   3.270  0.169E-01  0.169E-01
   3.280  0.167E-01  0.167E-01
   3.290  0.164E-01  0.164E-01
   3.300  0.159E-01  0.159E-01
   3.310  0.155E-01  0.155E-01
   3.320  0.153E-01  0.153E-01
   3.330  0.156E-01  0.156E-01
   3.340  0.165E-01  0.165E-01
   3.350  0.179E-01  0.179E-01
   3.360  0.198E-01  0.198E-01
   3.370  0.219E-01  0.219E-01
   3.380  0.239E-01  0.239E-01
   3.390  0.255E-01  0.255E-01
   3.400  0.264E-01  0.264E-01
   3.410  0.267E-01  0.267E-01
   3.420  0.262E-01  0.262E-01
   3.430  0.250E-01  0.250E-01
   3.440  0.234E-01  0.234E-01
   3.450  0.215E-01  0.215E-01
   3.460  0.196E-01  0.196E-01
   3.470  0.179E-01  0.179E-01
   3.480  0.166E-01  0.166E-01
   3.490  0.157E-01  0.157E-01
   3.500  0.152E-01  0.152E-01
   3.510  0.152E-01  0.152E-01
   3.520  0.156E-01  0.156E-01
   3.530  0.162E-01  0.162E-01
   3.540  0.168E-01  0.168E-01
   3.550  0.175E-01  0.175E-01
   3.560  0.179E-01  0.179E-01
   3.570  0.182E-01  0.182E-01
   3.580  0.183E-01  0.183E-01
   3.590  0.183E-01  0.183E-01
   3.600  0.185E-01  0.185E-01
   3.610  0.190E-01  0.190E-01
   3.620  0.198E-01  0.198E-01
   3.630  0.210E-01  0.210E-01
   3.640  0.225E-01  0.225E-01
   3.650  0.240E-01  0.240E-01
   3.660  0.254E-01  0.254E-01
   3.670  0.263E-01  0.263E-01
   3.680  0.266E-01  0.266E-01
   3.690  0.264E-01  0.264E-01
   3.700  0.256E-01  0.256E-01
   3.710  0.244E-01  0.244E-01
   3.720  0.229E-01  0.229E-01
   3.730  0.214E-01  0.214E-01
   3.740  0.199E-01  0.199E-01
   3.750  0.186E-01  0.186E-01
   3.760  0.174E-01  0.174E-01
   3.770  0.164E-01  0.164E-01
   3.780  0.158E-01  0.158E-01
   3.790  0.153E-01  0.153E-01
   3.800  0.153E-01  0.153E-01
   3.810  0.155E-01  0.155E-01
   3.820  0.161E-01  0.161E-01
   3.830  0.170E-01  0.170E-01
   3.840  0.180E-01  0.180E-01
   3.850  0.190E-01  0.190E-01
   3.860  0.201E-01  0.201E-01
   3.870  0.210E-01  0.210E-01
   3.880  0.219E-01  0.219E-01
   3.890  0.227E-01  0.227E-01
   3.900  0.236E-01  0.236E-01
   3.910  0.244E-01  0.244E-01
   3.920  0.253E-01  0.253E-01
   3.930  0.262E-01  0.262E-01
   3.940  0.268E-01  0.268E-01
   3.950  0.273E-01  0.273E-01
   3.960  0.273E-01  0.273E-01
   3.970  0.269E-01  0.269E-01
   3.980  0.261E-01  0.261E-01
   3.990  0.250E-01  0.250E-01
   4.000  0.236E-01  0.236E-01
   4.010  0.221E-01  0.221E-01
   4.020  0.207E-01  0.207E-01
   4.030  0.194E-01  0.194E-01
   4.040  0.184E-01  0.184E-01
   4.050  0.176E-01  0.176E-01
   4.060  0.170E-01  0.170E-01
   4.070  0.167E-01  0.167E-01
   4.080  0.167E-01  0.167E-01
   4.090  0.168E-01  0.168E-01
   4.100  0.173E-01  0.173E-01
   4.110  0.180E-01  0.180E-01
   4.120  0.190E-01  0.190E-01
   4.130  0.202E-01  0.202E-01
   4.140  0.216E-01  0.216E-01
   4.150  0.230E-01  0.230E-01
   4.160  0.243E-01  0.243E-01
   4.170  0.255E-01  0.255E-01
   4.180  0.263E-01  0.263E-01
   4.190  0.268E-01  0.268E-01
   4.200  0.270E-01  0.270E-01
   4.210  0.270E-01  0.270E-01
   4.220  0.268E-01  0.268E-01
   4.230  0.267E-01  0.267E-01
   4.240  0.265E-01  0.265E-01
   4.250  0.265E-01  0.265E-01
   4.260  0.265E-01  0.265E-01
   4.270  0.266E-01  0.266E-01
   4.280  0.265E-01  0.265E-01
   4.290  0.263E-01  0.263E-01
   4.300  0.258E-01  0.258E-01
   4.310  0.251E-01  0.251E-01
   4.320  0.243E-01  0.243E-01
   4.330  0.232E-01  0.232E-01
   4.340  0.221E-01  0.221E-01
   4.350  0.209E-01  0.209E-01
   4.360  0.198E-01  0.198E-01
   4.370  0.187E-01  0.187E-01
   4.380  0.179E-01  0.179E-01
   4.390  0.173E-01  0.173E-01
   4.400  0.170E-01  0.170E-01
   4.410  0.173E-01  0.173E-01
   4.420  0.181E-01  0.181E-01
   4.430  0.195E-01  0.195E-01
   4.440  0.215E-01  0.215E-01
   4.450  0.239E-01  0.239E-01
   4.460  0.265E-01  0.265E-01
   4.470  0.290E-01  0.290E-01
   4.480  0.311E-01  0.311E-01
   4.490  0.327E-01  0.327E-01
   4.500  0.334E-01  0.334E-01
   4.510  0.333E-01  0.333E-01
   4.520  0.326E-01  0.326E-01
   4.530  0.314E-01  0.314E-01
   4.540  0.301E-01  0.301E-01
   4.550  0.289E-01  0.289E-01
   4.560  0.281E-01  0.281E-01
   4.570  0.276E-01  0.276E-01
   4.580  0.273E-01  0.273E-01
   4.590  0.273E-01  0.273E-01
   4.600  0.271E-01  0.271E-01
   4.610  0.268E-01  0.268E-01
   4.620  0.262E-01  0.262E-01
   4.630  0.253E-01  0.253E-01
   4.640  0.242E-01  0.242E-01
   4.650  0.230E-01  0.230E-01
   4.660  0.220E-01  0.220E-01
   4.670  0.212E-01  0.212E-01
   4.680  0.206E-01  0.206E-01
   4.690  0.204E-01  0.204E-01
   4.700  0.204E-01  0.204E-01
   4.710  0.207E-01  0.207E-01
   4.720  0.214E-01  0.214E-01
   4.730  0.224E-01  0.224E-01
   4.740  0.239E-01  0.239E-01
   4.750  0.259E-01  0.259E-01
   4.760  0.282E-01  0.282E-01
   4.770  0.307E-01  0.307E-01
   4.780  0.333E-01  0.333E-01
   4.790  0.355E-01  0.355E-01
   4.800  0.372E-01  0.372E-01
   4.810  0.381E-01  0.381E-01
   4.820  0.380E-01  0.380E-01
   4.830  0.370E-01  0.370E-01
   4.840  0.354E-01  0.354E-01
   4.850  0.334E-01  0.334E-01
   4.860  0.314E-01  0.314E-01
   4.870  0.299E-01  0.299E-01
   4.880  0.289E-01  0.289E-01
   4.890  0.286E-01  0.286E-01
   4.900  0.289E-01  0.289E-01
   4.910  0.294E-01  0.294E-01
   4.920  0.300E-01  0.300E-01
   4.930  0.303E-01  0.303E-01
   4.940  0.303E-01  0.303E-01
   4.950  0.299E-01  0.299E-01
   4.960  0.292E-01  0.292E-01
   4.970  0.283E-01  0.283E-01
   4.980  0.274E-01  0.274E-01
   4.990  0.267E-01  0.267E-01
   5.000  0.262E-01  0.262E-01
   5.010  0.258E-01  0.258E-01
   5.020  0.257E-01  0.257E-01
   5.030  0.258E-01  0.258E-01
   5.040  0.262E-01  0.262E-01
   5.050  0.270E-01  0.270E-01
   5.060  0.282E-01  0.282E-01
   5.070  0.300E-01  0.300E-01
   5.080  0.321E-01  0.321E-01
   5.090  0.346E-01  0.346E-01
   5.100  0.372E-01  0.372E-01
   5.110  0.395E-01  0.395E-01
   5.120  0.412E-01  0.412E-01
   5.130  0.422E-01  0.422E-01
   5.140  0.423E-01  0.423E-01
   5.150  0.416E-01  0.416E-01
   5.160  0.403E-01  0.403E-01
   5.170  0.387E-01  0.387E-01
   5.180  0.372E-01  0.372E-01
   5.190  0.363E-01  0.363E-01
   5.200  0.360E-01  0.360E-01
   5.210  0.365E-01  0.365E-01
   5.220  0.374E-01  0.374E-01
   5.230  0.383E-01  0.383E-01
   5.240  0.390E-01  0.390E-01
   5.250  0.391E-01  0.391E-01
   5.260  0.384E-01  0.384E-01
   5.270  0.371E-01  0.371E-01
   5.280  0.354E-01  0.354E-01
   5.290  0.337E-01  0.337E-01
   5.300  0.322E-01  0.322E-01
   5.310  0.313E-01  0.313E-01
   5.320  0.310E-01  0.310E-01
   5.330  0.311E-01  0.311E-01
   5.340  0.317E-01  0.317E-01
   5.350  0.324E-01  0.324E-01
   5.360  0.334E-01  0.334E-01
   5.370  0.344E-01  0.344E-01
   5.380  0.356E-01  0.356E-01
   5.390  0.370E-01  0.370E-01
   5.400  0.386E-01  0.386E-01
   5.410  0.402E-01  0.402E-01
   5.420  0.420E-01  0.420E-01
   5.430  0.438E-01  0.438E-01
   5.440  0.454E-01  0.454E-01
   5.450  0.470E-01  0.470E-01
   5.460  0.485E-01  0.485E-01
   5.470  0.499E-01  0.499E-01
   5.480  0.512E-01  0.512E-01
   5.490  0.523E-01  0.523E-01
   5.500  0.532E-01  0.532E-01
   5.510  0.536E-01  0.536E-01
   5.520  0.536E-01  0.536E-01
   5.530  0.529E-01  0.529E-01
   5.540  0.516E-01  0.516E-01
   5.550  0.500E-01  0.500E-01
   5.560  0.482E-01  0.482E-01
   5.570  0.465E-01  0.465E-01
   5.580  0.452E-01  0.452E-01
   5.590  0.445E-01  0.445E-01
   5.600  0.445E-01  0.445E-01
   5.610  0.449E-01  0.449E-01
   5.620  0.456E-01  0.456E-01
   5.630  0.463E-01  0.463E-01
   5.640  0.468E-01  0.468E-01
   5.650  0.470E-01  0.470E-01
   5.660  0.467E-01  0.467E-01
   5.670  0.463E-01  0.463E-01
   5.680  0.458E-01  0.458E-01
   5.690  0.455E-01  0.455E-01
   5.700  0.457E-01  0.457E-01
   5.710  0.465E-01  0.465E-01
   5.720  0.479E-01  0.479E-01
   5.730  0.500E-01  0.500E-01
   5.740  0.527E-01  0.527E-01
   5.750  0.557E-01  0.557E-01
   5.760  0.590E-01  0.590E-01
   5.770  0.624E-01  0.624E-01
   5.780  0.658E-01  0.658E-01
   5.790  0.690E-01  0.690E-01
   5.800  0.722E-01  0.722E-01
   5.810  0.752E-01  0.752E-01
   5.820  0.781E-01  0.781E-01
   5.830  0.807E-01  0.807E-01
   5.840  0.830E-01  0.830E-01
   5.850  0.848E-01  0.848E-01
   5.860  0.859E-01  0.859E-01
   5.870  0.863E-01  0.863E-01
   5.880  0.859E-01  0.859E-01
   5.890  0.846E-01  0.846E-01
   5.900  0.824E-01  0.824E-01
   5.910  0.794E-01  0.794E-01
   5.920  0.757E-01  0.757E-01
   5.930  0.716E-01  0.716E-01
   5.940  0.674E-01  0.674E-01
   5.950  0.637E-01  0.637E-01
   5.960  0.611E-01  0.611E-01
   5.970  0.604E-01  0.604E-01
   5.980  0.623E-01  0.623E-01
   5.990  0.675E-01  0.675E-01
   6.000  0.762E-01  0.762E-01
   6.010  0.885E-01  0.885E-01
   6.020  0.104E+00  0.104E+00
   6.030  0.121E+00  0.121E+00
   6.040  0.139E+00  0.139E+00
   6.050  0.156E+00  0.156E+00
   6.060  0.170E+00  0.170E+00
   6.070  0.180E+00  0.180E+00
   6.080  0.185E+00  0.185E+00
   6.090  0.186E+00  0.186E+00
   6.100  0.183E+00  0.183E+00
   6.110  0.176E+00  0.176E+00
   6.120  0.168E+00  0.168E+00
   6.130  0.159E+00  0.159E+00
   6.140  0.150E+00  0.150E+00
   6.150  0.142E+00  0.142E+00
   6.160  0.134E+00  0.134E+00
   6.170  0.128E+00  0.128E+00
   6.180  0.123E+00  0.123E+00
   6.190  0.118E+00  0.118E+00
   6.200  0.114E+00  0.114E+00
   6.210  0.110E+00  0.110E+00
   6.220  0.107E+00  0.107E+00
   6.230  0.104E+00  0.104E+00
   6.240  0.103E+00  0.103E+00
   6.250  0.103E+00  0.103E+00
   6.260  0.105E+00  0.105E+00
   6.270  0.108E+00  0.108E+00
   6.280  0.112E+00  0.112E+00
   6.290  0.116E+00  0.116E+00
   6.300  0.119E+00  0.119E+00
   6.310  0.121E+00  0.121E+00
   6.320  0.120E+00  0.120E+00
   6.330  0.117E+00  0.117E+00
   6.340  0.112E+00  0.112E+00
   6.350  0.105E+00  0.105E+00
   6.360  0.971E-01  0.971E-01
   6.370  0.881E-01  0.881E-01
   6.380  0.794E-01  0.794E-01
   6.390  0.716E-01  0.716E-01
   6.400  0.654E-01  0.654E-01
   6.410  0.612E-01  0.612E-01
   6.420  0.592E-01  0.592E-01
   6.430  0.593E-01  0.593E-01
   6.440  0.611E-01  0.611E-01
   6.450  0.642E-01  0.642E-01
   6.460  0.677E-01  0.677E-01
   6.470  0.710E-01  0.710E-01
   6.480  0.735E-01  0.735E-01
   6.490  0.751E-01  0.751E-01
   6.500  0.756E-01  0.756E-01
   6.510  0.754E-01  0.754E-01
   6.520  0.753E-01  0.753E-01
   6.530  0.758E-01  0.758E-01
   6.540  0.776E-01  0.776E-01
   6.550  0.813E-01  0.813E-01
   6.560  0.868E-01  0.868E-01
   6.570  0.938E-01  0.938E-01
   6.580  0.102E+00  0.102E+00
   6.590  0.109E+00  0.109E+00
   6.600  0.116E+00  0.116E+00
   6.610  0.120E+00  0.120E+00
   6.620  0.121E+00  0.121E+00
   6.630  0.119E+00  0.119E+00
   6.640  0.113E+00  0.113E+00
   6.650  0.104E+00  0.104E+00
   6.660  0.936E-01  0.936E-01
   6.670  0.816E-01  0.816E-01
   6.680  0.698E-01  0.698E-01
   6.690  0.592E-01  0.592E-01
   6.700  0.507E-01  0.507E-01
   6.710  0.450E-01  0.450E-01
   6.720  0.418E-01  0.418E-01
   6.730  0.410E-01  0.410E-01
   6.740  0.419E-01  0.419E-01
   6.750  0.440E-01  0.440E-01
   6.760  0.469E-01  0.469E-01
   6.770  0.506E-01  0.506E-01
   6.780  0.552E-01  0.552E-01
   6.790  0.609E-01  0.609E-01
   6.800  0.680E-01  0.680E-01
   6.810  0.763E-01  0.763E-01
   6.820  0.854E-01  0.854E-01
   6.830  0.945E-01  0.945E-01
   6.840  0.103E+00  0.103E+00
   6.850  0.109E+00  0.109E+00
   6.860  0.112E+00  0.112E+00
   6.870  0.113E+00  0.113E+00
   6.880  0.111E+00  0.111E+00
   6.890  0.107E+00  0.107E+00
   6.900  0.102E+00  0.102E+00
   6.910  0.967E-01  0.967E-01
   6.920  0.924E-01  0.924E-01
   6.930  0.897E-01  0.897E-01
   6.940  0.889E-01  0.889E-01
   6.950  0.901E-01  0.901E-01
   6.960  0.927E-01  0.927E-01
   6.970  0.961E-01  0.961E-01
   6.980  0.996E-01  0.996E-01
   6.990  0.102E+00  0.102E+00
   7.000  0.104E+00  0.104E+00
   7.010  0.104E+00  0.104E+00
   7.020  0.102E+00  0.102E+00
   7.030  0.977E-01  0.977E-01
   7.040  0.917E-01  0.917E-01
   7.050  0.843E-01  0.843E-01
   7.060  0.760E-01  0.760E-01
   7.070  0.675E-01  0.675E-01
   7.080  0.593E-01  0.593E-01
   7.090  0.522E-01  0.522E-01
   7.100  0.468E-01  0.468E-01
   7.110  0.435E-01  0.435E-01
   7.120  0.425E-01  0.425E-01
   7.130  0.435E-01  0.435E-01
   7.140  0.463E-01  0.463E-01
   7.150  0.502E-01  0.502E-01
   7.160  0.545E-01  0.545E-01
   7.170  0.587E-01  0.587E-01
   7.180  0.625E-01  0.625E-01
   7.190  0.659E-01  0.659E-01
   7.200  0.692E-01  0.692E-01
   7.210  0.732E-01  0.732E-01
   7.220  0.786E-01  0.786E-01
   7.230  0.857E-01  0.857E-01
   7.240  0.948E-01  0.948E-01
   7.250  0.105E+00  0.105E+00
   7.260  0.116E+00  0.116E+00
   7.270  0.127E+00  0.127E+00
   7.280  0.135E+00  0.135E+00
   7.290  0.140E+00  0.140E+00
   7.300  0.140E+00  0.140E+00
   7.310  0.136E+00  0.136E+00
   7.320  0.126E+00  0.126E+00
   7.330  0.112E+00  0.112E+00
   7.340  0.957E-01  0.957E-01
   7.350  0.781E-01  0.781E-01
   7.360  0.609E-01  0.609E-01
   7.370  0.457E-01  0.457E-01
   7.380  0.336E-01  0.336E-01
   7.390  0.252E-01  0.252E-01
   7.400  0.206E-01  0.206E-01
   7.410  0.195E-01  0.195E-01
   7.420  0.213E-01  0.213E-01
   7.430  0.251E-01  0.251E-01
   7.440  0.300E-01  0.300E-01
   7.450  0.354E-01  0.354E-01
   7.460  0.406E-01  0.406E-01
   7.470  0.453E-01  0.453E-01
   7.480  0.493E-01  0.493E-01
   7.490  0.529E-01  0.529E-01
   7.500  0.563E-01  0.563E-01
   7.510  0.598E-01  0.598E-01
   7.520  0.637E-01  0.637E-01
   7.530  0.682E-01  0.682E-01
   7.540  0.733E-01  0.733E-01
   7.550  0.789E-01  0.789E-01
   7.560  0.847E-01  0.847E-01
   7.570  0.902E-01  0.902E-01
   7.580  0.950E-01  0.950E-01
   7.590  0.987E-01  0.987E-01
   7.600  0.101E+00  0.101E+00
   7.610  0.102E+00  0.102E+00
   7.620  0.102E+00  0.102E+00
   7.630  0.100E+00  0.100E+00
   7.640  0.967E-01  0.967E-01
   7.650  0.917E-01  0.917E-01
   7.660  0.850E-01  0.850E-01
   7.670  0.767E-01  0.767E-01
   7.680  0.673E-01  0.673E-01
   7.690  0.574E-01  0.574E-01
   7.700  0.481E-01  0.481E-01
   7.710  0.405E-01  0.405E-01
   7.720  0.356E-01  0.356E-01
   7.730  0.338E-01  0.338E-01
   7.740  0.353E-01  0.353E-01
   7.750  0.396E-01  0.396E-01
   7.760  0.456E-01  0.456E-01
   7.770  0.521E-01  0.521E-01
   7.780  0.579E-01  0.579E-01
   7.790  0.620E-01  0.620E-01
   7.800  0.638E-01  0.638E-01
   7.810  0.632E-01  0.632E-01
   7.820  0.606E-01  0.606E-01
   7.830  0.567E-01  0.567E-01
   7.840  0.523E-01  0.523E-01
   7.850  0.482E-01  0.482E-01
   7.860  0.451E-01  0.451E-01
   7.870  0.433E-01  0.433E-01
   7.880  0.429E-01  0.429E-01
   7.890  0.437E-01  0.437E-01
   7.900  0.454E-01  0.454E-01
   7.910  0.477E-01  0.477E-01
   7.920  0.503E-01  0.503E-01
   7.930  0.532E-01  0.532E-01
   7.940  0.563E-01  0.563E-01
   7.950  0.598E-01  0.598E-01
   7.960  0.640E-01  0.640E-01
   7.970  0.689E-01  0.689E-01
   7.980  0.746E-01  0.746E-01
   7.990  0.805E-01  0.805E-01
   8.000  0.863E-01  0.863E-01
   8.010  0.910E-01  0.910E-01
   8.020  0.940E-01  0.940E-01
   8.030  0.947E-01  0.947E-01
   8.040  0.930E-01  0.930E-01
   8.050  0.890E-01  0.890E-01
   8.060  0.830E-01  0.830E-01
   8.070  0.758E-01  0.758E-01
   8.080  0.677E-01  0.677E-01
   8.090  0.593E-01  0.593E-01
   8.100  0.511E-01  0.511E-01
   8.110  0.432E-01  0.432E-01
   8.120  0.361E-01  0.361E-01
   8.130  0.302E-01  0.302E-01
   8.140  0.258E-01  0.258E-01
   8.150  0.235E-01  0.235E-01
   8.160  0.233E-01  0.233E-01
   8.170  0.252E-01  0.252E-01
   8.180  0.290E-01  0.290E-01
   8.190  0.340E-01  0.340E-01
   8.200  0.395E-01  0.395E-01
   8.210  0.448E-01  0.448E-01
   8.220  0.492E-01  0.492E-01
   8.230  0.522E-01  0.522E-01
   8.240  0.537E-01  0.537E-01
   8.250  0.536E-01  0.536E-01
   8.260  0.523E-01  0.523E-01
   8.270  0.506E-01  0.506E-01
   8.280  0.491E-01  0.491E-01
   8.290  0.488E-01  0.488E-01
   8.300  0.503E-01  0.503E-01
   8.310  0.542E-01  0.542E-01
   8.320  0.606E-01  0.606E-01
   8.330  0.688E-01  0.688E-01
   8.340  0.781E-01  0.781E-01
   8.350  0.872E-01  0.872E-01
   8.360  0.945E-01  0.945E-01
   8.370  0.988E-01  0.988E-01
   8.380  0.991E-01  0.991E-01
   8.390  0.949E-01  0.949E-01
   8.400  0.865E-01  0.865E-01
   8.410  0.748E-01  0.748E-01
   8.420  0.613E-01  0.613E-01
   8.430  0.478E-01  0.478E-01
   8.440  0.360E-01  0.360E-01
   8.450  0.275E-01  0.275E-01
   8.460  0.231E-01  0.231E-01
   8.470  0.231E-01  0.231E-01
   8.480  0.272E-01  0.272E-01
   8.490  0.343E-01  0.343E-01
   8.500  0.432E-01  0.432E-01
   8.510  0.522E-01  0.522E-01
   8.520  0.601E-01  0.601E-01
   8.530  0.656E-01  0.656E-01
   8.540  0.679E-01  0.679E-01
   8.550  0.670E-01  0.670E-01
   8.560  0.629E-01  0.629E-01
   8.570  0.567E-01  0.567E-01
   8.580  0.492E-01  0.492E-01
   8.590  0.417E-01  0.417E-01
   8.600  0.354E-01  0.354E-01
   8.610  0.311E-01  0.311E-01
   8.620  0.292E-01  0.292E-01
   8.630  0.299E-01  0.299E-01
   8.640  0.330E-01  0.330E-01
   8.650  0.380E-01  0.380E-01
   8.660  0.445E-01  0.445E-01
   8.670  0.518E-01  0.518E-01
   8.680  0.596E-01  0.596E-01
   8.690  0.673E-01  0.673E-01
   8.700  0.745E-01  0.745E-01
   8.710  0.807E-01  0.807E-01
   8.720  0.852E-01  0.852E-01
   8.730  0.876E-01  0.876E-01
   8.740  0.875E-01  0.875E-01
   8.750  0.846E-01  0.846E-01
   8.760  0.792E-01  0.792E-01
   8.770  0.718E-01  0.718E-01
   8.780  0.630E-01  0.630E-01
   8.790  0.537E-01  0.537E-01
   8.800  0.449E-01  0.449E-01
   8.810  0.370E-01  0.370E-01
   8.820  0.308E-01  0.308E-01
   8.830  0.265E-01  0.265E-01
   8.840  0.242E-01  0.242E-01
   8.850  0.240E-01  0.240E-01
   8.860  0.257E-01  0.257E-01
   8.870  0.289E-01  0.289E-01
   8.880  0.334E-01  0.334E-01
   8.890  0.384E-01  0.384E-01
   8.900  0.433E-01  0.433E-01
   8.910  0.476E-01  0.476E-01
   8.920  0.508E-01  0.508E-01
   8.930  0.525E-01  0.525E-01
   8.940  0.528E-01  0.528E-01
   8.950  0.520E-01  0.520E-01
   8.960  0.507E-01  0.507E-01
   8.970  0.498E-01  0.498E-01
   8.980  0.499E-01  0.499E-01
   8.990  0.516E-01  0.516E-01
   9.000  0.550E-01  0.550E-01
   9.010  0.599E-01  0.599E-01
   9.020  0.655E-01  0.655E-01
   9.030  0.709E-01  0.709E-01
   9.040  0.749E-01  0.749E-01
   9.050  0.767E-01  0.767E-01
   9.060  0.759E-01  0.759E-01
   9.070  0.723E-01  0.723E-01
   9.080  0.665E-01  0.665E-01
   9.090  0.593E-01  0.593E-01
   9.100  0.514E-01  0.514E-01
   9.110  0.438E-01  0.438E-01
   9.120  0.372E-01  0.372E-01
   9.130  0.318E-01  0.318E-01
   9.140  0.280E-01  0.280E-01
   9.150  0.256E-01  0.256E-01
   9.160  0.244E-01  0.244E-01
   9.170  0.245E-01  0.245E-01
   9.180  0.256E-01  0.256E-01
   9.190  0.279E-01  0.279E-01
   9.200  0.312E-01  0.312E-01
   9.210  0.356E-01  0.356E-01
   9.220  0.408E-01  0.408E-01
   9.230  0.468E-01  0.468E-01
   9.240  0.531E-01  0.531E-01
   9.250  0.595E-01  0.595E-01
   9.260  0.655E-01  0.655E-01
   9.270  0.708E-01  0.708E-01
   9.280  0.753E-01  0.753E-01
   9.290  0.784E-01  0.784E-01
   9.300  0.801E-01  0.801E-01
   9.310  0.802E-01  0.802E-01
   9.320  0.785E-01  0.785E-01
   9.330  0.752E-01  0.752E-01
   9.340  0.703E-01  0.703E-01
   9.350  0.643E-01  0.643E-01
   9.360  0.577E-01  0.577E-01
   9.370  0.510E-01  0.510E-01
   9.380  0.447E-01  0.447E-01
   9.390  0.392E-01  0.392E-01
   9.400  0.348E-01  0.348E-01
   9.410  0.317E-01  0.317E-01
   9.420  0.299E-01  0.299E-01
   9.430  0.292E-01  0.292E-01
   9.440  0.294E-01  0.294E-01
   9.450  0.302E-01  0.302E-01
   9.460  0.312E-01  0.312E-01
   9.470  0.319E-01  0.319E-01
   9.480  0.323E-01  0.323E-01
   9.490  0.321E-01  0.321E-01
   9.500  0.316E-01  0.316E-01
   9.510  0.310E-01  0.310E-01
   9.520  0.305E-01  0.305E-01
   9.530  0.303E-01  0.303E-01
   9.540  0.306E-01  0.306E-01
   9.550  0.313E-01  0.313E-01
   9.560  0.321E-01  0.321E-01
   9.570  0.329E-01  0.329E-01
   9.580  0.333E-01  0.333E-01
   9.590  0.333E-01  0.333E-01
   9.600  0.327E-01  0.327E-01
   9.610  0.316E-01  0.316E-01
   9.620  0.302E-01  0.302E-01
   9.630  0.286E-01  0.286E-01
   9.640  0.270E-01  0.270E-01
   9.650  0.255E-01  0.255E-01
   9.660  0.241E-01  0.241E-01
   9.670  0.228E-01  0.228E-01
   9.680  0.214E-01  0.214E-01
   9.690  0.198E-01  0.198E-01
   9.700  0.181E-01  0.181E-01
   9.710  0.162E-01  0.162E-01
   9.720  0.144E-01  0.144E-01
   9.730  0.128E-01  0.128E-01
   9.740  0.118E-01  0.118E-01
   9.750  0.115E-01  0.115E-01
   9.760  0.121E-01  0.121E-01
   9.770  0.137E-01  0.137E-01
   9.780  0.162E-01  0.162E-01
   9.790  0.194E-01  0.194E-01
   9.800  0.229E-01  0.229E-01
   9.810  0.261E-01  0.261E-01
   9.820  0.285E-01  0.285E-01
   9.830  0.297E-01  0.297E-01
   9.840  0.294E-01  0.294E-01
   9.850  0.274E-01  0.274E-01
   9.860  0.241E-01  0.241E-01
   9.870  0.200E-01  0.200E-01
   9.880  0.156E-01  0.156E-01
   9.890  0.116E-01  0.116E-01
   9.900  0.870E-02  0.870E-02
   9.910  0.726E-02  0.726E-02
   9.920  0.751E-02  0.751E-02
   9.930  0.941E-02  0.941E-02
   9.940  0.128E-01  0.128E-01
   9.950  0.172E-01  0.172E-01
   9.960  0.222E-01  0.222E-01
   9.970  0.273E-01  0.273E-01
   9.980  0.321E-01  0.321E-01
   9.990  0.363E-01  0.363E-01
  10.000  0.395E-01  0.395E-01
  10.010  0.417E-01  0.417E-01
  10.020  0.428E-01  0.428E-01
  10.030  0.427E-01  0.427E-01
  10.040  0.415E-01  0.415E-01
  10.050  0.391E-01  0.391E-01
  10.060  0.358E-01  0.358E-01
  10.070  0.316E-01  0.316E-01
  10.080  0.269E-01  0.269E-01
  10.090  0.220E-01  0.220E-01
  10.100  0.175E-01  0.175E-01
  10.110  0.138E-01  0.138E-01
  10.120  0.114E-01  0.114E-01
  10.130  0.105E-01  0.105E-01
  10.140  0.112E-01  0.112E-01
  10.150  0.134E-01  0.134E-01
  10.160  0.168E-01  0.168E-01
  10.170  0.209E-01  0.209E-01
  10.180  0.251E-01  0.251E-01
  10.190  0.289E-01  0.289E-01
  10.200  0.319E-01  0.319E-01
  10.210  0.337E-01  0.337E-01
  10.220  0.343E-01  0.343E-01
  10.230  0.340E-01  0.340E-01
  10.240  0.331E-01  0.331E-01
  10.250  0.322E-01  0.322E-01
  10.260  0.317E-01  0.317E-01
  10.270  0.320E-01  0.320E-01
  10.280  0.330E-01  0.330E-01
  10.290  0.344E-01  0.344E-01
  10.300  0.360E-01  0.360E-01
  10.310  0.371E-01  0.371E-01
  10.320  0.375E-01  0.375E-01
  10.330  0.368E-01  0.368E-01
  10.340  0.350E-01  0.350E-01
  10.350  0.325E-01  0.325E-01
  10.360  0.296E-01  0.296E-01
  10.370  0.266E-01  0.266E-01
  10.380  0.240E-01  0.240E-01
  10.390  0.219E-01  0.219E-01
  10.400  0.205E-01  0.205E-01
  10.410  0.195E-01  0.195E-01
  10.420  0.187E-01  0.187E-01
  10.430  0.179E-01  0.179E-01
  10.440  0.169E-01  0.169E-01
  10.450  0.153E-01  0.153E-01
  10.460  0.133E-01  0.133E-01
  10.470  0.110E-01  0.110E-01
  10.480  0.856E-02  0.856E-02
  10.490  0.622E-02  0.622E-02
  10.500  0.421E-02  0.421E-02
  10.510  0.264E-02  0.264E-02
  10.520  0.156E-02  0.156E-02
  10.530  0.919E-03  0.919E-03
  10.540  0.605E-03  0.605E-03
  10.550  0.496E-03  0.496E-03
  10.560  0.486E-03  0.486E-03
  10.570  0.501E-03  0.501E-03
  10.580  0.507E-03  0.507E-03
  10.590  0.495E-03  0.495E-03
  10.600  0.473E-03  0.473E-03
  10.610  0.447E-03  0.447E-03
  10.620  0.419E-03  0.419E-03
  10.630  0.383E-03  0.383E-03
  10.640  0.334E-03  0.334E-03
  10.650  0.269E-03  0.269E-03
  10.660  0.189E-03  0.189E-03
  10.670  0.102E-03  0.102E-03
  10.680  0.184E-04  0.184E-04
  10.690 -0.510E-04 -0.510E-04
  10.700 -0.996E-04 -0.996E-04
  10.710 -0.125E-03 -0.125E-03
  10.720 -0.131E-03 -0.131E-03
  10.730 -0.121E-03 -0.121E-03
  10.740 -0.102E-03 -0.102E-03
  10.750 -0.792E-04 -0.792E-04
  10.760 -0.577E-04 -0.577E-04
  10.770 -0.395E-04 -0.395E-04
  10.780 -0.255E-04 -0.255E-04
  10.790 -0.156E-04 -0.156E-04
  10.800 -0.902E-05 -0.902E-05
  10.810 -0.496E-05 -0.496E-05
  10.820 -0.260E-05 -0.260E-05
  10.830 -0.129E-05 -0.129E-05
  10.840 -0.614E-06 -0.614E-06
  10.850 -0.278E-06 -0.278E-06
  10.860 -0.120E-06 -0.120E-06
  10.870 -0.496E-07 -0.496E-07
  10.880 -0.196E-07 -0.196E-07
  10.890 -0.744E-08 -0.744E-08
  10.900 -0.271E-08 -0.271E-08
  10.910 -0.954E-09 -0.954E-09
