# E (eV)   ldos(E)   pdos(E)    pdos(E)    pdos(E)   
 -20.321  0.204E-09  0.688E-10  0.678E-10  0.678E-10
 -20.311  0.613E-09  0.201E-09  0.206E-09  0.206E-09
 -20.301  0.177E-08  0.565E-09  0.600E-09  0.600E-09
 -20.291  0.488E-08  0.152E-08  0.168E-08  0.168E-08
 -20.281  0.129E-07  0.391E-08  0.451E-08  0.451E-08
 -20.271  0.329E-07  0.965E-08  0.116E-07  0.116E-07
 -20.261  0.803E-07  0.228E-07  0.287E-07  0.287E-07
 -20.251  0.188E-06  0.517E-07  0.683E-07  0.683E-07
 -20.241  0.424E-06  0.112E-06  0.156E-06  0.156E-06
 -20.231  0.916E-06  0.234E-06  0.341E-06  0.341E-06
 -20.221  0.190E-05  0.467E-06  0.718E-06  0.718E-06
 -20.211  0.380E-05  0.893E-06  0.145E-05  0.145E-05
 -20.201  0.729E-05  0.164E-05  0.283E-05  0.283E-05
 -20.191  0.135E-04  0.288E-05  0.529E-05  0.529E-05
 -20.181  0.239E-04  0.487E-05  0.953E-05  0.953E-05
 -20.171  0.409E-04  0.789E-05  0.165E-04  0.165E-04
 -20.161  0.675E-04  0.123E-04  0.276E-04  0.276E-04
 -20.151  0.107E-03  0.183E-04  0.445E-04  0.445E-04
 -20.141  0.165E-03  0.263E-04  0.692E-04  0.692E-04
 -20.131  0.244E-03  0.363E-04  0.104E-03  0.104E-03
 -20.121  0.350E-03  0.482E-04  0.151E-03  0.151E-03
 -20.111  0.485E-03  0.617E-04  0.212E-03  0.212E-03
 -20.101  0.653E-03  0.763E-04  0.288E-03  0.288E-03
 -20.091  0.854E-03  0.910E-04  0.381E-03  0.381E-03
 -20.081  0.109E-02  0.105E-03  0.491E-03  0.491E-03
 -20.071  0.135E-02  0.118E-03  0.615E-03  0.615E-03
 -20.061  0.164E-02  0.130E-03  0.753E-03  0.753E-03
 -20.051  0.195E-02  0.140E-03  0.903E-03  0.903E-03
 -20.041  0.228E-02  0.148E-03  0.106E-02  0.106E-02
 -20.031  0.262E-02  0.156E-03  0.123E-02  0.123E-02
 -20.021  0.298E-02  0.163E-03  0.141E-02  0.141E-02
 -20.011  0.336E-02  0.171E-03  0.160E-02  0.160E-02
 -20.001  0.376E-02  0.179E-03  0.179E-02  0.179E-02
 -19.991  0.418E-02  0.188E-03  0.200E-02  0.200E-02
 -19.981  0.463E-02  0.198E-03  0.221E-02  0.221E-02
 -19.971  0.509E-02  0.207E-03  0.244E-02  0.244E-02
 -19.961  0.558E-02  0.216E-03  0.268E-02  0.268E-02
 -19.951  0.609E-02  0.223E-03  0.293E-02  0.293E-02
 -19.941  0.660E-02  0.228E-03  0.319E-02  0.319E-02
 -19.931  0.713E-02  0.231E-03  0.345E-02  0.345E-02
 -19.921  0.766E-02  0.231E-03  0.371E-02  0.371E-02
 -19.911  0.818E-02  0.230E-03  0.398E-02  0.398E-02
 -19.901  0.870E-02  0.227E-03  0.424E-02  0.424E-02
 -19.891  0.922E-02  0.223E-03  0.450E-02  0.450E-02
 -19.881  0.972E-02  0.219E-03  0.475E-02  0.475E-02
 -19.871  0.102E-01  0.214E-03  0.500E-02  0.500E-02
 -19.861  0.107E-01  0.210E-03  0.525E-02  0.525E-02
 -19.851  0.112E-01  0.206E-03  0.549E-02  0.549E-02
 -19.841  0.116E-01  0.203E-03  0.572E-02  0.572E-02
 -19.831  0.121E-01  0.199E-03  0.595E-02  0.595E-02
 -19.821  0.126E-01  0.196E-03  0.618E-02  0.618E-02
 -19.811  0.130E-01  0.194E-03  0.640E-02  0.640E-02
 -19.801  0.135E-01  0.191E-03  0.663E-02  0.663E-02
 -19.791  0.139E-01  0.189E-03  0.686E-02  0.686E-02
 -19.781  0.143E-01  0.187E-03  0.708E-02  0.708E-02
 -19.771  0.148E-01  0.184E-03  0.729E-02  0.729E-02
 -19.761  0.152E-01  0.182E-03  0.750E-02  0.750E-02
 -19.751  0.156E-01  0.180E-03  0.770E-02  0.770E-02
 -19.741  0.160E-01  0.177E-03  0.790E-02  0.790E-02
 -19.731  0.164E-01  0.175E-03  0.811E-02  0.811E-02
 -19.721  0.168E-01  0.173E-03  0.832E-02  0.832E-02
 -19.711  0.172E-01  0.171E-03  0.854E-02  0.854E-02
 -19.701  0.177E-01  0.170E-03  0.876E-02  0.876E-02
 -19.691  0.181E-01  0.168E-03  0.897E-02  0.897E-02
 -19.681  0.185E-01  0.166E-03  0.916E-02  0.916E-02
 -19.671  0.188E-01  0.164E-03  0.934E-02  0.934E-02
 -19.661  0.192E-01  0.162E-03  0.950E-02  0.950E-02
 -19.651  0.195E-01  0.159E-03  0.965E-02  0.965E-02
 -19.641  0.198E-01  0.157E-03  0.982E-02  0.982E-02
 -19.631  0.202E-01  0.155E-03  0.100E-01  0.100E-01
 -19.621  0.206E-01  0.153E-03  0.102E-01  0.102E-01
 -19.611  0.211E-01  0.152E-03  0.105E-01  0.105E-01
 -19.601  0.216E-01  0.152E-03  0.107E-01  0.107E-01
 -19.591  0.220E-01  0.151E-03  0.109E-01  0.109E-01
 -19.581  0.223E-01  0.149E-03  0.111E-01  0.111E-01
 -19.571  0.226E-01  0.147E-03  0.112E-01  0.112E-01
 -19.561  0.227E-01  0.144E-03  0.113E-01  0.113E-01
 -19.551  0.229E-01  0.141E-03  0.114E-01  0.114E-01
 -19.541  0.231E-01  0.139E-03  0.115E-01  0.115E-01
 -19.531  0.235E-01  0.137E-03  0.117E-01  0.117E-01
 -19.521  0.240E-01  0.136E-03  0.119E-01  0.119E-01
 -19.511  0.246E-01  0.136E-03  0.122E-01  0.122E-01
 -19.501  0.252E-01  0.136E-03  0.126E-01  0.126E-01
 -19.491  0.258E-01  0.136E-03  0.128E-01  0.128E-01
 -19.481  0.261E-01  0.135E-03  0.130E-01  0.130E-01
 -19.471  0.263E-01  0.133E-03  0.131E-01  0.131E-01
 -19.461  0.262E-01  0.130E-03  0.130E-01  0.130E-01
 -19.451  0.261E-01  0.127E-03  0.130E-01  0.130E-01
 -19.441  0.260E-01  0.123E-03  0.130E-01  0.130E-01
 -19.431  0.262E-01  0.121E-03  0.130E-01  0.130E-01
 -19.421  0.266E-01  0.119E-03  0.132E-01  0.132E-01
 -19.411  0.273E-01  0.119E-03  0.136E-01  0.136E-01
 -19.401  0.282E-01  0.121E-03  0.140E-01  0.140E-01
 -19.391  0.291E-01  0.122E-03  0.145E-01  0.145E-01
 -19.381  0.298E-01  0.123E-03  0.148E-01  0.148E-01
 -19.371  0.301E-01  0.123E-03  0.150E-01  0.150E-01
 -19.361  0.301E-01  0.121E-03  0.150E-01  0.150E-01
 -19.351  0.298E-01  0.117E-03  0.149E-01  0.149E-01
 -19.341  0.294E-01  0.113E-03  0.146E-01  0.146E-01
 -19.331  0.289E-01  0.109E-03  0.144E-01  0.144E-01
 -19.321  0.288E-01  0.105E-03  0.143E-01  0.143E-01
 -19.311  0.291E-01  0.104E-03  0.145E-01  0.145E-01
 -19.301  0.298E-01  0.103E-03  0.148E-01  0.148E-01
 -19.291  0.308E-01  0.105E-03  0.153E-01  0.153E-01
 -19.281  0.320E-01  0.107E-03  0.160E-01  0.160E-01
 -19.271  0.331E-01  0.109E-03  0.165E-01  0.165E-01
 -19.261  0.339E-01  0.111E-03  0.169E-01  0.169E-01
 -19.251  0.342E-01  0.110E-03  0.171E-01  0.171E-01
 -19.241  0.341E-01  0.108E-03  0.170E-01  0.170E-01
 -19.231  0.334E-01  0.105E-03  0.167E-01  0.167E-01
 -19.221  0.326E-01  0.100E-03  0.163E-01  0.163E-01
 -19.211  0.319E-01  0.957E-04  0.159E-01  0.159E-01
 -19.201  0.314E-01  0.920E-04  0.157E-01  0.157E-01
 -19.191  0.314E-01  0.897E-04  0.157E-01  0.157E-01
 -19.181  0.321E-01  0.892E-04  0.160E-01  0.160E-01
 -19.171  0.332E-01  0.904E-04  0.165E-01  0.165E-01
 -19.161  0.346E-01  0.927E-04  0.173E-01  0.173E-01
 -19.151  0.361E-01  0.955E-04  0.180E-01  0.180E-01
 -19.141  0.373E-01  0.978E-04  0.186E-01  0.186E-01
 -19.131  0.381E-01  0.989E-04  0.190E-01  0.190E-01
 -19.121  0.382E-01  0.984E-04  0.191E-01  0.191E-01
 -19.111  0.378E-01  0.962E-04  0.189E-01  0.189E-01
 -19.101  0.369E-01  0.927E-04  0.184E-01  0.184E-01
 -19.091  0.358E-01  0.883E-04  0.179E-01  0.179E-01
 -19.081  0.348E-01  0.839E-04  0.173E-01  0.173E-01
 -19.071  0.341E-01  0.803E-04  0.170E-01  0.170E-01
 -19.061  0.340E-01  0.779E-04  0.169E-01  0.169E-01
 -19.051  0.345E-01  0.771E-04  0.172E-01  0.172E-01
 -19.041  0.355E-01  0.778E-04  0.177E-01  0.177E-01
 -19.031  0.370E-01  0.798E-04  0.185E-01  0.185E-01
 -19.021  0.387E-01  0.823E-04  0.193E-01  0.193E-01
 -19.011  0.402E-01  0.848E-04  0.201E-01  0.201E-01
 -19.001  0.414E-01  0.867E-04  0.207E-01  0.207E-01
 -18.991  0.420E-01  0.875E-04  0.210E-01  0.210E-01
 -18.981  0.420E-01  0.868E-04  0.209E-01  0.209E-01
 -18.971  0.413E-01  0.846E-04  0.206E-01  0.206E-01
 -18.961  0.402E-01  0.813E-04  0.200E-01  0.200E-01
 -18.951  0.389E-01  0.774E-04  0.194E-01  0.194E-01
 -18.941  0.376E-01  0.734E-04  0.188E-01  0.188E-01
 -18.931  0.368E-01  0.701E-04  0.184E-01  0.184E-01
 -18.921  0.366E-01  0.678E-04  0.182E-01  0.182E-01
 -18.911  0.370E-01  0.668E-04  0.185E-01  0.185E-01
 -18.901  0.381E-01  0.672E-04  0.190E-01  0.190E-01
 -18.891  0.396E-01  0.687E-04  0.197E-01  0.197E-01
 -18.881  0.413E-01  0.708E-04  0.206E-01  0.206E-01
 -18.871  0.429E-01  0.730E-04  0.214E-01  0.214E-01
 -18.861  0.443E-01  0.749E-04  0.221E-01  0.221E-01
 -18.851  0.451E-01  0.760E-04  0.225E-01  0.225E-01
 -18.841  0.454E-01  0.762E-04  0.226E-01  0.226E-01
 -18.831  0.451E-01  0.753E-04  0.225E-01  0.225E-01
 -18.821  0.443E-01  0.734E-04  0.221E-01  0.221E-01
 -18.811  0.431E-01  0.708E-04  0.215E-01  0.215E-01
 -18.801  0.419E-01  0.677E-04  0.209E-01  0.209E-01
 -18.791  0.407E-01  0.645E-04  0.203E-01  0.203E-01
 -18.781  0.399E-01  0.616E-04  0.199E-01  0.199E-01
 -18.771  0.395E-01  0.594E-04  0.197E-01  0.197E-01
 -18.761  0.398E-01  0.582E-04  0.198E-01  0.198E-01
 -18.751  0.406E-01  0.581E-04  0.203E-01  0.203E-01
 -18.741  0.420E-01  0.589E-04  0.210E-01  0.210E-01
 -18.731  0.437E-01  0.605E-04  0.218E-01  0.218E-01
 -18.721  0.455E-01  0.625E-04  0.227E-01  0.227E-01
 -18.711  0.470E-01  0.643E-04  0.235E-01  0.235E-01
 -18.701  0.481E-01  0.657E-04  0.240E-01  0.240E-01
 -18.691  0.486E-01  0.664E-04  0.242E-01  0.242E-01
 -18.681  0.484E-01  0.661E-04  0.242E-01  0.242E-01
 -18.671  0.477E-01  0.650E-04  0.238E-01  0.238E-01
 -18.661  0.467E-01  0.632E-04  0.233E-01  0.233E-01
 -18.651  0.455E-01  0.609E-04  0.227E-01  0.227E-01
 -18.641  0.444E-01  0.585E-04  0.222E-01  0.222E-01
 -18.631  0.436E-01  0.562E-04  0.218E-01  0.218E-01
 -18.621  0.431E-01  0.542E-04  0.215E-01  0.215E-01
 -18.611  0.430E-01  0.526E-04  0.215E-01  0.215E-01
 -18.601  0.433E-01  0.515E-04  0.216E-01  0.216E-01
 -18.591  0.439E-01  0.511E-04  0.219E-01  0.219E-01
 -18.581  0.449E-01  0.511E-04  0.224E-01  0.224E-01
 -18.571  0.461E-01  0.517E-04  0.230E-01  0.230E-01
 -18.561  0.474E-01  0.528E-04  0.237E-01  0.237E-01
 -18.551  0.488E-01  0.541E-04  0.244E-01  0.244E-01
 -18.541  0.500E-01  0.555E-04  0.250E-01  0.250E-01
 -18.531  0.510E-01  0.567E-04  0.255E-01  0.255E-01
 -18.521  0.514E-01  0.573E-04  0.257E-01  0.257E-01
 -18.511  0.513E-01  0.573E-04  0.256E-01  0.256E-01
 -18.501  0.506E-01  0.565E-04  0.253E-01  0.253E-01
 -18.491  0.495E-01  0.550E-04  0.247E-01  0.247E-01
 -18.481  0.482E-01  0.529E-04  0.241E-01  0.241E-01
 -18.471  0.470E-01  0.507E-04  0.235E-01  0.235E-01
 -18.461  0.461E-01  0.485E-04  0.230E-01  0.230E-01
 -18.451  0.457E-01  0.468E-04  0.228E-01  0.228E-01
 -18.441  0.459E-01  0.457E-04  0.229E-01  0.229E-01
 -18.431  0.466E-01  0.451E-04  0.233E-01  0.233E-01
 -18.421  0.476E-01  0.450E-04  0.238E-01  0.238E-01
 -18.411  0.487E-01  0.452E-04  0.243E-01  0.243E-01
 -18.401  0.497E-01  0.455E-04  0.248E-01  0.248E-01
 -18.391  0.505E-01  0.458E-04  0.252E-01  0.252E-01
 -18.381  0.511E-01  0.462E-04  0.255E-01  0.255E-01
 -18.371  0.516E-01  0.467E-04  0.258E-01  0.258E-01
 -18.361  0.521E-01  0.473E-04  0.260E-01  0.260E-01
 -18.351  0.526E-01  0.479E-04  0.263E-01  0.263E-01
 -18.341  0.530E-01  0.485E-04  0.265E-01  0.265E-01
 -18.331  0.532E-01  0.488E-04  0.266E-01  0.266E-01
 -18.321  0.532E-01  0.487E-04  0.266E-01  0.266E-01
 -18.311  0.527E-01  0.480E-04  0.263E-01  0.263E-01
 -18.301  0.518E-01  0.467E-04  0.259E-01  0.259E-01
 -18.291  0.507E-01  0.450E-04  0.253E-01  0.253E-01
 -18.281  0.497E-01  0.430E-04  0.248E-01  0.248E-01
 -18.271  0.489E-01  0.411E-04  0.244E-01  0.244E-01
 -18.261  0.486E-01  0.397E-04  0.243E-01  0.243E-01
 -18.251  0.490E-01  0.388E-04  0.245E-01  0.245E-01
 -18.241  0.500E-01  0.385E-04  0.250E-01  0.250E-01
 -18.231  0.513E-01  0.387E-04  0.256E-01  0.256E-01
 -18.221  0.526E-01  0.392E-04  0.263E-01  0.263E-01
 -18.211  0.538E-01  0.398E-04  0.269E-01  0.269E-01
 -18.201  0.545E-01  0.403E-04  0.272E-01  0.272E-01
 -18.191  0.548E-01  0.407E-04  0.274E-01  0.274E-01
 -18.181  0.547E-01  0.409E-04  0.273E-01  0.273E-01
 -18.171  0.544E-01  0.410E-04  0.272E-01  0.272E-01
 -18.161  0.542E-01  0.410E-04  0.271E-01  0.271E-01
 -18.151  0.541E-01  0.411E-04  0.270E-01  0.270E-01
 -18.141  0.542E-01  0.412E-04  0.271E-01  0.271E-01
 -18.131  0.544E-01  0.412E-04  0.272E-01  0.272E-01
 -18.121  0.546E-01  0.410E-04  0.273E-01  0.273E-01
 -18.111  0.547E-01  0.405E-04  0.273E-01  0.273E-01
 -18.101  0.545E-01  0.397E-04  0.273E-01  0.273E-01
 -18.091  0.542E-01  0.385E-04  0.271E-01  0.271E-01
 -18.081  0.538E-01  0.372E-04  0.269E-01  0.269E-01
 -18.071  0.533E-01  0.358E-04  0.266E-01  0.266E-01
 -18.061  0.531E-01  0.346E-04  0.265E-01  0.265E-01
 -18.051  0.531E-01  0.337E-04  0.265E-01  0.265E-01
 -18.041  0.534E-01  0.331E-04  0.267E-01  0.267E-01
 -18.031  0.540E-01  0.329E-04  0.270E-01  0.270E-01
 -18.021  0.548E-01  0.331E-04  0.274E-01  0.274E-01
 -18.011  0.557E-01  0.337E-04  0.278E-01  0.278E-01
 -18.001  0.565E-01  0.344E-04  0.282E-01  0.282E-01
 -17.991  0.571E-01  0.351E-04  0.285E-01  0.285E-01
 -17.981  0.575E-01  0.357E-04  0.287E-01  0.287E-01
 -17.971  0.575E-01  0.362E-04  0.288E-01  0.288E-01
 -17.961  0.573E-01  0.364E-04  0.286E-01  0.286E-01
 -17.951  0.569E-01  0.363E-04  0.284E-01  0.284E-01
 -17.941  0.565E-01  0.360E-04  0.282E-01  0.282E-01
 -17.931  0.561E-01  0.355E-04  0.280E-01  0.280E-01
 -17.921  0.559E-01  0.349E-04  0.279E-01  0.279E-01
 -17.911  0.560E-01  0.342E-04  0.280E-01  0.280E-01
 -17.901  0.564E-01  0.337E-04  0.282E-01  0.282E-01
 -17.891  0.571E-01  0.331E-04  0.285E-01  0.285E-01
 -17.881  0.577E-01  0.326E-04  0.289E-01  0.289E-01
 -17.871  0.583E-01  0.321E-04  0.291E-01  0.291E-01
 -17.861  0.586E-01  0.315E-04  0.293E-01  0.293E-01
 -17.851  0.585E-01  0.308E-04  0.292E-01  0.292E-01
 -17.841  0.581E-01  0.300E-04  0.290E-01  0.290E-01
 -17.831  0.574E-01  0.292E-04  0.287E-01  0.287E-01
 -17.821  0.566E-01  0.285E-04  0.283E-01  0.283E-01
 -17.811  0.560E-01  0.281E-04  0.280E-01  0.280E-01
 -17.801  0.559E-01  0.281E-04  0.279E-01  0.279E-01
 -17.791  0.563E-01  0.285E-04  0.281E-01  0.281E-01
 -17.781  0.572E-01  0.293E-04  0.286E-01  0.286E-01
 -17.771  0.584E-01  0.304E-04  0.292E-01  0.292E-01
 -17.761  0.597E-01  0.314E-04  0.298E-01  0.298E-01
 -17.751  0.608E-01  0.323E-04  0.304E-01  0.304E-01
 -17.741  0.613E-01  0.327E-04  0.306E-01  0.306E-01
 -17.731  0.611E-01  0.327E-04  0.306E-01  0.306E-01
 -17.721  0.605E-01  0.321E-04  0.302E-01  0.302E-01
 -17.711  0.596E-01  0.311E-04  0.298E-01  0.298E-01
 -17.701  0.587E-01  0.300E-04  0.293E-01  0.293E-01
 -17.691  0.583E-01  0.289E-04  0.291E-01  0.291E-01
 -17.681  0.585E-01  0.280E-04  0.293E-01  0.293E-01
 -17.671  0.594E-01  0.275E-04  0.297E-01  0.297E-01
 -17.661  0.606E-01  0.272E-04  0.303E-01  0.303E-01
 -17.651  0.618E-01  0.271E-04  0.309E-01  0.309E-01
 -17.641  0.627E-01  0.271E-04  0.313E-01  0.313E-01
 -17.631  0.629E-01  0.269E-04  0.314E-01  0.314E-01
 -17.621  0.623E-01  0.265E-04  0.311E-01  0.311E-01
 -17.611  0.610E-01  0.259E-04  0.305E-01  0.305E-01
 -17.601  0.594E-01  0.253E-04  0.297E-01  0.297E-01
 -17.591  0.578E-01  0.248E-04  0.289E-01  0.289E-01
 -17.581  0.567E-01  0.244E-04  0.283E-01  0.283E-01
 -17.571  0.563E-01  0.245E-04  0.282E-01  0.282E-01
 -17.561  0.569E-01  0.249E-04  0.284E-01  0.284E-01
 -17.551  0.583E-01  0.257E-04  0.291E-01  0.291E-01
 -17.541  0.603E-01  0.268E-04  0.301E-01  0.301E-01
 -17.531  0.624E-01  0.278E-04  0.312E-01  0.312E-01
 -17.521  0.642E-01  0.287E-04  0.321E-01  0.321E-01
 -17.511  0.654E-01  0.291E-04  0.327E-01  0.327E-01
 -17.501  0.657E-01  0.290E-04  0.329E-01  0.329E-01
 -17.491  0.653E-01  0.284E-04  0.326E-01  0.326E-01
 -17.481  0.644E-01  0.274E-04  0.322E-01  0.322E-01
 -17.471  0.633E-01  0.262E-04  0.316E-01  0.316E-01
 -17.461  0.624E-01  0.250E-04  0.312E-01  0.312E-01
 -17.451  0.620E-01  0.240E-04  0.310E-01  0.310E-01
 -17.441  0.622E-01  0.233E-04  0.311E-01  0.311E-01
 -17.431  0.628E-01  0.229E-04  0.314E-01  0.314E-01
 -17.421  0.635E-01  0.227E-04  0.317E-01  0.317E-01
 -17.411  0.640E-01  0.226E-04  0.320E-01  0.320E-01
 -17.401  0.640E-01  0.226E-04  0.320E-01  0.320E-01
 -17.391  0.635E-01  0.225E-04  0.317E-01  0.317E-01
 -17.381  0.625E-01  0.224E-04  0.313E-01  0.313E-01
 -17.371  0.613E-01  0.223E-04  0.307E-01  0.307E-01
 -17.361  0.602E-01  0.222E-04  0.301E-01  0.301E-01
 -17.351  0.594E-01  0.222E-04  0.297E-01  0.297E-01
 -17.341  0.592E-01  0.224E-04  0.296E-01  0.296E-01
 -17.331  0.596E-01  0.227E-04  0.298E-01  0.298E-01
 -17.321  0.605E-01  0.231E-04  0.302E-01  0.302E-01
 -17.311  0.619E-01  0.236E-04  0.309E-01  0.309E-01
 -17.301  0.636E-01  0.241E-04  0.318E-01  0.318E-01
 -17.291  0.653E-01  0.245E-04  0.326E-01  0.326E-01
 -17.281  0.670E-01  0.248E-04  0.335E-01  0.335E-01
 -17.271  0.683E-01  0.250E-04  0.342E-01  0.342E-01
 -17.261  0.693E-01  0.249E-04  0.346E-01  0.346E-01
 -17.251  0.697E-01  0.245E-04  0.348E-01  0.348E-01
 -17.241  0.696E-01  0.239E-04  0.348E-01  0.348E-01
 -17.231  0.690E-01  0.231E-04  0.345E-01  0.345E-01
 -17.221  0.681E-01  0.222E-04  0.340E-01  0.340E-01
 -17.211  0.669E-01  0.213E-04  0.334E-01  0.334E-01
 -17.201  0.657E-01  0.204E-04  0.328E-01  0.328E-01
 -17.191  0.646E-01  0.197E-04  0.323E-01  0.323E-01
 -17.181  0.635E-01  0.191E-04  0.318E-01  0.318E-01
 -17.171  0.627E-01  0.187E-04  0.313E-01  0.313E-01
 -17.161  0.620E-01  0.186E-04  0.310E-01  0.310E-01
 -17.151  0.616E-01  0.186E-04  0.308E-01  0.308E-01
 -17.141  0.615E-01  0.188E-04  0.307E-01  0.307E-01
 -17.131  0.617E-01  0.192E-04  0.308E-01  0.308E-01
 -17.121  0.622E-01  0.198E-04  0.311E-01  0.311E-01
 -17.111  0.631E-01  0.204E-04  0.315E-01  0.315E-01
 -17.101  0.641E-01  0.211E-04  0.320E-01  0.320E-01
 -17.091  0.652E-01  0.217E-04  0.326E-01  0.326E-01
 -17.081  0.661E-01  0.220E-04  0.330E-01  0.330E-01
 -17.071  0.668E-01  0.222E-04  0.334E-01  0.334E-01
 -17.061  0.673E-01  0.221E-04  0.336E-01  0.336E-01
 -17.051  0.677E-01  0.218E-04  0.338E-01  0.338E-01
 -17.041  0.682E-01  0.214E-04  0.341E-01  0.341E-01
 -17.031  0.691E-01  0.211E-04  0.345E-01  0.345E-01
 -17.021  0.702E-01  0.209E-04  0.351E-01  0.351E-01
 -17.011  0.716E-01  0.207E-04  0.358E-01  0.358E-01
 -17.001  0.729E-01  0.206E-04  0.364E-01  0.364E-01
 -16.991  0.738E-01  0.205E-04  0.369E-01  0.369E-01
 -16.981  0.739E-01  0.202E-04  0.369E-01  0.369E-01
 -16.971  0.729E-01  0.197E-04  0.364E-01  0.364E-01
 -16.961  0.710E-01  0.191E-04  0.355E-01  0.355E-01
 -16.951  0.683E-01  0.182E-04  0.342E-01  0.342E-01
 -16.941  0.654E-01  0.174E-04  0.327E-01  0.327E-01
 -16.931  0.627E-01  0.166E-04  0.313E-01  0.313E-01
 -16.921  0.606E-01  0.160E-04  0.303E-01  0.303E-01
 -16.911  0.594E-01  0.157E-04  0.297E-01  0.297E-01
 -16.901  0.594E-01  0.158E-04  0.297E-01  0.297E-01
 -16.891  0.603E-01  0.162E-04  0.301E-01  0.301E-01
 -16.881  0.620E-01  0.169E-04  0.310E-01  0.310E-01
 -16.871  0.642E-01  0.177E-04  0.321E-01  0.321E-01
 -16.861  0.667E-01  0.187E-04  0.333E-01  0.333E-01
 -16.851  0.691E-01  0.196E-04  0.345E-01  0.345E-01
 -16.841  0.711E-01  0.204E-04  0.356E-01  0.356E-01
 -16.831  0.726E-01  0.209E-04  0.363E-01  0.363E-01
 -16.821  0.733E-01  0.210E-04  0.366E-01  0.366E-01
 -16.811  0.734E-01  0.208E-04  0.367E-01  0.367E-01
 -16.801  0.730E-01  0.203E-04  0.365E-01  0.365E-01
 -16.791  0.724E-01  0.196E-04  0.362E-01  0.362E-01
 -16.781  0.720E-01  0.188E-04  0.360E-01  0.360E-01
 -16.771  0.721E-01  0.182E-04  0.360E-01  0.360E-01
 -16.761  0.727E-01  0.177E-04  0.363E-01  0.363E-01
 -16.751  0.736E-01  0.174E-04  0.368E-01  0.368E-01
 -16.741  0.747E-01  0.173E-04  0.373E-01  0.373E-01
 -16.731  0.753E-01  0.173E-04  0.376E-01  0.376E-01
 -16.721  0.751E-01  0.172E-04  0.375E-01  0.375E-01
 -16.711  0.738E-01  0.170E-04  0.369E-01  0.369E-01
 -16.701  0.715E-01  0.166E-04  0.357E-01  0.357E-01
 -16.691  0.684E-01  0.161E-04  0.342E-01  0.342E-01
 -16.681  0.651E-01  0.154E-04  0.325E-01  0.325E-01
 -16.671  0.621E-01  0.149E-04  0.310E-01  0.310E-01
 -16.661  0.601E-01  0.145E-04  0.300E-01  0.300E-01
 -16.651  0.594E-01  0.144E-04  0.297E-01  0.297E-01
 -16.641  0.600E-01  0.146E-04  0.300E-01  0.300E-01
 -16.631  0.619E-01  0.151E-04  0.310E-01  0.310E-01
 -16.621  0.647E-01  0.158E-04  0.323E-01  0.323E-01
 -16.611  0.678E-01  0.166E-04  0.339E-01  0.339E-01
 -16.601  0.709E-01  0.174E-04  0.355E-01  0.355E-01
 -16.591  0.737E-01  0.181E-04  0.368E-01  0.368E-01
 -16.581  0.758E-01  0.187E-04  0.379E-01  0.379E-01
 -16.571  0.774E-01  0.190E-04  0.387E-01  0.387E-01
 -16.561  0.784E-01  0.191E-04  0.392E-01  0.392E-01
 -16.551  0.788E-01  0.190E-04  0.394E-01  0.394E-01
 -16.541  0.788E-01  0.187E-04  0.394E-01  0.394E-01
 -16.531  0.785E-01  0.182E-04  0.392E-01  0.392E-01
 -16.521  0.779E-01  0.176E-04  0.389E-01  0.389E-01
 -16.511  0.771E-01  0.169E-04  0.385E-01  0.385E-01
 -16.501  0.762E-01  0.162E-04  0.381E-01  0.381E-01
 -16.491  0.753E-01  0.155E-04  0.376E-01  0.376E-01
 -16.481  0.744E-01  0.150E-04  0.372E-01  0.372E-01
 -16.471  0.734E-01  0.146E-04  0.367E-01  0.367E-01
 -16.461  0.724E-01  0.144E-04  0.362E-01  0.362E-01
 -16.451  0.713E-01  0.142E-04  0.356E-01  0.356E-01
 -16.441  0.698E-01  0.142E-04  0.349E-01  0.349E-01
 -16.431  0.682E-01  0.141E-04  0.341E-01  0.341E-01
 -16.421  0.664E-01  0.140E-04  0.332E-01  0.332E-01
 -16.411  0.647E-01  0.139E-04  0.323E-01  0.323E-01
 -16.401  0.635E-01  0.139E-04  0.317E-01  0.317E-01
 -16.391  0.630E-01  0.140E-04  0.315E-01  0.315E-01
 -16.381  0.636E-01  0.142E-04  0.318E-01  0.318E-01
 -16.371  0.651E-01  0.146E-04  0.326E-01  0.326E-01
 -16.361  0.675E-01  0.151E-04  0.338E-01  0.338E-01
 -16.351  0.705E-01  0.157E-04  0.352E-01  0.352E-01
 -16.341  0.735E-01  0.162E-04  0.367E-01  0.367E-01
 -16.331  0.761E-01  0.167E-04  0.381E-01  0.381E-01
 -16.321  0.783E-01  0.169E-04  0.391E-01  0.391E-01
 -16.311  0.798E-01  0.171E-04  0.399E-01  0.399E-01
 -16.301  0.809E-01  0.171E-04  0.405E-01  0.405E-01
 -16.291  0.818E-01  0.170E-04  0.409E-01  0.409E-01
 -16.281  0.825E-01  0.169E-04  0.412E-01  0.412E-01
 -16.271  0.831E-01  0.167E-04  0.415E-01  0.415E-01
 -16.261  0.834E-01  0.165E-04  0.417E-01  0.417E-01
 -16.251  0.833E-01  0.163E-04  0.416E-01  0.416E-01
 -16.241  0.824E-01  0.158E-04  0.412E-01  0.412E-01
 -16.231  0.806E-01  0.153E-04  0.403E-01  0.403E-01
 -16.221  0.779E-01  0.146E-04  0.390E-01  0.390E-01
 -16.211  0.748E-01  0.139E-04  0.374E-01  0.374E-01
 -16.201  0.715E-01  0.131E-04  0.357E-01  0.357E-01
 -16.191  0.686E-01  0.125E-04  0.343E-01  0.343E-01
 -16.181  0.665E-01  0.121E-04  0.332E-01  0.332E-01
 -16.171  0.653E-01  0.120E-04  0.326E-01  0.326E-01
 -16.161  0.649E-01  0.121E-04  0.324E-01  0.324E-01
 -16.151  0.652E-01  0.123E-04  0.326E-01  0.326E-01
 -16.141  0.660E-01  0.127E-04  0.330E-01  0.330E-01
 -16.131  0.671E-01  0.132E-04  0.336E-01  0.336E-01
 -16.121  0.685E-01  0.137E-04  0.342E-01  0.342E-01
 -16.111  0.700E-01  0.143E-04  0.350E-01  0.350E-01
 -16.101  0.718E-01  0.148E-04  0.359E-01  0.359E-01
 -16.091  0.738E-01  0.152E-04  0.369E-01  0.369E-01
 -16.081  0.760E-01  0.156E-04  0.380E-01  0.380E-01
 -16.071  0.781E-01  0.159E-04  0.391E-01  0.391E-01
 -16.061  0.802E-01  0.161E-04  0.401E-01  0.401E-01
 -16.051  0.819E-01  0.161E-04  0.409E-01  0.409E-01
 -16.041  0.832E-01  0.160E-04  0.416E-01  0.416E-01
 -16.031  0.841E-01  0.158E-04  0.420E-01  0.420E-01
 -16.021  0.847E-01  0.155E-04  0.423E-01  0.423E-01
 -16.011  0.851E-01  0.152E-04  0.426E-01  0.426E-01
 -16.001  0.855E-01  0.150E-04  0.427E-01  0.427E-01
 -15.991  0.857E-01  0.148E-04  0.429E-01  0.429E-01
 -15.981  0.856E-01  0.147E-04  0.428E-01  0.428E-01
 -15.971  0.850E-01  0.146E-04  0.425E-01  0.425E-01
 -15.961  0.836E-01  0.144E-04  0.418E-01  0.418E-01
 -15.951  0.811E-01  0.141E-04  0.406E-01  0.406E-01
 -15.941  0.778E-01  0.136E-04  0.389E-01  0.389E-01
 -15.931  0.738E-01  0.130E-04  0.369E-01  0.369E-01
 -15.921  0.698E-01  0.123E-04  0.349E-01  0.349E-01
 -15.911  0.662E-01  0.117E-04  0.331E-01  0.331E-01
 -15.901  0.637E-01  0.112E-04  0.318E-01  0.318E-01
 -15.891  0.626E-01  0.110E-04  0.313E-01  0.313E-01
 -15.881  0.630E-01  0.111E-04  0.315E-01  0.315E-01
 -15.871  0.648E-01  0.115E-04  0.324E-01  0.324E-01
 -15.861  0.676E-01  0.121E-04  0.338E-01  0.338E-01
 -15.851  0.709E-01  0.128E-04  0.354E-01  0.354E-01
 -15.841  0.742E-01  0.136E-04  0.371E-01  0.371E-01
 -15.831  0.773E-01  0.144E-04  0.386E-01  0.386E-01
 -15.821  0.798E-01  0.150E-04  0.399E-01  0.399E-01
 -15.811  0.818E-01  0.155E-04  0.409E-01  0.409E-01
 -15.801  0.833E-01  0.157E-04  0.416E-01  0.416E-01
 -15.791  0.845E-01  0.158E-04  0.422E-01  0.422E-01
 -15.781  0.855E-01  0.158E-04  0.427E-01  0.427E-01
 -15.771  0.864E-01  0.156E-04  0.432E-01  0.432E-01
 -15.761  0.873E-01  0.154E-04  0.437E-01  0.437E-01
 -15.751  0.882E-01  0.151E-04  0.441E-01  0.441E-01
 -15.741  0.887E-01  0.148E-04  0.444E-01  0.444E-01
 -15.731  0.889E-01  0.145E-04  0.444E-01  0.444E-01
 -15.721  0.885E-01  0.141E-04  0.443E-01  0.443E-01
 -15.711  0.876E-01  0.138E-04  0.438E-01  0.438E-01
 -15.701  0.862E-01  0.135E-04  0.431E-01  0.431E-01
 -15.691  0.843E-01  0.133E-04  0.421E-01  0.421E-01
 -15.681  0.821E-01  0.131E-04  0.410E-01  0.410E-01
 -15.671  0.796E-01  0.129E-04  0.398E-01  0.398E-01
 -15.661  0.768E-01  0.128E-04  0.384E-01  0.384E-01
 -15.651  0.739E-01  0.125E-04  0.369E-01  0.369E-01
 -15.641  0.709E-01  0.122E-04  0.354E-01  0.354E-01
 -15.631  0.681E-01  0.118E-04  0.340E-01  0.340E-01
 -15.621  0.659E-01  0.115E-04  0.329E-01  0.329E-01
 -15.611  0.646E-01  0.113E-04  0.323E-01  0.323E-01
 -15.601  0.647E-01  0.112E-04  0.323E-01  0.323E-01
 -15.591  0.662E-01  0.114E-04  0.331E-01  0.331E-01
 -15.581  0.691E-01  0.119E-04  0.345E-01  0.345E-01
 -15.571  0.730E-01  0.125E-04  0.365E-01  0.365E-01
 -15.561  0.774E-01  0.133E-04  0.387E-01  0.387E-01
 -15.551  0.818E-01  0.142E-04  0.409E-01  0.409E-01
 -15.541  0.855E-01  0.149E-04  0.427E-01  0.427E-01
 -15.531  0.883E-01  0.155E-04  0.441E-01  0.441E-01
 -15.521  0.900E-01  0.158E-04  0.450E-01  0.450E-01
 -15.511  0.909E-01  0.159E-04  0.454E-01  0.454E-01
 -15.501  0.912E-01  0.158E-04  0.456E-01  0.456E-01
 -15.491  0.914E-01  0.156E-04  0.457E-01  0.457E-01
 -15.481  0.916E-01  0.153E-04  0.458E-01  0.458E-01
 -15.471  0.920E-01  0.151E-04  0.460E-01  0.460E-01
 -15.461  0.924E-01  0.148E-04  0.462E-01  0.462E-01
 -15.451  0.924E-01  0.145E-04  0.462E-01  0.462E-01
 -15.441  0.919E-01  0.142E-04  0.459E-01  0.459E-01
 -15.431  0.905E-01  0.138E-04  0.453E-01  0.453E-01
 -15.421  0.883E-01  0.135E-04  0.441E-01  0.441E-01
 -15.411  0.854E-01  0.131E-04  0.427E-01  0.427E-01
 -15.401  0.822E-01  0.127E-04  0.411E-01  0.411E-01
 -15.391  0.791E-01  0.125E-04  0.395E-01  0.395E-01
 -15.381  0.763E-01  0.123E-04  0.381E-01  0.381E-01
 -15.371  0.740E-01  0.122E-04  0.370E-01  0.370E-01
 -15.361  0.721E-01  0.122E-04  0.360E-01  0.360E-01
 -15.351  0.706E-01  0.122E-04  0.353E-01  0.353E-01
 -15.341  0.696E-01  0.122E-04  0.348E-01  0.348E-01
 -15.331  0.690E-01  0.121E-04  0.345E-01  0.345E-01
 -15.321  0.692E-01  0.122E-04  0.346E-01  0.346E-01
 -15.311  0.702E-01  0.123E-04  0.351E-01  0.351E-01
 -15.301  0.724E-01  0.126E-04  0.362E-01  0.362E-01
 -15.291  0.757E-01  0.130E-04  0.378E-01  0.378E-01
 -15.281  0.799E-01  0.137E-04  0.399E-01  0.399E-01
 -15.271  0.845E-01  0.144E-04  0.423E-01  0.423E-01
 -15.261  0.891E-01  0.152E-04  0.445E-01  0.445E-01
 -15.251  0.930E-01  0.159E-04  0.465E-01  0.465E-01
 -15.241  0.959E-01  0.164E-04  0.479E-01  0.479E-01
 -15.231  0.977E-01  0.166E-04  0.488E-01  0.488E-01
 -15.221  0.984E-01  0.166E-04  0.492E-01  0.492E-01
 -15.211  0.985E-01  0.165E-04  0.492E-01  0.492E-01
 -15.201  0.982E-01  0.162E-04  0.491E-01  0.491E-01
 -15.191  0.977E-01  0.159E-04  0.489E-01  0.489E-01
 -15.181  0.973E-01  0.156E-04  0.487E-01  0.487E-01
 -15.171  0.969E-01  0.153E-04  0.484E-01  0.484E-01
 -15.161  0.961E-01  0.151E-04  0.481E-01  0.481E-01
 -15.151  0.949E-01  0.149E-04  0.474E-01  0.474E-01
 -15.141  0.929E-01  0.146E-04  0.465E-01  0.465E-01
 -15.131  0.903E-01  0.144E-04  0.451E-01  0.451E-01
 -15.121  0.872E-01  0.142E-04  0.436E-01  0.436E-01
 -15.111  0.840E-01  0.140E-04  0.420E-01  0.420E-01
 -15.101  0.809E-01  0.138E-04  0.404E-01  0.404E-01
 -15.091  0.782E-01  0.137E-04  0.391E-01  0.391E-01
 -15.081  0.762E-01  0.136E-04  0.381E-01  0.381E-01
 -15.071  0.748E-01  0.136E-04  0.374E-01  0.374E-01
 -15.061  0.741E-01  0.137E-04  0.371E-01  0.371E-01
 -15.051  0.742E-01  0.138E-04  0.371E-01  0.371E-01
 -15.041  0.751E-01  0.140E-04  0.375E-01  0.375E-01
 -15.031  0.770E-01  0.144E-04  0.385E-01  0.385E-01
 -15.021  0.800E-01  0.149E-04  0.400E-01  0.400E-01
 -15.011  0.840E-01  0.156E-04  0.420E-01  0.420E-01
 -15.001  0.888E-01  0.165E-04  0.444E-01  0.444E-01
 -14.991  0.940E-01  0.175E-04  0.470E-01  0.470E-01
 -14.981  0.991E-01  0.185E-04  0.496E-01  0.496E-01
 -14.971  0.104E+00  0.193E-04  0.518E-01  0.518E-01
 -14.961  0.107E+00  0.200E-04  0.536E-01  0.536E-01
 -14.951  0.110E+00  0.205E-04  0.550E-01  0.550E-01
 -14.941  0.112E+00  0.208E-04  0.559E-01  0.559E-01
 -14.931  0.113E+00  0.211E-04  0.567E-01  0.567E-01
 -14.921  0.115E+00  0.213E-04  0.575E-01  0.575E-01
 -14.911  0.116E+00  0.216E-04  0.582E-01  0.582E-01
 -14.901  0.118E+00  0.219E-04  0.589E-01  0.589E-01
 -14.891  0.119E+00  0.222E-04  0.594E-01  0.594E-01
 -14.881  0.119E+00  0.223E-04  0.594E-01  0.594E-01
 -14.871  0.118E+00  0.224E-04  0.589E-01  0.589E-01
 -14.861  0.116E+00  0.222E-04  0.578E-01  0.578E-01
 -14.851  0.112E+00  0.218E-04  0.561E-01  0.561E-01
 -14.841  0.108E+00  0.212E-04  0.539E-01  0.539E-01
 -14.831  0.103E+00  0.204E-04  0.514E-01  0.514E-01
 -14.821  0.980E-01  0.197E-04  0.490E-01  0.490E-01
 -14.811  0.933E-01  0.189E-04  0.466E-01  0.466E-01
 -14.801  0.891E-01  0.181E-04  0.446E-01  0.446E-01
 -14.791  0.855E-01  0.173E-04  0.428E-01  0.428E-01
 -14.781  0.826E-01  0.167E-04  0.413E-01  0.413E-01
 -14.771  0.804E-01  0.161E-04  0.402E-01  0.402E-01
 -14.761  0.790E-01  0.156E-04  0.395E-01  0.395E-01
 -14.751  0.784E-01  0.153E-04  0.392E-01  0.392E-01
 -14.741  0.788E-01  0.152E-04  0.394E-01  0.394E-01
 -14.731  0.800E-01  0.152E-04  0.400E-01  0.400E-01
 -14.721  0.816E-01  0.153E-04  0.408E-01  0.408E-01
 -14.711  0.835E-01  0.154E-04  0.417E-01  0.417E-01
 -14.701  0.851E-01  0.154E-04  0.425E-01  0.425E-01
 -14.691  0.862E-01  0.153E-04  0.431E-01  0.431E-01
 -14.681  0.868E-01  0.150E-04  0.434E-01  0.434E-01
 -14.671  0.867E-01  0.146E-04  0.434E-01  0.434E-01
 -14.661  0.864E-01  0.141E-04  0.432E-01  0.432E-01
 -14.651  0.861E-01  0.136E-04  0.430E-01  0.430E-01
 -14.641  0.859E-01  0.131E-04  0.429E-01  0.429E-01
 -14.631  0.859E-01  0.128E-04  0.429E-01  0.429E-01
 -14.621  0.858E-01  0.127E-04  0.429E-01  0.429E-01
 -14.611  0.854E-01  0.125E-04  0.427E-01  0.427E-01
 -14.601  0.843E-01  0.124E-04  0.421E-01  0.421E-01
 -14.591  0.820E-01  0.123E-04  0.410E-01  0.410E-01
 -14.581  0.785E-01  0.119E-04  0.392E-01  0.392E-01
 -14.571  0.737E-01  0.114E-04  0.369E-01  0.369E-01
 -14.561  0.681E-01  0.107E-04  0.340E-01  0.340E-01
 -14.551  0.619E-01  0.992E-05  0.309E-01  0.309E-01
 -14.541  0.557E-01  0.901E-05  0.279E-01  0.279E-01
 -14.531  0.500E-01  0.811E-05  0.250E-01  0.250E-01
 -14.521  0.451E-01  0.727E-05  0.225E-01  0.225E-01
 -14.511  0.412E-01  0.658E-05  0.206E-01  0.206E-01
 -14.501  0.386E-01  0.607E-05  0.193E-01  0.193E-01
 -14.491  0.372E-01  0.578E-05  0.186E-01  0.186E-01
 -14.481  0.371E-01  0.572E-05  0.185E-01  0.185E-01
 -14.471  0.380E-01  0.589E-05  0.190E-01  0.190E-01
 -14.461  0.401E-01  0.626E-05  0.201E-01  0.201E-01
 -14.451  0.432E-01  0.682E-05  0.216E-01  0.216E-01
 -14.441  0.472E-01  0.752E-05  0.236E-01  0.236E-01
 -14.431  0.520E-01  0.832E-05  0.260E-01  0.260E-01
 -14.421  0.572E-01  0.917E-05  0.286E-01  0.286E-01
 -14.411  0.625E-01  0.997E-05  0.312E-01  0.312E-01
 -14.401  0.675E-01  0.107E-04  0.338E-01  0.338E-01
 -14.391  0.719E-01  0.112E-04  0.359E-01  0.359E-01
 -14.381  0.751E-01  0.114E-04  0.375E-01  0.375E-01
 -14.371  0.770E-01  0.114E-04  0.385E-01  0.385E-01
 -14.361  0.776E-01  0.110E-04  0.388E-01  0.388E-01
 -14.351  0.768E-01  0.105E-04  0.384E-01  0.384E-01
 -14.341  0.747E-01  0.972E-05  0.373E-01  0.373E-01
 -14.331  0.714E-01  0.886E-05  0.357E-01  0.357E-01
 -14.321  0.671E-01  0.796E-05  0.336E-01  0.336E-01
 -14.311  0.618E-01  0.706E-05  0.309E-01  0.309E-01
 -14.301  0.556E-01  0.620E-05  0.278E-01  0.278E-01
 -14.291  0.487E-01  0.538E-05  0.243E-01  0.243E-01
 -14.281  0.412E-01  0.461E-05  0.206E-01  0.206E-01
 -14.271  0.336E-01  0.390E-05  0.168E-01  0.168E-01
 -14.261  0.264E-01  0.327E-05  0.132E-01  0.132E-01
 -14.251  0.203E-01  0.277E-05  0.102E-01  0.102E-01
 -14.241  0.159E-01  0.245E-05  0.794E-02  0.794E-02
 -14.231  0.135E-01  0.236E-05  0.677E-02  0.677E-02
 -14.221  0.136E-01  0.254E-05  0.681E-02  0.681E-02
 -14.211  0.161E-01  0.300E-05  0.805E-02  0.805E-02
 -14.201  0.208E-01  0.370E-05  0.104E-01  0.104E-01
 -14.191  0.271E-01  0.459E-05  0.135E-01  0.135E-01
 -14.181  0.344E-01  0.559E-05  0.172E-01  0.172E-01
 -14.171  0.421E-01  0.658E-05  0.210E-01  0.210E-01
 -14.161  0.493E-01  0.747E-05  0.246E-01  0.246E-01
 -14.151  0.554E-01  0.814E-05  0.277E-01  0.277E-01
 -14.141  0.600E-01  0.855E-05  0.300E-01  0.300E-01
 -14.131  0.629E-01  0.867E-05  0.314E-01  0.314E-01
 -14.121  0.640E-01  0.850E-05  0.320E-01  0.320E-01
 -14.111  0.637E-01  0.810E-05  0.319E-01  0.319E-01
 -14.101  0.623E-01  0.754E-05  0.311E-01  0.311E-01
 -14.091  0.600E-01  0.689E-05  0.300E-01  0.300E-01
 -14.081  0.571E-01  0.622E-05  0.285E-01  0.285E-01
 -14.071  0.535E-01  0.556E-05  0.268E-01  0.268E-01
 -14.061  0.493E-01  0.492E-05  0.246E-01  0.246E-01
 -14.051  0.443E-01  0.431E-05  0.222E-01  0.222E-01
 -14.041  0.386E-01  0.371E-05  0.193E-01  0.193E-01
 -14.031  0.324E-01  0.314E-05  0.162E-01  0.162E-01
 -14.021  0.260E-01  0.261E-05  0.130E-01  0.130E-01
 -14.011  0.202E-01  0.215E-05  0.101E-01  0.101E-01
 -14.001  0.154E-01  0.182E-05  0.771E-02  0.771E-02
 -13.991  0.122E-01  0.165E-05  0.609E-02  0.609E-02
 -13.981  0.107E-01  0.166E-05  0.536E-02  0.536E-02
 -13.971  0.111E-01  0.184E-05  0.553E-02  0.553E-02
 -13.961  0.130E-01  0.216E-05  0.648E-02  0.648E-02
 -13.951  0.161E-01  0.258E-05  0.803E-02  0.803E-02
 -13.941  0.200E-01  0.307E-05  0.100E-01  0.100E-01
 -13.931  0.244E-01  0.358E-05  0.122E-01  0.122E-01
 -13.921  0.289E-01  0.407E-05  0.145E-01  0.145E-01
 -13.911  0.334E-01  0.452E-05  0.167E-01  0.167E-01
 -13.901  0.377E-01  0.490E-05  0.188E-01  0.188E-01
 -13.891  0.416E-01  0.518E-05  0.208E-01  0.208E-01
 -13.881  0.450E-01  0.536E-05  0.225E-01  0.225E-01
 -13.871  0.480E-01  0.540E-05  0.240E-01  0.240E-01
 -13.861  0.506E-01  0.532E-05  0.253E-01  0.253E-01
 -13.851  0.529E-01  0.513E-05  0.265E-01  0.265E-01
 -13.841  0.552E-01  0.485E-05  0.276E-01  0.276E-01
 -13.831  0.576E-01  0.452E-05  0.288E-01  0.288E-01
 -13.821  0.603E-01  0.417E-05  0.302E-01  0.302E-01
 -13.811  0.633E-01  0.383E-05  0.317E-01  0.317E-01
 -13.801  0.665E-01  0.350E-05  0.333E-01  0.333E-01
 -13.791  0.698E-01  0.319E-05  0.349E-01  0.349E-01
 -13.781  0.729E-01  0.290E-05  0.364E-01  0.364E-01
 -13.771  0.758E-01  0.263E-05  0.379E-01  0.379E-01
 -13.761  0.785E-01  0.239E-05  0.393E-01  0.393E-01
 -13.751  0.814E-01  0.221E-05  0.407E-01  0.407E-01
 -13.741  0.846E-01  0.211E-05  0.423E-01  0.423E-01
 -13.731  0.884E-01  0.210E-05  0.442E-01  0.442E-01
 -13.721  0.928E-01  0.221E-05  0.464E-01  0.464E-01
 -13.711  0.977E-01  0.241E-05  0.489E-01  0.489E-01
 -13.701  0.103E+00  0.268E-05  0.514E-01  0.514E-01
 -13.691  0.108E+00  0.301E-05  0.539E-01  0.539E-01
 -13.681  0.112E+00  0.334E-05  0.560E-01  0.560E-01
 -13.671  0.115E+00  0.366E-05  0.577E-01  0.577E-01
 -13.661  0.118E+00  0.393E-05  0.588E-01  0.588E-01
 -13.651  0.119E+00  0.416E-05  0.595E-01  0.595E-01
 -13.641  0.120E+00  0.432E-05  0.598E-01  0.598E-01
 -13.631  0.120E+00  0.444E-05  0.600E-01  0.600E-01
 -13.621  0.120E+00  0.450E-05  0.602E-01  0.602E-01
 -13.611  0.121E+00  0.450E-05  0.605E-01  0.605E-01
 -13.601  0.122E+00  0.446E-05  0.609E-01  0.609E-01
 -13.591  0.122E+00  0.437E-05  0.611E-01  0.611E-01
 -13.581  0.123E+00  0.426E-05  0.613E-01  0.613E-01
 -13.571  0.122E+00  0.412E-05  0.611E-01  0.611E-01
 -13.561  0.121E+00  0.396E-05  0.605E-01  0.605E-01
 -13.551  0.119E+00  0.380E-05  0.597E-01  0.597E-01
 -13.541  0.117E+00  0.364E-05  0.585E-01  0.585E-01
 -13.531  0.114E+00  0.349E-05  0.572E-01  0.572E-01
 -13.521  0.112E+00  0.334E-05  0.559E-01  0.559E-01
 -13.511  0.110E+00  0.321E-05  0.547E-01  0.547E-01
 -13.501  0.108E+00  0.310E-05  0.539E-01  0.539E-01
 -13.491  0.107E+00  0.302E-05  0.535E-01  0.535E-01
 -13.481  0.107E+00  0.300E-05  0.534E-01  0.534E-01
 -13.471  0.107E+00  0.303E-05  0.536E-01  0.536E-01
 -13.461  0.108E+00  0.312E-05  0.541E-01  0.541E-01
 -13.451  0.110E+00  0.327E-05  0.548E-01  0.548E-01
 -13.441  0.111E+00  0.346E-05  0.555E-01  0.555E-01
 -13.431  0.113E+00  0.368E-05  0.563E-01  0.563E-01
 -13.421  0.114E+00  0.390E-05  0.572E-01  0.572E-01
 -13.411  0.116E+00  0.409E-05  0.580E-01  0.580E-01
 -13.401  0.118E+00  0.424E-05  0.589E-01  0.589E-01
 -13.391  0.119E+00  0.433E-05  0.596E-01  0.596E-01
 -13.381  0.120E+00  0.436E-05  0.602E-01  0.602E-01
 -13.371  0.121E+00  0.433E-05  0.604E-01  0.604E-01
 -13.361  0.121E+00  0.425E-05  0.603E-01  0.603E-01
 -13.351  0.120E+00  0.414E-05  0.599E-01  0.599E-01
 -13.341  0.119E+00  0.403E-05  0.593E-01  0.593E-01
 -13.331  0.117E+00  0.391E-05  0.586E-01  0.586E-01
 -13.321  0.116E+00  0.382E-05  0.579E-01  0.579E-01
 -13.311  0.115E+00  0.375E-05  0.574E-01  0.574E-01
 -13.301  0.114E+00  0.371E-05  0.570E-01  0.570E-01
 -13.291  0.114E+00  0.368E-05  0.569E-01  0.569E-01
 -13.281  0.114E+00  0.367E-05  0.570E-01  0.570E-01
 -13.271  0.114E+00  0.367E-05  0.571E-01  0.571E-01
 -13.261  0.115E+00  0.369E-05  0.573E-01  0.573E-01
 -13.251  0.115E+00  0.371E-05  0.576E-01  0.576E-01
 -13.241  0.116E+00  0.375E-05  0.578E-01  0.578E-01
 -13.231  0.116E+00  0.381E-05  0.580E-01  0.580E-01
 -13.221  0.116E+00  0.389E-05  0.582E-01  0.582E-01
 -13.211  0.117E+00  0.399E-05  0.585E-01  0.585E-01
 -13.201  0.118E+00  0.411E-05  0.589E-01  0.589E-01
 -13.191  0.119E+00  0.424E-05  0.593E-01  0.593E-01
 -13.181  0.120E+00  0.437E-05  0.598E-01  0.598E-01
 -13.171  0.120E+00  0.448E-05  0.602E-01  0.602E-01
 -13.161  0.121E+00  0.456E-05  0.606E-01  0.606E-01
 -13.151  0.122E+00  0.461E-05  0.608E-01  0.608E-01
 -13.141  0.122E+00  0.462E-05  0.609E-01  0.609E-01
 -13.131  0.122E+00  0.461E-05  0.610E-01  0.610E-01
 -13.121  0.123E+00  0.460E-05  0.613E-01  0.613E-01
 -13.111  0.124E+00  0.461E-05  0.618E-01  0.618E-01
 -13.101  0.125E+00  0.465E-05  0.625E-01  0.625E-01
 -13.091  0.127E+00  0.475E-05  0.636E-01  0.636E-01
 -13.081  0.130E+00  0.491E-05  0.649E-01  0.649E-01
 -13.071  0.133E+00  0.513E-05  0.663E-01  0.663E-01
 -13.061  0.135E+00  0.541E-05  0.677E-01  0.677E-01
 -13.051  0.138E+00  0.572E-05  0.691E-01  0.691E-01
 -13.041  0.141E+00  0.605E-05  0.705E-01  0.705E-01
 -13.031  0.144E+00  0.639E-05  0.719E-01  0.719E-01
 -13.021  0.147E+00  0.673E-05  0.733E-01  0.733E-01
 -13.011  0.150E+00  0.704E-05  0.749E-01  0.749E-01
 -13.001  0.153E+00  0.730E-05  0.765E-01  0.765E-01
 -12.991  0.156E+00  0.750E-05  0.781E-01  0.781E-01
 -12.981  0.159E+00  0.764E-05  0.796E-01  0.796E-01
 -12.971  0.162E+00  0.772E-05  0.809E-01  0.809E-01
 -12.961  0.164E+00  0.774E-05  0.819E-01  0.819E-01
 -12.951  0.165E+00  0.773E-05  0.825E-01  0.825E-01
 -12.941  0.166E+00  0.769E-05  0.828E-01  0.828E-01
 -12.931  0.166E+00  0.766E-05  0.828E-01  0.828E-01
 -12.921  0.165E+00  0.764E-05  0.826E-01  0.826E-01
 -12.911  0.165E+00  0.766E-05  0.823E-01  0.823E-01
 -12.901  0.164E+00  0.771E-05  0.819E-01  0.819E-01
 -12.891  0.163E+00  0.780E-05  0.816E-01  0.816E-01
 -12.881  0.163E+00  0.790E-05  0.813E-01  0.813E-01
 -12.871  0.162E+00  0.801E-05  0.810E-01  0.810E-01
 -12.861  0.161E+00  0.809E-05  0.806E-01  0.806E-01
 -12.851  0.160E+00  0.813E-05  0.801E-01  0.801E-01
 -12.841  0.159E+00  0.811E-05  0.794E-01  0.794E-01
 -12.831  0.157E+00  0.802E-05  0.784E-01  0.784E-01
 -12.821  0.154E+00  0.786E-05  0.770E-01  0.770E-01
 -12.811  0.151E+00  0.764E-05  0.753E-01  0.753E-01
 -12.801  0.147E+00  0.738E-05  0.734E-01  0.734E-01
 -12.791  0.143E+00  0.709E-05  0.713E-01  0.713E-01
 -12.781  0.138E+00  0.682E-05  0.691E-01  0.691E-01
 -12.771  0.134E+00  0.657E-05  0.669E-01  0.669E-01
 -12.761  0.130E+00  0.637E-05  0.651E-01  0.651E-01
 -12.751  0.127E+00  0.625E-05  0.636E-01  0.636E-01
 -12.741  0.125E+00  0.621E-05  0.626E-01  0.626E-01
 -12.731  0.124E+00  0.624E-05  0.621E-01  0.621E-01
 -12.721  0.124E+00  0.635E-05  0.622E-01  0.622E-01
 -12.711  0.125E+00  0.651E-05  0.627E-01  0.627E-01
 -12.701  0.127E+00  0.671E-05  0.637E-01  0.637E-01
 -12.691  0.130E+00  0.693E-05  0.649E-01  0.649E-01
 -12.681  0.132E+00  0.714E-05  0.662E-01  0.662E-01
 -12.671  0.135E+00  0.733E-05  0.675E-01  0.675E-01
 -12.661  0.137E+00  0.746E-05  0.686E-01  0.686E-01
 -12.651  0.139E+00  0.753E-05  0.693E-01  0.693E-01
 -12.641  0.139E+00  0.751E-05  0.694E-01  0.694E-01
 -12.631  0.138E+00  0.741E-05  0.689E-01  0.689E-01
 -12.621  0.135E+00  0.723E-05  0.677E-01  0.677E-01
 -12.611  0.132E+00  0.699E-05  0.661E-01  0.661E-01
 -12.601  0.128E+00  0.672E-05  0.641E-01  0.641E-01
 -12.591  0.124E+00  0.645E-05  0.619E-01  0.619E-01
 -12.581  0.120E+00  0.620E-05  0.598E-01  0.598E-01
 -12.571  0.116E+00  0.600E-05  0.580E-01  0.580E-01
 -12.561  0.113E+00  0.587E-05  0.565E-01  0.565E-01
 -12.551  0.111E+00  0.581E-05  0.556E-01  0.556E-01
 -12.541  0.111E+00  0.585E-05  0.553E-01  0.553E-01
 -12.531  0.111E+00  0.598E-05  0.557E-01  0.557E-01
 -12.521  0.113E+00  0.618E-05  0.567E-01  0.567E-01
 -12.511  0.116E+00  0.644E-05  0.582E-01  0.582E-01
 -12.501  0.120E+00  0.673E-05  0.601E-01  0.601E-01
 -12.491  0.124E+00  0.701E-05  0.621E-01  0.621E-01
 -12.481  0.128E+00  0.725E-05  0.639E-01  0.639E-01
 -12.471  0.131E+00  0.742E-05  0.653E-01  0.653E-01
 -12.461  0.132E+00  0.749E-05  0.660E-01  0.660E-01
 -12.451  0.132E+00  0.747E-05  0.660E-01  0.660E-01
 -12.441  0.131E+00  0.735E-05  0.654E-01  0.654E-01
 -12.431  0.128E+00  0.715E-05  0.641E-01  0.641E-01
 -12.421  0.125E+00  0.690E-05  0.625E-01  0.625E-01
 -12.411  0.121E+00  0.663E-05  0.605E-01  0.605E-01
 -12.401  0.117E+00  0.635E-05  0.585E-01  0.585E-01
 -12.391  0.113E+00  0.610E-05  0.565E-01  0.565E-01
 -12.381  0.110E+00  0.590E-05  0.548E-01  0.548E-01
 -12.371  0.107E+00  0.576E-05  0.534E-01  0.534E-01
 -12.361  0.105E+00  0.570E-05  0.525E-01  0.525E-01
 -12.351  0.104E+00  0.571E-05  0.520E-01  0.520E-01
 -12.341  0.104E+00  0.578E-05  0.520E-01  0.520E-01
 -12.331  0.105E+00  0.590E-05  0.525E-01  0.525E-01
 -12.321  0.107E+00  0.608E-05  0.536E-01  0.536E-01
 -12.311  0.110E+00  0.629E-05  0.550E-01  0.550E-01
 -12.301  0.114E+00  0.654E-05  0.568E-01  0.568E-01
 -12.291  0.117E+00  0.680E-05  0.587E-01  0.587E-01
 -12.281  0.121E+00  0.706E-05  0.606E-01  0.606E-01
 -12.271  0.125E+00  0.728E-05  0.623E-01  0.623E-01
 -12.261  0.127E+00  0.745E-05  0.634E-01  0.634E-01
 -12.251  0.128E+00  0.752E-05  0.639E-01  0.639E-01
 -12.241  0.127E+00  0.748E-05  0.636E-01  0.636E-01
 -12.231  0.125E+00  0.732E-05  0.625E-01  0.625E-01
 -12.221  0.121E+00  0.706E-05  0.607E-01  0.607E-01
 -12.211  0.117E+00  0.672E-05  0.585E-01  0.585E-01
 -12.201  0.112E+00  0.633E-05  0.560E-01  0.560E-01
 -12.191  0.107E+00  0.595E-05  0.534E-01  0.534E-01
 -12.181  0.102E+00  0.561E-05  0.512E-01  0.512E-01
 -12.171  0.987E-01  0.537E-05  0.493E-01  0.493E-01
 -12.161  0.962E-01  0.524E-05  0.481E-01  0.481E-01
 -12.151  0.952E-01  0.525E-05  0.476E-01  0.476E-01
 -12.141  0.958E-01  0.539E-05  0.479E-01  0.479E-01
 -12.131  0.978E-01  0.564E-05  0.489E-01  0.489E-01
 -12.121  0.101E+00  0.597E-05  0.506E-01  0.506E-01
 -12.111  0.105E+00  0.634E-05  0.526E-01  0.526E-01
 -12.101  0.110E+00  0.671E-05  0.549E-01  0.549E-01
 -12.091  0.114E+00  0.702E-05  0.572E-01  0.572E-01
 -12.081  0.118E+00  0.726E-05  0.592E-01  0.592E-01
 -12.071  0.121E+00  0.741E-05  0.607E-01  0.607E-01
 -12.061  0.123E+00  0.747E-05  0.616E-01  0.616E-01
 -12.051  0.124E+00  0.743E-05  0.619E-01  0.619E-01
 -12.041  0.123E+00  0.731E-05  0.615E-01  0.615E-01
 -12.031  0.121E+00  0.712E-05  0.603E-01  0.603E-01
 -12.021  0.117E+00  0.687E-05  0.585E-01  0.585E-01
 -12.011  0.112E+00  0.657E-05  0.562E-01  0.562E-01
 -12.001  0.107E+00  0.626E-05  0.536E-01  0.536E-01
 -11.991  0.102E+00  0.595E-05  0.511E-01  0.511E-01
 -11.981  0.978E-01  0.567E-05  0.489E-01  0.489E-01
 -11.971  0.944E-01  0.547E-05  0.472E-01  0.472E-01
 -11.961  0.925E-01  0.535E-05  0.463E-01  0.463E-01
 -11.951  0.920E-01  0.533E-05  0.460E-01  0.460E-01
 -11.941  0.929E-01  0.540E-05  0.464E-01  0.464E-01
 -11.931  0.947E-01  0.555E-05  0.474E-01  0.474E-01
 -11.921  0.974E-01  0.577E-05  0.487E-01  0.487E-01
 -11.911  0.100E+00  0.603E-05  0.502E-01  0.502E-01
 -11.901  0.104E+00  0.631E-05  0.518E-01  0.518E-01
 -11.891  0.107E+00  0.660E-05  0.535E-01  0.535E-01
 -11.881  0.110E+00  0.688E-05  0.550E-01  0.550E-01
 -11.871  0.113E+00  0.712E-05  0.564E-01  0.564E-01
 -11.861  0.115E+00  0.730E-05  0.575E-01  0.575E-01
 -11.851  0.116E+00  0.740E-05  0.582E-01  0.582E-01
 -11.841  0.117E+00  0.742E-05  0.585E-01  0.585E-01
 -11.831  0.117E+00  0.734E-05  0.583E-01  0.583E-01
 -11.821  0.115E+00  0.717E-05  0.577E-01  0.577E-01
 -11.811  0.113E+00  0.693E-05  0.565E-01  0.565E-01
 -11.801  0.110E+00  0.662E-05  0.549E-01  0.549E-01
 -11.791  0.106E+00  0.627E-05  0.530E-01  0.530E-01
 -11.781  0.102E+00  0.591E-05  0.508E-01  0.508E-01
 -11.771  0.972E-01  0.558E-05  0.486E-01  0.486E-01
 -11.761  0.930E-01  0.531E-05  0.465E-01  0.465E-01
 -11.751  0.896E-01  0.513E-05  0.448E-01  0.448E-01
 -11.741  0.873E-01  0.507E-05  0.437E-01  0.437E-01
 -11.731  0.865E-01  0.512E-05  0.432E-01  0.432E-01
 -11.721  0.871E-01  0.529E-05  0.436E-01  0.436E-01
 -11.711  0.893E-01  0.557E-05  0.446E-01  0.446E-01
 -11.701  0.926E-01  0.592E-05  0.463E-01  0.463E-01
 -11.691  0.969E-01  0.630E-05  0.485E-01  0.485E-01
 -11.681  0.102E+00  0.669E-05  0.509E-01  0.509E-01
 -11.671  0.107E+00  0.705E-05  0.533E-01  0.533E-01
 -11.661  0.111E+00  0.735E-05  0.555E-01  0.555E-01
 -11.651  0.114E+00  0.755E-05  0.572E-01  0.572E-01
 -11.641  0.117E+00  0.764E-05  0.584E-01  0.584E-01
 -11.631  0.117E+00  0.760E-05  0.587E-01  0.587E-01
 -11.621  0.117E+00  0.743E-05  0.583E-01  0.583E-01
 -11.611  0.114E+00  0.715E-05  0.570E-01  0.570E-01
 -11.601  0.110E+00  0.678E-05  0.550E-01  0.550E-01
 -11.591  0.105E+00  0.635E-05  0.525E-01  0.525E-01
 -11.581  0.994E-01  0.592E-05  0.497E-01  0.497E-01
 -11.571  0.939E-01  0.552E-05  0.470E-01  0.470E-01
 -11.561  0.891E-01  0.521E-05  0.446E-01  0.446E-01
 -11.551  0.854E-01  0.501E-05  0.427E-01  0.427E-01
 -11.541  0.833E-01  0.495E-05  0.416E-01  0.416E-01
 -11.531  0.828E-01  0.502E-05  0.414E-01  0.414E-01
 -11.521  0.841E-01  0.521E-05  0.420E-01  0.420E-01
 -11.511  0.869E-01  0.551E-05  0.434E-01  0.434E-01
 -11.501  0.908E-01  0.587E-05  0.454E-01  0.454E-01
 -11.491  0.954E-01  0.627E-05  0.477E-01  0.477E-01
 -11.481  0.100E+00  0.666E-05  0.500E-01  0.500E-01
 -11.471  0.104E+00  0.699E-05  0.520E-01  0.520E-01
 -11.461  0.107E+00  0.724E-05  0.535E-01  0.535E-01
 -11.451  0.109E+00  0.739E-05  0.545E-01  0.545E-01
 -11.441  0.109E+00  0.743E-05  0.547E-01  0.547E-01
 -11.431  0.109E+00  0.737E-05  0.543E-01  0.543E-01
 -11.421  0.107E+00  0.723E-05  0.535E-01  0.535E-01
 -11.411  0.104E+00  0.700E-05  0.522E-01  0.522E-01
 -11.401  0.102E+00  0.673E-05  0.507E-01  0.507E-01
 -11.391  0.984E-01  0.643E-05  0.492E-01  0.492E-01
 -11.381  0.954E-01  0.612E-05  0.477E-01  0.477E-01
 -11.371  0.928E-01  0.582E-05  0.464E-01  0.464E-01
 -11.361  0.908E-01  0.557E-05  0.454E-01  0.454E-01
 -11.351  0.896E-01  0.539E-05  0.448E-01  0.448E-01
 -11.341  0.893E-01  0.530E-05  0.447E-01  0.447E-01
 -11.331  0.898E-01  0.529E-05  0.449E-01  0.449E-01
 -11.321  0.909E-01  0.538E-05  0.454E-01  0.454E-01
 -11.311  0.922E-01  0.554E-05  0.461E-01  0.461E-01
 -11.301  0.936E-01  0.575E-05  0.468E-01  0.468E-01
 -11.291  0.946E-01  0.600E-05  0.473E-01  0.473E-01
 -11.281  0.954E-01  0.626E-05  0.477E-01  0.477E-01
 -11.271  0.957E-01  0.651E-05  0.479E-01  0.479E-01
 -11.261  0.959E-01  0.674E-05  0.480E-01  0.480E-01
 -11.251  0.960E-01  0.693E-05  0.480E-01  0.480E-01
 -11.241  0.961E-01  0.709E-05  0.481E-01  0.481E-01
 -11.231  0.963E-01  0.718E-05  0.481E-01  0.481E-01
 -11.221  0.966E-01  0.720E-05  0.483E-01  0.483E-01
 -11.211  0.969E-01  0.715E-05  0.485E-01  0.485E-01
 -11.201  0.974E-01  0.703E-05  0.487E-01  0.487E-01
 -11.191  0.978E-01  0.684E-05  0.489E-01  0.489E-01
 -11.181  0.983E-01  0.659E-05  0.492E-01  0.492E-01
 -11.171  0.989E-01  0.632E-05  0.495E-01  0.495E-01
 -11.161  0.996E-01  0.603E-05  0.498E-01  0.498E-01
 -11.151  0.100E+00  0.575E-05  0.502E-01  0.502E-01
 -11.141  0.101E+00  0.551E-05  0.507E-01  0.507E-01
 -11.131  0.103E+00  0.533E-05  0.514E-01  0.514E-01
 -11.121  0.105E+00  0.522E-05  0.524E-01  0.524E-01
 -11.111  0.107E+00  0.522E-05  0.537E-01  0.537E-01
 -11.101  0.111E+00  0.532E-05  0.554E-01  0.554E-01
 -11.091  0.115E+00  0.552E-05  0.574E-01  0.574E-01
 -11.081  0.119E+00  0.580E-05  0.596E-01  0.596E-01
 -11.071  0.124E+00  0.614E-05  0.620E-01  0.620E-01
 -11.061  0.129E+00  0.651E-05  0.643E-01  0.643E-01
 -11.051  0.133E+00  0.688E-05  0.666E-01  0.666E-01
 -11.041  0.138E+00  0.722E-05  0.688E-01  0.688E-01
 -11.031  0.141E+00  0.750E-05  0.707E-01  0.707E-01
 -11.021  0.145E+00  0.770E-05  0.724E-01  0.724E-01
 -11.011  0.147E+00  0.778E-05  0.737E-01  0.737E-01
 -11.001  0.149E+00  0.774E-05  0.745E-01  0.745E-01
 -10.991  0.150E+00  0.756E-05  0.748E-01  0.748E-01
 -10.981  0.149E+00  0.725E-05  0.744E-01  0.744E-01
 -10.971  0.147E+00  0.684E-05  0.735E-01  0.735E-01
 -10.961  0.144E+00  0.637E-05  0.721E-01  0.721E-01
 -10.951  0.141E+00  0.590E-05  0.704E-01  0.704E-01
 -10.941  0.137E+00  0.546E-05  0.685E-01  0.685E-01
 -10.931  0.133E+00  0.512E-05  0.667E-01  0.667E-01
 -10.921  0.130E+00  0.492E-05  0.651E-01  0.651E-01
 -10.911  0.128E+00  0.486E-05  0.639E-01  0.639E-01
 -10.901  0.127E+00  0.497E-05  0.633E-01  0.633E-01
 -10.891  0.127E+00  0.523E-05  0.635E-01  0.635E-01
 -10.881  0.129E+00  0.562E-05  0.644E-01  0.644E-01
 -10.871  0.132E+00  0.612E-05  0.660E-01  0.660E-01
 -10.861  0.137E+00  0.667E-05  0.683E-01  0.683E-01
 -10.851  0.142E+00  0.723E-05  0.709E-01  0.709E-01
 -10.841  0.147E+00  0.775E-05  0.737E-01  0.737E-01
 -10.831  0.153E+00  0.819E-05  0.763E-01  0.763E-01
 -10.821  0.157E+00  0.849E-05  0.785E-01  0.785E-01
 -10.811  0.160E+00  0.863E-05  0.799E-01  0.799E-01
 -10.801  0.161E+00  0.859E-05  0.805E-01  0.805E-01
 -10.791  0.160E+00  0.837E-05  0.801E-01  0.801E-01
 -10.781  0.158E+00  0.800E-05  0.788E-01  0.788E-01
 -10.771  0.154E+00  0.750E-05  0.768E-01  0.768E-01
 -10.761  0.148E+00  0.692E-05  0.742E-01  0.742E-01
 -10.751  0.143E+00  0.632E-05  0.713E-01  0.713E-01
 -10.741  0.137E+00  0.575E-05  0.684E-01  0.684E-01
 -10.731  0.131E+00  0.528E-05  0.657E-01  0.657E-01
 -10.721  0.127E+00  0.493E-05  0.635E-01  0.635E-01
 -10.711  0.124E+00  0.476E-05  0.620E-01  0.620E-01
 -10.701  0.123E+00  0.477E-05  0.614E-01  0.614E-01
 -10.691  0.123E+00  0.498E-05  0.617E-01  0.617E-01
 -10.681  0.126E+00  0.535E-05  0.628E-01  0.628E-01
 -10.671  0.129E+00  0.585E-05  0.646E-01  0.646E-01
 -10.661  0.134E+00  0.644E-05  0.669E-01  0.669E-01
 -10.651  0.139E+00  0.706E-05  0.694E-01  0.694E-01
 -10.641  0.144E+00  0.766E-05  0.719E-01  0.719E-01
 -10.631  0.148E+00  0.819E-05  0.740E-01  0.740E-01
 -10.621  0.152E+00  0.861E-05  0.758E-01  0.758E-01
 -10.611  0.154E+00  0.889E-05  0.772E-01  0.772E-01
 -10.601  0.156E+00  0.901E-05  0.780E-01  0.780E-01
 -10.591  0.157E+00  0.896E-05  0.785E-01  0.785E-01
 -10.581  0.157E+00  0.875E-05  0.787E-01  0.787E-01
 -10.571  0.157E+00  0.841E-05  0.786E-01  0.786E-01
 -10.561  0.157E+00  0.795E-05  0.783E-01  0.783E-01
 -10.551  0.156E+00  0.743E-05  0.779E-01  0.779E-01
 -10.541  0.155E+00  0.689E-05  0.773E-01  0.773E-01
 -10.531  0.153E+00  0.638E-05  0.766E-01  0.766E-01
 -10.521  0.151E+00  0.594E-05  0.756E-01  0.756E-01
 -10.511  0.149E+00  0.561E-05  0.745E-01  0.745E-01
 -10.501  0.146E+00  0.540E-05  0.732E-01  0.732E-01
 -10.491  0.144E+00  0.534E-05  0.718E-01  0.718E-01
 -10.481  0.141E+00  0.542E-05  0.704E-01  0.704E-01
 -10.471  0.139E+00  0.563E-05  0.693E-01  0.693E-01
 -10.461  0.137E+00  0.595E-05  0.684E-01  0.684E-01
 -10.451  0.136E+00  0.636E-05  0.678E-01  0.678E-01
 -10.441  0.135E+00  0.683E-05  0.677E-01  0.677E-01
 -10.431  0.136E+00  0.732E-05  0.680E-01  0.680E-01
 -10.421  0.137E+00  0.780E-05  0.686E-01  0.686E-01
 -10.411  0.138E+00  0.824E-05  0.692E-01  0.692E-01
 -10.401  0.140E+00  0.860E-05  0.700E-01  0.700E-01
 -10.391  0.141E+00  0.886E-05  0.706E-01  0.706E-01
 -10.381  0.142E+00  0.899E-05  0.711E-01  0.711E-01
 -10.371  0.143E+00  0.900E-05  0.716E-01  0.716E-01
 -10.361  0.144E+00  0.887E-05  0.720E-01  0.720E-01
 -10.351  0.145E+00  0.863E-05  0.727E-01  0.727E-01
 -10.341  0.147E+00  0.829E-05  0.736E-01  0.736E-01
 -10.331  0.150E+00  0.789E-05  0.748E-01  0.748E-01
 -10.321  0.153E+00  0.746E-05  0.763E-01  0.763E-01
 -10.311  0.156E+00  0.705E-05  0.781E-01  0.781E-01
 -10.301  0.159E+00  0.668E-05  0.797E-01  0.797E-01
 -10.291  0.162E+00  0.637E-05  0.811E-01  0.811E-01
 -10.281  0.164E+00  0.614E-05  0.819E-01  0.819E-01
 -10.271  0.164E+00  0.601E-05  0.820E-01  0.820E-01
 -10.261  0.163E+00  0.597E-05  0.813E-01  0.813E-01
 -10.251  0.160E+00  0.603E-05  0.800E-01  0.800E-01
 -10.241  0.156E+00  0.620E-05  0.781E-01  0.781E-01
 -10.231  0.152E+00  0.648E-05  0.760E-01  0.760E-01
 -10.221  0.148E+00  0.684E-05  0.741E-01  0.741E-01
 -10.211  0.145E+00  0.729E-05  0.725E-01  0.725E-01
 -10.201  0.143E+00  0.780E-05  0.717E-01  0.717E-01
 -10.191  0.143E+00  0.833E-05  0.716E-01  0.716E-01
 -10.181  0.145E+00  0.884E-05  0.723E-01  0.723E-01
 -10.171  0.147E+00  0.928E-05  0.736E-01  0.736E-01
 -10.161  0.151E+00  0.962E-05  0.753E-01  0.753E-01
 -10.151  0.154E+00  0.980E-05  0.769E-01  0.769E-01
 -10.141  0.156E+00  0.981E-05  0.781E-01  0.781E-01
 -10.131  0.157E+00  0.963E-05  0.786E-01  0.786E-01
 -10.121  0.157E+00  0.927E-05  0.783E-01  0.783E-01
 -10.111  0.154E+00  0.875E-05  0.769E-01  0.769E-01
 -10.101  0.150E+00  0.812E-05  0.748E-01  0.748E-01
 -10.091  0.144E+00  0.744E-05  0.722E-01  0.722E-01
 -10.081  0.139E+00  0.677E-05  0.694E-01  0.694E-01
 -10.071  0.134E+00  0.617E-05  0.668E-01  0.668E-01
 -10.061  0.130E+00  0.570E-05  0.648E-01  0.648E-01
 -10.051  0.128E+00  0.539E-05  0.639E-01  0.639E-01
 -10.041  0.128E+00  0.528E-05  0.640E-01  0.640E-01
 -10.031  0.131E+00  0.538E-05  0.654E-01  0.654E-01
 -10.021  0.136E+00  0.569E-05  0.679E-01  0.679E-01
 -10.011  0.143E+00  0.620E-05  0.714E-01  0.714E-01
 -10.001  0.151E+00  0.687E-05  0.755E-01  0.755E-01
  -9.991  0.160E+00  0.765E-05  0.800E-01  0.800E-01
  -9.981  0.169E+00  0.850E-05  0.844E-01  0.844E-01
  -9.971  0.177E+00  0.935E-05  0.887E-01  0.887E-01
  -9.961  0.185E+00  0.101E-04  0.924E-01  0.924E-01
  -9.951  0.191E+00  0.108E-04  0.954E-01  0.954E-01
  -9.941  0.195E+00  0.112E-04  0.974E-01  0.974E-01
  -9.931  0.197E+00  0.114E-04  0.984E-01  0.984E-01
  -9.921  0.196E+00  0.114E-04  0.981E-01  0.981E-01
  -9.911  0.193E+00  0.111E-04  0.964E-01  0.964E-01
  -9.901  0.187E+00  0.105E-04  0.935E-01  0.935E-01
  -9.891  0.178E+00  0.970E-05  0.892E-01  0.892E-01
  -9.881  0.168E+00  0.876E-05  0.839E-01  0.839E-01
  -9.871  0.155E+00  0.776E-05  0.777E-01  0.777E-01
  -9.861  0.142E+00  0.676E-05  0.712E-01  0.712E-01
  -9.851  0.129E+00  0.586E-05  0.646E-01  0.646E-01
  -9.841  0.117E+00  0.512E-05  0.585E-01  0.585E-01
  -9.831  0.107E+00  0.462E-05  0.533E-01  0.533E-01
  -9.821  0.992E-01  0.438E-05  0.496E-01  0.496E-01
  -9.811  0.954E-01  0.446E-05  0.477E-01  0.477E-01
  -9.801  0.959E-01  0.486E-05  0.479E-01  0.479E-01
  -9.791  0.101E+00  0.557E-05  0.505E-01  0.505E-01
  -9.781  0.111E+00  0.655E-05  0.553E-01  0.553E-01
  -9.771  0.124E+00  0.773E-05  0.622E-01  0.622E-01
  -9.761  0.141E+00  0.901E-05  0.707E-01  0.707E-01
  -9.751  0.160E+00  0.103E-04  0.801E-01  0.801E-01
  -9.741  0.179E+00  0.115E-04  0.896E-01  0.896E-01
  -9.731  0.197E+00  0.124E-04  0.985E-01  0.985E-01
  -9.721  0.212E+00  0.130E-04  0.106E+00  0.106E+00
  -9.711  0.222E+00  0.132E-04  0.111E+00  0.111E+00
  -9.701  0.226E+00  0.129E-04  0.113E+00  0.113E+00
  -9.691  0.225E+00  0.123E-04  0.113E+00  0.113E+00
  -9.681  0.218E+00  0.113E-04  0.109E+00  0.109E+00
  -9.671  0.207E+00  0.101E-04  0.103E+00  0.103E+00
  -9.661  0.192E+00  0.876E-05  0.959E-01  0.959E-01
  -9.651  0.175E+00  0.742E-05  0.874E-01  0.874E-01
  -9.641  0.158E+00  0.621E-05  0.789E-01  0.789E-01
  -9.631  0.142E+00  0.524E-05  0.711E-01  0.711E-01
  -9.621  0.130E+00  0.458E-05  0.649E-01  0.649E-01
  -9.611  0.121E+00  0.430E-05  0.605E-01  0.605E-01
  -9.601  0.117E+00  0.440E-05  0.583E-01  0.583E-01
  -9.591  0.117E+00  0.487E-05  0.583E-01  0.583E-01
  -9.581  0.121E+00  0.567E-05  0.604E-01  0.604E-01
  -9.571  0.128E+00  0.675E-05  0.641E-01  0.641E-01
  -9.561  0.138E+00  0.801E-05  0.692E-01  0.692E-01
  -9.551  0.150E+00  0.937E-05  0.749E-01  0.749E-01
  -9.541  0.162E+00  0.107E-04  0.808E-01  0.808E-01
  -9.531  0.172E+00  0.119E-04  0.862E-01  0.862E-01
  -9.521  0.181E+00  0.129E-04  0.907E-01  0.907E-01
  -9.511  0.187E+00  0.135E-04  0.937E-01  0.937E-01
  -9.501  0.190E+00  0.138E-04  0.951E-01  0.951E-01
  -9.491  0.189E+00  0.136E-04  0.947E-01  0.947E-01
  -9.481  0.185E+00  0.130E-04  0.926E-01  0.926E-01
  -9.471  0.178E+00  0.121E-04  0.892E-01  0.892E-01
  -9.461  0.170E+00  0.108E-04  0.847E-01  0.847E-01
  -9.451  0.160E+00  0.943E-05  0.799E-01  0.799E-01
  -9.441  0.150E+00  0.800E-05  0.752E-01  0.752E-01
  -9.431  0.142E+00  0.665E-05  0.710E-01  0.710E-01
  -9.421  0.136E+00  0.550E-05  0.679E-01  0.679E-01
  -9.411  0.132E+00  0.466E-05  0.661E-01  0.661E-01
  -9.401  0.131E+00  0.418E-05  0.657E-01  0.657E-01
  -9.391  0.134E+00  0.411E-05  0.669E-01  0.669E-01
  -9.381  0.139E+00  0.447E-05  0.696E-01  0.696E-01
  -9.371  0.147E+00  0.523E-05  0.737E-01  0.737E-01
  -9.361  0.158E+00  0.636E-05  0.789E-01  0.789E-01
  -9.351  0.170E+00  0.779E-05  0.852E-01  0.852E-01
  -9.341  0.184E+00  0.941E-05  0.920E-01  0.920E-01
  -9.331  0.198E+00  0.111E-04  0.989E-01  0.989E-01
  -9.321  0.211E+00  0.127E-04  0.105E+00  0.105E+00
  -9.311  0.221E+00  0.141E-04  0.111E+00  0.111E+00
  -9.301  0.229E+00  0.152E-04  0.114E+00  0.114E+00
  -9.291  0.232E+00  0.158E-04  0.116E+00  0.116E+00
  -9.281  0.230E+00  0.158E-04  0.115E+00  0.115E+00
  -9.271  0.222E+00  0.153E-04  0.111E+00  0.111E+00
  -9.261  0.209E+00  0.142E-04  0.105E+00  0.105E+00
  -9.251  0.192E+00  0.127E-04  0.960E-01  0.960E-01
  -9.241  0.172E+00  0.109E-04  0.860E-01  0.860E-01
  -9.231  0.151E+00  0.899E-05  0.754E-01  0.754E-01
  -9.221  0.130E+00  0.714E-05  0.651E-01  0.651E-01
  -9.211  0.112E+00  0.554E-05  0.561E-01  0.561E-01
  -9.201  0.980E-01  0.432E-05  0.490E-01  0.490E-01
  -9.191  0.890E-01  0.359E-05  0.445E-01  0.445E-01
  -9.181  0.859E-01  0.338E-05  0.429E-01  0.429E-01
  -9.171  0.890E-01  0.371E-05  0.445E-01  0.445E-01
  -9.161  0.981E-01  0.453E-05  0.491E-01  0.491E-01
  -9.151  0.113E+00  0.577E-05  0.564E-01  0.564E-01
  -9.141  0.132E+00  0.733E-05  0.659E-01  0.659E-01
  -9.131  0.154E+00  0.909E-05  0.770E-01  0.770E-01
  -9.121  0.178E+00  0.109E-04  0.888E-01  0.888E-01
  -9.111  0.201E+00  0.127E-04  0.100E+00  0.100E+00
  -9.101  0.221E+00  0.142E-04  0.111E+00  0.111E+00
  -9.091  0.237E+00  0.153E-04  0.119E+00  0.119E+00
  -9.081  0.248E+00  0.161E-04  0.124E+00  0.124E+00
  -9.071  0.252E+00  0.162E-04  0.126E+00  0.126E+00
  -9.061  0.249E+00  0.159E-04  0.124E+00  0.124E+00
  -9.051  0.241E+00  0.151E-04  0.120E+00  0.120E+00
  -9.041  0.228E+00  0.138E-04  0.114E+00  0.114E+00
  -9.031  0.213E+00  0.123E-04  0.106E+00  0.106E+00
  -9.021  0.197E+00  0.108E-04  0.984E-01  0.984E-01
  -9.011  0.182E+00  0.923E-05  0.910E-01  0.910E-01
  -9.001  0.169E+00  0.789E-05  0.846E-01  0.846E-01
  -8.991  0.159E+00  0.684E-05  0.795E-01  0.795E-01
  -8.981  0.152E+00  0.613E-05  0.758E-01  0.758E-01
  -8.971  0.146E+00  0.577E-05  0.732E-01  0.732E-01
  -8.961  0.143E+00  0.575E-05  0.716E-01  0.716E-01
  -8.951  0.141E+00  0.606E-05  0.706E-01  0.706E-01
  -8.941  0.141E+00  0.666E-05  0.704E-01  0.704E-01
  -8.931  0.141E+00  0.753E-05  0.707E-01  0.707E-01
  -8.921  0.144E+00  0.863E-05  0.719E-01  0.719E-01
  -8.911  0.148E+00  0.991E-05  0.739E-01  0.739E-01
  -8.901  0.153E+00  0.113E-04  0.767E-01  0.767E-01
  -8.891  0.160E+00  0.127E-04  0.802E-01  0.802E-01
  -8.881  0.168E+00  0.140E-04  0.841E-01  0.841E-01
  -8.871  0.176E+00  0.150E-04  0.879E-01  0.879E-01
  -8.861  0.182E+00  0.157E-04  0.912E-01  0.912E-01
  -8.851  0.187E+00  0.158E-04  0.936E-01  0.936E-01
  -8.841  0.190E+00  0.155E-04  0.950E-01  0.950E-01
  -8.831  0.191E+00  0.147E-04  0.954E-01  0.954E-01
  -8.821  0.190E+00  0.134E-04  0.951E-01  0.951E-01
  -8.811  0.189E+00  0.120E-04  0.944E-01  0.944E-01
  -8.801  0.187E+00  0.105E-04  0.935E-01  0.935E-01
  -8.791  0.186E+00  0.924E-05  0.929E-01  0.929E-01
  -8.781  0.185E+00  0.843E-05  0.926E-01  0.926E-01
  -8.771  0.185E+00  0.858E-05  0.927E-01  0.927E-01
  -8.761  0.186E+00  0.105E-04  0.930E-01  0.930E-01
  -8.751  0.187E+00  0.161E-04  0.935E-01  0.935E-01
  -8.741  0.188E+00  0.287E-04  0.941E-01  0.941E-01
  -8.731  0.190E+00  0.552E-04  0.951E-01  0.951E-01
  -8.721  0.193E+00  0.108E-03  0.965E-01  0.965E-01
  -8.711  0.197E+00  0.209E-03  0.986E-01  0.986E-01
  -8.701  0.203E+00  0.394E-03  0.101E+00  0.101E+00
  -8.691  0.210E+00  0.717E-03  0.105E+00  0.105E+00
  -8.681  0.218E+00  0.126E-02  0.108E+00  0.108E+00
  -8.671  0.224E+00  0.212E-02  0.111E+00  0.111E+00
  -8.661  0.229E+00  0.344E-02  0.113E+00  0.113E+00
  -8.651  0.229E+00  0.537E-02  0.112E+00  0.112E+00
  -8.641  0.225E+00  0.804E-02  0.108E+00  0.108E+00
  -8.631  0.216E+00  0.116E-01  0.102E+00  0.102E+00
  -8.621  0.203E+00  0.160E-01  0.934E-01  0.934E-01
  -8.611  0.187E+00  0.214E-01  0.831E-01  0.831E-01
  -8.601  0.172E+00  0.274E-01  0.723E-01  0.723E-01
  -8.591  0.159E+00  0.340E-01  0.625E-01  0.625E-01
  -8.581  0.151E+00  0.406E-01  0.551E-01  0.551E-01
  -8.571  0.149E+00  0.470E-01  0.512E-01  0.512E-01
  -8.561  0.156E+00  0.528E-01  0.514E-01  0.514E-01
  -8.551  0.169E+00  0.576E-01  0.559E-01  0.559E-01
  -8.541  0.190E+00  0.612E-01  0.643E-01  0.643E-01
  -8.531  0.215E+00  0.637E-01  0.756E-01  0.756E-01
  -8.521  0.242E+00  0.651E-01  0.886E-01  0.886E-01
  -8.511  0.269E+00  0.655E-01  0.102E+00  0.102E+00
  -8.501  0.294E+00  0.653E-01  0.114E+00  0.114E+00
  -8.491  0.314E+00  0.648E-01  0.125E+00  0.125E+00
  -8.481  0.328E+00  0.640E-01  0.132E+00  0.132E+00
  -8.471  0.336E+00  0.632E-01  0.137E+00  0.137E+00
  -8.461  0.338E+00  0.625E-01  0.138E+00  0.138E+00
  -8.451  0.334E+00  0.619E-01  0.136E+00  0.136E+00
  -8.441  0.325E+00  0.615E-01  0.132E+00  0.132E+00
  -8.431  0.312E+00  0.612E-01  0.126E+00  0.126E+00
  -8.421  0.297E+00  0.610E-01  0.118E+00  0.118E+00
  -8.411  0.281E+00  0.609E-01  0.110E+00  0.110E+00
  -8.401  0.265E+00  0.609E-01  0.102E+00  0.102E+00
  -8.391  0.249E+00  0.609E-01  0.940E-01  0.940E-01
  -8.381  0.235E+00  0.609E-01  0.869E-01  0.869E-01
  -8.371  0.222E+00  0.609E-01  0.807E-01  0.807E-01
  -8.361  0.212E+00  0.609E-01  0.757E-01  0.757E-01
  -8.351  0.205E+00  0.609E-01  0.721E-01  0.721E-01
  -8.341  0.201E+00  0.608E-01  0.698E-01  0.698E-01
  -8.331  0.199E+00  0.608E-01  0.690E-01  0.690E-01
  -8.321  0.200E+00  0.609E-01  0.696E-01  0.696E-01
  -8.311  0.204E+00  0.610E-01  0.716E-01  0.716E-01
  -8.301  0.211E+00  0.612E-01  0.749E-01  0.749E-01
  -8.291  0.221E+00  0.614E-01  0.797E-01  0.797E-01
  -8.281  0.233E+00  0.614E-01  0.858E-01  0.858E-01
  -8.271  0.247E+00  0.612E-01  0.930E-01  0.930E-01
  -8.261  0.264E+00  0.610E-01  0.101E+00  0.101E+00
  -8.251  0.281E+00  0.607E-01  0.110E+00  0.110E+00
  -8.241  0.299E+00  0.606E-01  0.119E+00  0.119E+00
  -8.231  0.315E+00  0.607E-01  0.127E+00  0.127E+00
  -8.221  0.329E+00  0.611E-01  0.134E+00  0.134E+00
  -8.211  0.338E+00  0.616E-01  0.138E+00  0.138E+00
  -8.201  0.341E+00  0.620E-01  0.140E+00  0.140E+00
  -8.191  0.338E+00  0.622E-01  0.138E+00  0.138E+00
  -8.181  0.328E+00  0.620E-01  0.133E+00  0.133E+00
  -8.171  0.312E+00  0.615E-01  0.125E+00  0.125E+00
  -8.161  0.291E+00  0.608E-01  0.115E+00  0.115E+00
  -8.151  0.269E+00  0.601E-01  0.104E+00  0.104E+00
  -8.141  0.247E+00  0.599E-01  0.938E-01  0.938E-01
  -8.131  0.229E+00  0.602E-01  0.843E-01  0.843E-01
  -8.121  0.215E+00  0.610E-01  0.768E-01  0.768E-01
  -8.111  0.206E+00  0.621E-01  0.721E-01  0.721E-01
  -8.101  0.204E+00  0.631E-01  0.704E-01  0.704E-01
  -8.091  0.207E+00  0.637E-01  0.716E-01  0.716E-01
  -8.081  0.215E+00  0.636E-01  0.755E-01  0.755E-01
  -8.071  0.226E+00  0.628E-01  0.817E-01  0.817E-01
  -8.061  0.241E+00  0.615E-01  0.896E-01  0.896E-01
  -8.051  0.257E+00  0.601E-01  0.985E-01  0.985E-01
  -8.041  0.275E+00  0.591E-01  0.108E+00  0.108E+00
  -8.031  0.293E+00  0.587E-01  0.117E+00  0.117E+00
  -8.021  0.310E+00  0.593E-01  0.125E+00  0.125E+00
  -8.011  0.325E+00  0.606E-01  0.132E+00  0.132E+00
  -8.001  0.335E+00  0.625E-01  0.136E+00  0.136E+00
  -7.991  0.341E+00  0.642E-01  0.138E+00  0.138E+00
  -7.981  0.341E+00  0.655E-01  0.138E+00  0.138E+00
  -7.971  0.334E+00  0.657E-01  0.134E+00  0.134E+00
  -7.961  0.323E+00  0.650E-01  0.129E+00  0.129E+00
  -7.951  0.307E+00  0.633E-01  0.122E+00  0.122E+00
  -7.941  0.289E+00  0.611E-01  0.114E+00  0.114E+00
  -7.931  0.272E+00  0.591E-01  0.107E+00  0.107E+00
  -7.921  0.258E+00  0.576E-01  0.100E+00  0.100E+00
  -7.911  0.248E+00  0.572E-01  0.955E-01  0.955E-01
  -7.901  0.243E+00  0.581E-01  0.927E-01  0.927E-01
  -7.891  0.244E+00  0.600E-01  0.919E-01  0.919E-01
  -7.881  0.248E+00  0.627E-01  0.927E-01  0.927E-01
  -7.871  0.255E+00  0.654E-01  0.947E-01  0.947E-01
  -7.861  0.262E+00  0.676E-01  0.973E-01  0.973E-01
  -7.851  0.269E+00  0.689E-01  0.100E+00  0.100E+00
  -7.841  0.274E+00  0.690E-01  0.103E+00  0.103E+00
  -7.831  0.278E+00  0.682E-01  0.105E+00  0.105E+00
  -7.821  0.282E+00  0.669E-01  0.108E+00  0.108E+00
  -7.811  0.286E+00  0.660E-01  0.110E+00  0.110E+00
  -7.801  0.293E+00  0.662E-01  0.113E+00  0.113E+00
  -7.791  0.302E+00  0.682E-01  0.117E+00  0.117E+00
  -7.781  0.315E+00  0.725E-01  0.121E+00  0.121E+00
  -7.771  0.330E+00  0.791E-01  0.125E+00  0.125E+00
  -7.761  0.347E+00  0.878E-01  0.129E+00  0.129E+00
  -7.751  0.364E+00  0.977E-01  0.133E+00  0.133E+00
  -7.741  0.379E+00  0.108E+00  0.136E+00  0.136E+00
  -7.731  0.392E+00  0.118E+00  0.137E+00  0.137E+00
  -7.721  0.401E+00  0.126E+00  0.138E+00  0.138E+00
  -7.711  0.405E+00  0.131E+00  0.137E+00  0.137E+00
  -7.701  0.405E+00  0.133E+00  0.136E+00  0.136E+00
  -7.691  0.399E+00  0.133E+00  0.133E+00  0.133E+00
  -7.681  0.389E+00  0.131E+00  0.129E+00  0.129E+00
  -7.671  0.377E+00  0.128E+00  0.124E+00  0.124E+00
  -7.661  0.362E+00  0.124E+00  0.119E+00  0.119E+00
  -7.651  0.348E+00  0.121E+00  0.113E+00  0.113E+00
  -7.641  0.335E+00  0.120E+00  0.107E+00  0.107E+00
  -7.631  0.325E+00  0.120E+00  0.102E+00  0.102E+00
  -7.621  0.319E+00  0.122E+00  0.985E-01  0.985E-01
  -7.611  0.318E+00  0.125E+00  0.966E-01  0.966E-01
  -7.601  0.323E+00  0.129E+00  0.970E-01  0.970E-01
  -7.591  0.332E+00  0.132E+00  0.998E-01  0.998E-01
  -7.581  0.344E+00  0.135E+00  0.105E+00  0.105E+00
  -7.571  0.359E+00  0.136E+00  0.111E+00  0.111E+00
  -7.561  0.374E+00  0.136E+00  0.119E+00  0.119E+00
  -7.551  0.388E+00  0.134E+00  0.127E+00  0.127E+00
  -7.541  0.401E+00  0.131E+00  0.135E+00  0.135E+00
  -7.531  0.411E+00  0.127E+00  0.142E+00  0.142E+00
  -7.521  0.417E+00  0.123E+00  0.147E+00  0.147E+00
  -7.511  0.421E+00  0.119E+00  0.151E+00  0.151E+00
  -7.501  0.421E+00  0.116E+00  0.152E+00  0.152E+00
  -7.491  0.419E+00  0.115E+00  0.152E+00  0.152E+00
  -7.481  0.415E+00  0.116E+00  0.149E+00  0.149E+00
  -7.471  0.409E+00  0.118E+00  0.145E+00  0.145E+00
  -7.461  0.403E+00  0.122E+00  0.140E+00  0.140E+00
  -7.451  0.398E+00  0.127E+00  0.135E+00  0.135E+00
  -7.441  0.393E+00  0.132E+00  0.131E+00  0.131E+00
  -7.431  0.390E+00  0.136E+00  0.127E+00  0.127E+00
  -7.421  0.390E+00  0.138E+00  0.126E+00  0.126E+00
  -7.411  0.393E+00  0.139E+00  0.127E+00  0.127E+00
  -7.401  0.398E+00  0.138E+00  0.130E+00  0.130E+00
  -7.391  0.404E+00  0.136E+00  0.134E+00  0.134E+00
  -7.381  0.411E+00  0.133E+00  0.139E+00  0.139E+00
  -7.371  0.417E+00  0.129E+00  0.144E+00  0.144E+00
  -7.361  0.421E+00  0.125E+00  0.148E+00  0.148E+00
  -7.351  0.421E+00  0.120E+00  0.150E+00  0.150E+00
  -7.341  0.419E+00  0.117E+00  0.151E+00  0.151E+00
  -7.331  0.413E+00  0.115E+00  0.149E+00  0.149E+00
  -7.321  0.405E+00  0.114E+00  0.146E+00  0.146E+00
  -7.311  0.397E+00  0.115E+00  0.141E+00  0.141E+00
  -7.301  0.391E+00  0.118E+00  0.136E+00  0.136E+00
  -7.291  0.387E+00  0.123E+00  0.132E+00  0.132E+00
  -7.281  0.387E+00  0.130E+00  0.129E+00  0.129E+00
  -7.271  0.391E+00  0.136E+00  0.128E+00  0.128E+00
  -7.261  0.399E+00  0.140E+00  0.129E+00  0.129E+00
  -7.251  0.410E+00  0.143E+00  0.134E+00  0.134E+00
  -7.241  0.424E+00  0.143E+00  0.140E+00  0.140E+00
  -7.231  0.439E+00  0.141E+00  0.149E+00  0.149E+00
  -7.221  0.454E+00  0.137E+00  0.158E+00  0.158E+00
  -7.211  0.468E+00  0.132E+00  0.168E+00  0.168E+00
  -7.201  0.481E+00  0.126E+00  0.177E+00  0.177E+00
  -7.191  0.492E+00  0.122E+00  0.185E+00  0.185E+00
  -7.181  0.500E+00  0.119E+00  0.190E+00  0.190E+00
  -7.171  0.505E+00  0.118E+00  0.194E+00  0.194E+00
  -7.161  0.507E+00  0.118E+00  0.195E+00  0.195E+00
  -7.151  0.505E+00  0.118E+00  0.193E+00  0.193E+00
  -7.141  0.501E+00  0.119E+00  0.191E+00  0.191E+00
  -7.131  0.495E+00  0.120E+00  0.187E+00  0.187E+00
  -7.121  0.490E+00  0.122E+00  0.184E+00  0.184E+00
  -7.111  0.487E+00  0.124E+00  0.181E+00  0.181E+00
  -7.101  0.488E+00  0.127E+00  0.181E+00  0.181E+00
  -7.091  0.495E+00  0.132E+00  0.182E+00  0.182E+00
  -7.081  0.506E+00  0.136E+00  0.185E+00  0.185E+00
  -7.071  0.520E+00  0.141E+00  0.190E+00  0.190E+00
  -7.061  0.536E+00  0.145E+00  0.196E+00  0.196E+00
  -7.051  0.551E+00  0.147E+00  0.202E+00  0.202E+00
  -7.041  0.564E+00  0.147E+00  0.208E+00  0.208E+00
  -7.031  0.572E+00  0.144E+00  0.214E+00  0.214E+00
  -7.021  0.575E+00  0.138E+00  0.219E+00  0.219E+00
  -7.011  0.575E+00  0.130E+00  0.222E+00  0.222E+00
  -7.001  0.573E+00  0.122E+00  0.225E+00  0.225E+00
  -6.991  0.570E+00  0.115E+00  0.228E+00  0.228E+00
  -6.981  0.569E+00  0.109E+00  0.230E+00  0.230E+00
  -6.971  0.570E+00  0.107E+00  0.232E+00  0.232E+00
  -6.961  0.573E+00  0.107E+00  0.233E+00  0.233E+00
  -6.951  0.578E+00  0.111E+00  0.234E+00  0.234E+00
  -6.941  0.584E+00  0.117E+00  0.233E+00  0.233E+00
  -6.931  0.587E+00  0.125E+00  0.231E+00  0.231E+00
  -6.921  0.586E+00  0.134E+00  0.226E+00  0.226E+00
  -6.911  0.578E+00  0.141E+00  0.218E+00  0.218E+00
  -6.901  0.563E+00  0.147E+00  0.208E+00  0.208E+00
  -6.891  0.542E+00  0.150E+00  0.196E+00  0.196E+00
  -6.881  0.515E+00  0.151E+00  0.182E+00  0.182E+00
  -6.871  0.486E+00  0.148E+00  0.169E+00  0.169E+00
  -6.861  0.459E+00  0.144E+00  0.157E+00  0.157E+00
  -6.851  0.436E+00  0.138E+00  0.149E+00  0.149E+00
  -6.841  0.419E+00  0.132E+00  0.144E+00  0.144E+00
  -6.831  0.411E+00  0.127E+00  0.142E+00  0.142E+00
  -6.821  0.409E+00  0.122E+00  0.143E+00  0.143E+00
  -6.811  0.412E+00  0.119E+00  0.146E+00  0.146E+00
  -6.801  0.418E+00  0.118E+00  0.150E+00  0.150E+00
  -6.791  0.425E+00  0.118E+00  0.154E+00  0.154E+00
  -6.781  0.431E+00  0.119E+00  0.156E+00  0.156E+00
  -6.771  0.436E+00  0.120E+00  0.158E+00  0.158E+00
  -6.761  0.438E+00  0.122E+00  0.158E+00  0.158E+00
  -6.751  0.439E+00  0.125E+00  0.157E+00  0.157E+00
  -6.741  0.439E+00  0.128E+00  0.155E+00  0.155E+00
  -6.731  0.437E+00  0.131E+00  0.153E+00  0.153E+00
  -6.721  0.435E+00  0.133E+00  0.151E+00  0.151E+00
  -6.711  0.433E+00  0.136E+00  0.149E+00  0.149E+00
  -6.701  0.431E+00  0.137E+00  0.147E+00  0.147E+00
  -6.691  0.428E+00  0.139E+00  0.145E+00  0.145E+00
  -6.681  0.425E+00  0.139E+00  0.143E+00  0.143E+00
  -6.671  0.421E+00  0.140E+00  0.141E+00  0.141E+00
  -6.661  0.416E+00  0.140E+00  0.138E+00  0.138E+00
  -6.651  0.411E+00  0.140E+00  0.135E+00  0.135E+00
  -6.641  0.404E+00  0.139E+00  0.132E+00  0.132E+00
  -6.631  0.396E+00  0.139E+00  0.129E+00  0.129E+00
  -6.621  0.388E+00  0.138E+00  0.125E+00  0.125E+00
  -6.611  0.381E+00  0.137E+00  0.122E+00  0.122E+00
  -6.601  0.376E+00  0.134E+00  0.121E+00  0.121E+00
  -6.591  0.372E+00  0.131E+00  0.121E+00  0.121E+00
  -6.581  0.370E+00  0.126E+00  0.122E+00  0.122E+00
  -6.571  0.371E+00  0.121E+00  0.125E+00  0.125E+00
  -6.561  0.373E+00  0.116E+00  0.129E+00  0.129E+00
  -6.551  0.376E+00  0.111E+00  0.132E+00  0.132E+00
  -6.541  0.380E+00  0.109E+00  0.135E+00  0.135E+00
  -6.531  0.384E+00  0.109E+00  0.138E+00  0.138E+00
  -6.521  0.389E+00  0.112E+00  0.138E+00  0.138E+00
  -6.511  0.394E+00  0.118E+00  0.138E+00  0.138E+00
  -6.501  0.401E+00  0.127E+00  0.137E+00  0.137E+00
  -6.491  0.408E+00  0.137E+00  0.135E+00  0.135E+00
  -6.481  0.415E+00  0.148E+00  0.133E+00  0.133E+00
  -6.471  0.420E+00  0.157E+00  0.131E+00  0.131E+00
  -6.461  0.422E+00  0.164E+00  0.129E+00  0.129E+00
  -6.451  0.420E+00  0.167E+00  0.127E+00  0.127E+00
  -6.441  0.413E+00  0.165E+00  0.124E+00  0.124E+00
  -6.431  0.400E+00  0.159E+00  0.120E+00  0.120E+00
  -6.421  0.382E+00  0.151E+00  0.116E+00  0.116E+00
  -6.411  0.363E+00  0.140E+00  0.112E+00  0.112E+00
  -6.401  0.345E+00  0.128E+00  0.108E+00  0.108E+00
  -6.391  0.329E+00  0.118E+00  0.105E+00  0.105E+00
  -6.381  0.319E+00  0.110E+00  0.104E+00  0.104E+00
  -6.371  0.315E+00  0.105E+00  0.105E+00  0.105E+00
  -6.361  0.318E+00  0.103E+00  0.107E+00  0.107E+00
  -6.351  0.325E+00  0.103E+00  0.111E+00  0.111E+00
  -6.341  0.334E+00  0.106E+00  0.114E+00  0.114E+00
  -6.331  0.344E+00  0.111E+00  0.117E+00  0.117E+00
  -6.321  0.353E+00  0.117E+00  0.118E+00  0.118E+00
  -6.311  0.360E+00  0.124E+00  0.118E+00  0.118E+00
  -6.301  0.364E+00  0.132E+00  0.116E+00  0.116E+00
  -6.291  0.366E+00  0.141E+00  0.113E+00  0.113E+00
  -6.281  0.367E+00  0.149E+00  0.109E+00  0.109E+00
  -6.271  0.367E+00  0.157E+00  0.105E+00  0.105E+00
  -6.261  0.367E+00  0.163E+00  0.102E+00  0.102E+00
  -6.251  0.368E+00  0.166E+00  0.101E+00  0.101E+00
  -6.241  0.370E+00  0.166E+00  0.102E+00  0.102E+00
  -6.231  0.372E+00  0.162E+00  0.105E+00  0.105E+00
  -6.221  0.375E+00  0.155E+00  0.110E+00  0.110E+00
  -6.211  0.378E+00  0.146E+00  0.116E+00  0.116E+00
  -6.201  0.379E+00  0.136E+00  0.122E+00  0.122E+00
  -6.191  0.379E+00  0.126E+00  0.127E+00  0.127E+00
  -6.181  0.377E+00  0.117E+00  0.130E+00  0.130E+00
  -6.171  0.371E+00  0.111E+00  0.130E+00  0.130E+00
  -6.161  0.362E+00  0.107E+00  0.127E+00  0.127E+00
  -6.151  0.350E+00  0.106E+00  0.122E+00  0.122E+00
  -6.141  0.337E+00  0.107E+00  0.115E+00  0.115E+00
  -6.131  0.325E+00  0.111E+00  0.107E+00  0.107E+00
  -6.121  0.316E+00  0.117E+00  0.997E-01  0.997E-01
  -6.111  0.311E+00  0.124E+00  0.936E-01  0.936E-01
  -6.101  0.310E+00  0.131E+00  0.895E-01  0.895E-01
  -6.091  0.313E+00  0.138E+00  0.875E-01  0.875E-01
  -6.081  0.320E+00  0.145E+00  0.873E-01  0.873E-01
  -6.071  0.327E+00  0.150E+00  0.885E-01  0.885E-01
  -6.061  0.334E+00  0.153E+00  0.902E-01  0.902E-01
  -6.051  0.338E+00  0.155E+00  0.919E-01  0.919E-01
  -6.041  0.340E+00  0.154E+00  0.930E-01  0.930E-01
  -6.031  0.338E+00  0.152E+00  0.932E-01  0.932E-01
  -6.021  0.334E+00  0.149E+00  0.925E-01  0.925E-01
  -6.011  0.326E+00  0.144E+00  0.911E-01  0.911E-01
  -6.001  0.319E+00  0.139E+00  0.896E-01  0.896E-01
  -5.991  0.312E+00  0.135E+00  0.887E-01  0.887E-01
  -5.981  0.309E+00  0.131E+00  0.890E-01  0.890E-01
  -5.971  0.310E+00  0.128E+00  0.911E-01  0.911E-01
  -5.961  0.318E+00  0.127E+00  0.954E-01  0.954E-01
  -5.951  0.331E+00  0.127E+00  0.102E+00  0.102E+00
  -5.941  0.348E+00  0.129E+00  0.110E+00  0.110E+00
  -5.931  0.367E+00  0.131E+00  0.118E+00  0.118E+00
  -5.921  0.384E+00  0.133E+00  0.125E+00  0.125E+00
  -5.911  0.397E+00  0.135E+00  0.131E+00  0.131E+00
  -5.901  0.402E+00  0.135E+00  0.133E+00  0.133E+00
  -5.891  0.398E+00  0.134E+00  0.132E+00  0.132E+00
  -5.881  0.385E+00  0.132E+00  0.126E+00  0.126E+00
  -5.871  0.364E+00  0.130E+00  0.117E+00  0.117E+00
  -5.861  0.338E+00  0.128E+00  0.105E+00  0.105E+00
  -5.851  0.311E+00  0.127E+00  0.918E-01  0.918E-01
  -5.841  0.286E+00  0.128E+00  0.788E-01  0.788E-01
  -5.831  0.266E+00  0.131E+00  0.674E-01  0.674E-01
  -5.821  0.253E+00  0.135E+00  0.589E-01  0.589E-01
  -5.811  0.248E+00  0.140E+00  0.541E-01  0.541E-01
  -5.801  0.250E+00  0.144E+00  0.533E-01  0.533E-01
  -5.791  0.259E+00  0.146E+00  0.564E-01  0.564E-01
  -5.781  0.272E+00  0.146E+00  0.627E-01  0.627E-01
  -5.771  0.288E+00  0.145E+00  0.714E-01  0.714E-01
  -5.761  0.306E+00  0.143E+00  0.815E-01  0.815E-01
  -5.751  0.325E+00  0.141E+00  0.920E-01  0.920E-01
  -5.741  0.343E+00  0.140E+00  0.102E+00  0.102E+00
  -5.731  0.360E+00  0.140E+00  0.110E+00  0.110E+00
  -5.721  0.373E+00  0.142E+00  0.115E+00  0.115E+00
  -5.711  0.381E+00  0.145E+00  0.118E+00  0.118E+00
  -5.701  0.382E+00  0.148E+00  0.117E+00  0.117E+00
  -5.691  0.377E+00  0.149E+00  0.114E+00  0.114E+00
  -5.681  0.365E+00  0.149E+00  0.108E+00  0.108E+00
  -5.671  0.347E+00  0.147E+00  0.100E+00  0.100E+00
  -5.661  0.326E+00  0.142E+00  0.920E-01  0.920E-01
  -5.651  0.304E+00  0.135E+00  0.846E-01  0.846E-01
  -5.641  0.285E+00  0.127E+00  0.788E-01  0.788E-01
  -5.631  0.270E+00  0.120E+00  0.754E-01  0.754E-01
  -5.621  0.262E+00  0.113E+00  0.746E-01  0.746E-01
  -5.611  0.261E+00  0.109E+00  0.762E-01  0.762E-01
  -5.601  0.268E+00  0.108E+00  0.799E-01  0.799E-01
  -5.591  0.280E+00  0.110E+00  0.849E-01  0.849E-01
  -5.581  0.297E+00  0.116E+00  0.903E-01  0.903E-01
  -5.571  0.315E+00  0.125E+00  0.950E-01  0.950E-01
  -5.561  0.331E+00  0.135E+00  0.983E-01  0.983E-01
  -5.551  0.344E+00  0.145E+00  0.994E-01  0.994E-01
  -5.541  0.351E+00  0.155E+00  0.980E-01  0.980E-01
  -5.531  0.350E+00  0.162E+00  0.942E-01  0.942E-01
  -5.521  0.344E+00  0.167E+00  0.883E-01  0.883E-01
  -5.511  0.332E+00  0.169E+00  0.813E-01  0.813E-01
  -5.501  0.318E+00  0.169E+00  0.742E-01  0.742E-01
  -5.491  0.304E+00  0.167E+00  0.682E-01  0.682E-01
  -5.481  0.292E+00  0.164E+00  0.641E-01  0.641E-01
  -5.471  0.284E+00  0.159E+00  0.624E-01  0.624E-01
  -5.461  0.281E+00  0.154E+00  0.634E-01  0.634E-01
  -5.451  0.282E+00  0.148E+00  0.668E-01  0.668E-01
  -5.441  0.286E+00  0.142E+00  0.721E-01  0.721E-01
  -5.431  0.292E+00  0.136E+00  0.785E-01  0.785E-01
  -5.421  0.300E+00  0.129E+00  0.853E-01  0.853E-01
  -5.411  0.306E+00  0.123E+00  0.919E-01  0.919E-01
  -5.401  0.312E+00  0.117E+00  0.977E-01  0.977E-01
  -5.391  0.316E+00  0.112E+00  0.102E+00  0.102E+00
  -5.381  0.319E+00  0.109E+00  0.105E+00  0.105E+00
  -5.371  0.318E+00  0.107E+00  0.106E+00  0.106E+00
  -5.361  0.315E+00  0.107E+00  0.104E+00  0.104E+00
  -5.351  0.309E+00  0.110E+00  0.998E-01  0.998E-01
  -5.341  0.301E+00  0.114E+00  0.935E-01  0.935E-01
  -5.331  0.292E+00  0.121E+00  0.855E-01  0.855E-01
  -5.321  0.284E+00  0.130E+00  0.766E-01  0.766E-01
  -5.311  0.277E+00  0.141E+00  0.679E-01  0.679E-01
  -5.301  0.273E+00  0.152E+00  0.604E-01  0.604E-01
  -5.291  0.273E+00  0.163E+00  0.551E-01  0.551E-01
  -5.281  0.279E+00  0.173E+00  0.528E-01  0.528E-01
  -5.271  0.289E+00  0.181E+00  0.539E-01  0.539E-01
  -5.261  0.302E+00  0.186E+00  0.584E-01  0.584E-01
  -5.251  0.318E+00  0.187E+00  0.657E-01  0.657E-01
  -5.241  0.334E+00  0.184E+00  0.750E-01  0.750E-01
  -5.231  0.348E+00  0.178E+00  0.851E-01  0.851E-01
  -5.221  0.358E+00  0.169E+00  0.946E-01  0.946E-01
  -5.211  0.362E+00  0.158E+00  0.102E+00  0.102E+00
  -5.201  0.360E+00  0.146E+00  0.107E+00  0.107E+00
  -5.191  0.350E+00  0.135E+00  0.108E+00  0.108E+00
  -5.181  0.334E+00  0.125E+00  0.105E+00  0.105E+00
  -5.171  0.312E+00  0.116E+00  0.975E-01  0.975E-01
  -5.161  0.285E+00  0.110E+00  0.875E-01  0.875E-01
  -5.151  0.257E+00  0.105E+00  0.758E-01  0.758E-01
  -5.141  0.230E+00  0.102E+00  0.638E-01  0.638E-01
  -5.131  0.208E+00  0.102E+00  0.531E-01  0.531E-01
  -5.121  0.193E+00  0.103E+00  0.450E-01  0.450E-01
  -5.111  0.187E+00  0.106E+00  0.403E-01  0.403E-01
  -5.101  0.191E+00  0.112E+00  0.395E-01  0.395E-01
  -5.091  0.206E+00  0.120E+00  0.428E-01  0.428E-01
  -5.081  0.230E+00  0.131E+00  0.497E-01  0.497E-01
  -5.071  0.262E+00  0.143E+00  0.596E-01  0.596E-01
  -5.061  0.298E+00  0.155E+00  0.716E-01  0.716E-01
  -5.051  0.336E+00  0.166E+00  0.847E-01  0.847E-01
  -5.041  0.371E+00  0.176E+00  0.976E-01  0.976E-01
  -5.031  0.400E+00  0.182E+00  0.109E+00  0.109E+00
  -5.021  0.419E+00  0.186E+00  0.117E+00  0.117E+00
  -5.011  0.427E+00  0.186E+00  0.121E+00  0.121E+00
  -5.001  0.421E+00  0.183E+00  0.119E+00  0.119E+00
  -4.991  0.404E+00  0.178E+00  0.113E+00  0.113E+00
  -4.981  0.375E+00  0.172E+00  0.101E+00  0.101E+00
  -4.971  0.339E+00  0.166E+00  0.869E-01  0.869E-01
  -4.961  0.300E+00  0.158E+00  0.707E-01  0.707E-01
  -4.951  0.260E+00  0.151E+00  0.549E-01  0.549E-01
  -4.941  0.225E+00  0.143E+00  0.413E-01  0.413E-01
  -4.931  0.197E+00  0.135E+00  0.313E-01  0.313E-01
  -4.921  0.179E+00  0.127E+00  0.258E-01  0.258E-01
  -4.911  0.170E+00  0.120E+00  0.251E-01  0.251E-01
  -4.901  0.171E+00  0.113E+00  0.288E-01  0.288E-01
  -4.891  0.181E+00  0.108E+00  0.364E-01  0.364E-01
  -4.881  0.198E+00  0.104E+00  0.468E-01  0.468E-01
  -4.871  0.221E+00  0.103E+00  0.591E-01  0.591E-01
  -4.861  0.249E+00  0.104E+00  0.722E-01  0.722E-01
  -4.851  0.278E+00  0.108E+00  0.851E-01  0.851E-01
  -4.841  0.308E+00  0.115E+00  0.966E-01  0.966E-01
  -4.831  0.337E+00  0.125E+00  0.106E+00  0.106E+00
  -4.821  0.361E+00  0.138E+00  0.112E+00  0.112E+00
  -4.811  0.378E+00  0.151E+00  0.113E+00  0.113E+00
  -4.801  0.387E+00  0.165E+00  0.111E+00  0.111E+00
  -4.791  0.386E+00  0.178E+00  0.104E+00  0.104E+00
  -4.781  0.375E+00  0.187E+00  0.940E-01  0.940E-01
  -4.771  0.356E+00  0.193E+00  0.816E-01  0.816E-01
  -4.761  0.331E+00  0.194E+00  0.684E-01  0.684E-01
  -4.751  0.302E+00  0.191E+00  0.559E-01  0.559E-01
  -4.741  0.275E+00  0.184E+00  0.456E-01  0.456E-01
  -4.731  0.252E+00  0.174E+00  0.385E-01  0.385E-01
  -4.721  0.235E+00  0.165E+00  0.351E-01  0.351E-01
  -4.711  0.226E+00  0.155E+00  0.355E-01  0.355E-01
  -4.701  0.226E+00  0.147E+00  0.392E-01  0.392E-01
  -4.691  0.232E+00  0.141E+00  0.455E-01  0.455E-01
  -4.681  0.244E+00  0.137E+00  0.535E-01  0.535E-01
  -4.671  0.259E+00  0.135E+00  0.623E-01  0.623E-01
  -4.661  0.274E+00  0.133E+00  0.708E-01  0.708E-01
  -4.651  0.287E+00  0.130E+00  0.783E-01  0.783E-01
  -4.641  0.296E+00  0.128E+00  0.840E-01  0.840E-01
  -4.631  0.300E+00  0.125E+00  0.874E-01  0.874E-01
  -4.621  0.299E+00  0.122E+00  0.883E-01  0.883E-01
  -4.611  0.293E+00  0.120E+00  0.867E-01  0.867E-01
  -4.601  0.284E+00  0.119E+00  0.829E-01  0.829E-01
  -4.591  0.275E+00  0.120E+00  0.776E-01  0.776E-01
  -4.581  0.266E+00  0.123E+00  0.714E-01  0.714E-01
  -4.571  0.260E+00  0.129E+00  0.654E-01  0.654E-01
  -4.561  0.257E+00  0.137E+00  0.602E-01  0.602E-01
  -4.551  0.260E+00  0.147E+00  0.563E-01  0.563E-01
  -4.541  0.266E+00  0.158E+00  0.543E-01  0.543E-01
  -4.531  0.276E+00  0.168E+00  0.540E-01  0.540E-01
  -4.521  0.287E+00  0.177E+00  0.552E-01  0.552E-01
  -4.511  0.299E+00  0.184E+00  0.578E-01  0.578E-01
  -4.501  0.310E+00  0.188E+00  0.611E-01  0.611E-01
  -4.491  0.318E+00  0.189E+00  0.647E-01  0.647E-01
  -4.481  0.323E+00  0.186E+00  0.683E-01  0.683E-01
  -4.471  0.324E+00  0.182E+00  0.713E-01  0.713E-01
  -4.461  0.321E+00  0.175E+00  0.734E-01  0.734E-01
  -4.451  0.315E+00  0.166E+00  0.741E-01  0.741E-01
  -4.441  0.304E+00  0.157E+00  0.734E-01  0.734E-01
  -4.431  0.291E+00  0.149E+00  0.710E-01  0.710E-01
  -4.421  0.276E+00  0.142E+00  0.672E-01  0.672E-01
  -4.411  0.261E+00  0.136E+00  0.624E-01  0.624E-01
  -4.401  0.247E+00  0.133E+00  0.572E-01  0.572E-01
  -4.391  0.237E+00  0.132E+00  0.526E-01  0.526E-01
  -4.381  0.231E+00  0.132E+00  0.492E-01  0.492E-01
  -4.371  0.230E+00  0.134E+00  0.478E-01  0.478E-01
  -4.361  0.234E+00  0.136E+00  0.489E-01  0.489E-01
  -4.351  0.243E+00  0.138E+00  0.524E-01  0.524E-01
  -4.341  0.256E+00  0.140E+00  0.579E-01  0.579E-01
  -4.331  0.270E+00  0.141E+00  0.646E-01  0.646E-01
  -4.321  0.285E+00  0.142E+00  0.715E-01  0.715E-01
  -4.311  0.298E+00  0.143E+00  0.775E-01  0.775E-01
  -4.301  0.308E+00  0.145E+00  0.814E-01  0.814E-01
  -4.291  0.313E+00  0.148E+00  0.826E-01  0.826E-01
  -4.281  0.313E+00  0.151E+00  0.808E-01  0.808E-01
  -4.271  0.307E+00  0.155E+00  0.760E-01  0.760E-01
  -4.261  0.298E+00  0.160E+00  0.690E-01  0.690E-01
  -4.251  0.286E+00  0.164E+00  0.608E-01  0.608E-01
  -4.241  0.274E+00  0.169E+00  0.526E-01  0.526E-01
  -4.231  0.265E+00  0.173E+00  0.457E-01  0.457E-01
  -4.221  0.258E+00  0.176E+00  0.410E-01  0.410E-01
  -4.211  0.257E+00  0.178E+00  0.394E-01  0.394E-01
  -4.201  0.260E+00  0.178E+00  0.409E-01  0.409E-01
  -4.191  0.267E+00  0.177E+00  0.452E-01  0.452E-01
  -4.181  0.277E+00  0.174E+00  0.517E-01  0.517E-01
  -4.171  0.287E+00  0.169E+00  0.592E-01  0.592E-01
  -4.161  0.295E+00  0.162E+00  0.665E-01  0.665E-01
  -4.151  0.301E+00  0.156E+00  0.725E-01  0.725E-01
  -4.141  0.302E+00  0.149E+00  0.762E-01  0.762E-01
  -4.131  0.299E+00  0.144E+00  0.773E-01  0.773E-01
  -4.121  0.292E+00  0.141E+00  0.757E-01  0.757E-01
  -4.111  0.284E+00  0.140E+00  0.718E-01  0.718E-01
  -4.101  0.274E+00  0.142E+00  0.664E-01  0.664E-01
  -4.091  0.266E+00  0.145E+00  0.604E-01  0.604E-01
  -4.081  0.260E+00  0.150E+00  0.548E-01  0.548E-01
  -4.071  0.256E+00  0.155E+00  0.504E-01  0.504E-01
  -4.061  0.255E+00  0.160E+00  0.478E-01  0.478E-01
  -4.051  0.257E+00  0.162E+00  0.472E-01  0.472E-01
  -4.041  0.260E+00  0.163E+00  0.483E-01  0.483E-01
  -4.031  0.264E+00  0.162E+00  0.508E-01  0.508E-01
  -4.021  0.268E+00  0.160E+00  0.539E-01  0.539E-01
  -4.011  0.272E+00  0.158E+00  0.571E-01  0.571E-01
  -4.001  0.275E+00  0.156E+00  0.598E-01  0.598E-01
  -3.991  0.278E+00  0.155E+00  0.616E-01  0.616E-01
  -3.981  0.280E+00  0.155E+00  0.624E-01  0.624E-01
  -3.971  0.282E+00  0.157E+00  0.624E-01  0.624E-01
  -3.961  0.284E+00  0.160E+00  0.617E-01  0.617E-01
  -3.951  0.286E+00  0.164E+00  0.607E-01  0.607E-01
  -3.941  0.287E+00  0.168E+00  0.595E-01  0.595E-01
  -3.931  0.289E+00  0.172E+00  0.583E-01  0.583E-01
  -3.921  0.290E+00  0.175E+00  0.573E-01  0.573E-01
  -3.911  0.289E+00  0.177E+00  0.564E-01  0.564E-01
  -3.901  0.288E+00  0.177E+00  0.556E-01  0.556E-01
  -3.891  0.284E+00  0.175E+00  0.548E-01  0.548E-01
  -3.881  0.280E+00  0.172E+00  0.541E-01  0.541E-01
  -3.871  0.275E+00  0.168E+00  0.535E-01  0.535E-01
  -3.861  0.270E+00  0.164E+00  0.531E-01  0.531E-01
  -3.851  0.267E+00  0.161E+00  0.532E-01  0.532E-01
  -3.841  0.266E+00  0.159E+00  0.536E-01  0.536E-01
  -3.831  0.268E+00  0.160E+00  0.545E-01  0.545E-01
  -3.821  0.273E+00  0.162E+00  0.556E-01  0.556E-01
  -3.811  0.279E+00  0.166E+00  0.566E-01  0.566E-01
  -3.801  0.285E+00  0.170E+00  0.574E-01  0.574E-01
  -3.791  0.290E+00  0.175E+00  0.576E-01  0.576E-01
  -3.781  0.292E+00  0.178E+00  0.572E-01  0.572E-01
  -3.771  0.291E+00  0.179E+00  0.562E-01  0.562E-01
  -3.761  0.288E+00  0.178E+00  0.550E-01  0.550E-01
  -3.751  0.282E+00  0.175E+00  0.537E-01  0.537E-01
  -3.741  0.276E+00  0.170E+00  0.527E-01  0.527E-01
  -3.731  0.270E+00  0.166E+00  0.522E-01  0.522E-01
  -3.721  0.266E+00  0.162E+00  0.521E-01  0.521E-01
  -3.711  0.263E+00  0.159E+00  0.522E-01  0.522E-01
  -3.701  0.262E+00  0.157E+00  0.522E-01  0.522E-01
  -3.691  0.261E+00  0.158E+00  0.518E-01  0.518E-01
  -3.681  0.261E+00  0.159E+00  0.508E-01  0.508E-01
  -3.671  0.260E+00  0.162E+00  0.488E-01  0.488E-01
  -3.661  0.257E+00  0.165E+00  0.460E-01  0.460E-01
  -3.651  0.253E+00  0.169E+00  0.423E-01  0.423E-01
  -3.641  0.248E+00  0.173E+00  0.378E-01  0.378E-01
  -3.631  0.242E+00  0.176E+00  0.327E-01  0.327E-01
  -3.621  0.234E+00  0.180E+00  0.271E-01  0.271E-01
  -3.611  0.226E+00  0.183E+00  0.213E-01  0.213E-01
  -3.601  0.217E+00  0.186E+00  0.156E-01  0.156E-01
  -3.591  0.209E+00  0.188E+00  0.102E-01  0.102E-01
  -3.581  0.201E+00  0.190E+00  0.551E-02  0.551E-02
  -3.571  0.194E+00  0.191E+00  0.163E-02  0.163E-02
  -3.561  0.189E+00  0.191E+00 -0.126E-02 -0.126E-02
  -3.551  0.185E+00  0.192E+00 -0.315E-02 -0.315E-02
  -3.541  0.184E+00  0.192E+00 -0.413E-02 -0.413E-02
  -3.531  0.185E+00  0.193E+00 -0.436E-02 -0.436E-02
  -3.521  0.187E+00  0.195E+00 -0.408E-02 -0.408E-02
  -3.511  0.189E+00  0.196E+00 -0.349E-02 -0.349E-02
  -3.501  0.192E+00  0.197E+00 -0.278E-02 -0.278E-02
  -3.491  0.194E+00  0.198E+00 -0.208E-02 -0.208E-02
  -3.481  0.194E+00  0.197E+00 -0.147E-02 -0.147E-02
  -3.471  0.193E+00  0.195E+00 -0.984E-03 -0.984E-03
  -3.461  0.190E+00  0.191E+00 -0.626E-03 -0.626E-03
  -3.451  0.185E+00  0.186E+00 -0.379E-03 -0.379E-03
  -3.441  0.180E+00  0.181E+00 -0.219E-03 -0.219E-03
  -3.431  0.176E+00  0.176E+00 -0.120E-03 -0.120E-03
  -3.421  0.172E+00  0.172E+00 -0.624E-04 -0.624E-04
  -3.411  0.169E+00  0.169E+00 -0.306E-04 -0.306E-04
  -3.401  0.168E+00  0.168E+00 -0.139E-04 -0.139E-04
  -3.391  0.169E+00  0.169E+00 -0.545E-05 -0.545E-05
  -3.381  0.172E+00  0.172E+00 -0.139E-05 -0.139E-05
  -3.371  0.176E+00  0.176E+00  0.491E-06  0.491E-06
  -3.361  0.182E+00  0.182E+00  0.136E-05  0.136E-05
  -3.351  0.190E+00  0.190E+00  0.178E-05  0.178E-05
  -3.341  0.200E+00  0.200E+00  0.202E-05  0.202E-05
  -3.331  0.210E+00  0.210E+00  0.219E-05  0.219E-05
  -3.321  0.221E+00  0.221E+00  0.232E-05  0.232E-05
  -3.311  0.231E+00  0.231E+00  0.244E-05  0.244E-05
  -3.301  0.240E+00  0.240E+00  0.255E-05  0.255E-05
  -3.291  0.248E+00  0.248E+00  0.264E-05  0.264E-05
  -3.281  0.254E+00  0.254E+00  0.272E-05  0.272E-05
  -3.271  0.258E+00  0.258E+00  0.279E-05  0.279E-05
  -3.261  0.262E+00  0.262E+00  0.286E-05  0.286E-05
  -3.251  0.266E+00  0.266E+00  0.292E-05  0.292E-05
  -3.241  0.269E+00  0.269E+00  0.298E-05  0.298E-05
  -3.231  0.272E+00  0.272E+00  0.304E-05  0.304E-05
  -3.221  0.274E+00  0.274E+00  0.308E-05  0.308E-05
  -3.211  0.273E+00  0.273E+00  0.309E-05  0.309E-05
  -3.201  0.271E+00  0.271E+00  0.307E-05  0.307E-05
  -3.191  0.265E+00  0.265E+00  0.301E-05  0.301E-05
  -3.181  0.255E+00  0.255E+00  0.289E-05  0.289E-05
  -3.171  0.243E+00  0.243E+00  0.274E-05  0.274E-05
  -3.161  0.227E+00  0.227E+00  0.254E-05  0.254E-05
  -3.151  0.208E+00  0.208E+00  0.231E-05  0.231E-05
  -3.141  0.189E+00  0.189E+00  0.207E-05  0.207E-05
  -3.131  0.169E+00  0.169E+00  0.184E-05  0.184E-05
  -3.121  0.153E+00  0.153E+00  0.164E-05  0.164E-05
  -3.111  0.140E+00  0.140E+00  0.149E-05  0.149E-05
  -3.101  0.134E+00  0.134E+00  0.141E-05  0.141E-05
  -3.091  0.136E+00  0.136E+00  0.143E-05  0.143E-05
  -3.081  0.145E+00  0.145E+00  0.154E-05  0.154E-05
  -3.071  0.162E+00  0.162E+00  0.173E-05  0.173E-05
  -3.061  0.184E+00  0.184E+00  0.198E-05  0.198E-05
  -3.051  0.209E+00  0.209E+00  0.227E-05  0.227E-05
  -3.041  0.234E+00  0.234E+00  0.256E-05  0.256E-05
  -3.031  0.255E+00  0.255E+00  0.280E-05  0.280E-05
  -3.021  0.270E+00  0.270E+00  0.297E-05  0.297E-05
  -3.011  0.276E+00  0.276E+00  0.305E-05  0.305E-05
  -3.001  0.274E+00  0.274E+00  0.302E-05  0.302E-05
  -2.991  0.263E+00  0.263E+00  0.289E-05  0.289E-05
  -2.981  0.247E+00  0.247E+00  0.270E-05  0.270E-05
  -2.971  0.227E+00  0.227E+00  0.246E-05  0.246E-05
  -2.961  0.208E+00  0.208E+00  0.222E-05  0.222E-05
  -2.951  0.190E+00  0.190E+00  0.200E-05  0.200E-05
  -2.941  0.176E+00  0.176E+00  0.182E-05  0.182E-05
  -2.931  0.165E+00  0.165E+00  0.169E-05  0.169E-05
  -2.921  0.158E+00  0.158E+00  0.160E-05  0.160E-05
  -2.911  0.154E+00  0.154E+00  0.155E-05  0.155E-05
  -2.901  0.152E+00  0.152E+00  0.152E-05  0.152E-05
  -2.891  0.150E+00  0.150E+00  0.151E-05  0.151E-05
  -2.881  0.149E+00  0.149E+00  0.151E-05  0.151E-05
  -2.871  0.149E+00  0.149E+00  0.152E-05  0.152E-05
  -2.861  0.150E+00  0.150E+00  0.154E-05  0.154E-05
  -2.851  0.152E+00  0.152E+00  0.158E-05  0.158E-05
  -2.841  0.156E+00  0.156E+00  0.163E-05  0.163E-05
  -2.831  0.161E+00  0.161E+00  0.170E-05  0.170E-05
  -2.821  0.168E+00  0.168E+00  0.179E-05  0.179E-05
  -2.811  0.176E+00  0.176E+00  0.189E-05  0.189E-05
  -2.801  0.185E+00  0.185E+00  0.200E-05  0.200E-05
  -2.791  0.195E+00  0.195E+00  0.212E-05  0.212E-05
  -2.781  0.204E+00  0.204E+00  0.223E-05  0.223E-05
  -2.771  0.213E+00  0.213E+00  0.233E-05  0.233E-05
  -2.761  0.220E+00  0.220E+00  0.241E-05  0.241E-05
  -2.751  0.225E+00  0.225E+00  0.245E-05  0.245E-05
  -2.741  0.227E+00  0.227E+00  0.246E-05  0.246E-05
  -2.731  0.225E+00  0.225E+00  0.242E-05  0.242E-05
  -2.721  0.221E+00  0.221E+00  0.234E-05  0.234E-05
  -2.711  0.216E+00  0.216E+00  0.225E-05  0.225E-05
  -2.701  0.211E+00  0.211E+00  0.215E-05  0.215E-05
  -2.691  0.207E+00  0.207E+00  0.208E-05  0.208E-05
  -2.681  0.207E+00  0.207E+00  0.203E-05  0.203E-05
  -2.671  0.210E+00  0.210E+00  0.203E-05  0.203E-05
  -2.661  0.215E+00  0.215E+00  0.206E-05  0.206E-05
  -2.651  0.222E+00  0.222E+00  0.212E-05  0.212E-05
  -2.641  0.228E+00  0.228E+00  0.218E-05  0.218E-05
  -2.631  0.234E+00  0.234E+00  0.224E-05  0.224E-05
  -2.621  0.237E+00  0.237E+00  0.227E-05  0.227E-05
  -2.611  0.237E+00  0.237E+00  0.228E-05  0.228E-05
  -2.601  0.233E+00  0.233E+00  0.226E-05  0.226E-05
  -2.591  0.227E+00  0.227E+00  0.221E-05  0.221E-05
  -2.581  0.219E+00  0.219E+00  0.214E-05  0.214E-05
  -2.571  0.208E+00  0.208E+00  0.205E-05  0.205E-05
  -2.561  0.196E+00  0.196E+00  0.195E-05  0.195E-05
  -2.551  0.183E+00  0.183E+00  0.185E-05  0.185E-05
  -2.541  0.169E+00  0.169E+00  0.175E-05  0.175E-05
  -2.531  0.156E+00  0.156E+00  0.166E-05  0.166E-05
  -2.521  0.144E+00  0.144E+00  0.160E-05  0.160E-05
  -2.511  0.135E+00  0.135E+00  0.155E-05  0.155E-05
  -2.501  0.130E+00  0.130E+00  0.154E-05  0.154E-05
  -2.491  0.128E+00  0.128E+00  0.155E-05  0.155E-05
  -2.481  0.130E+00  0.130E+00  0.159E-05  0.159E-05
  -2.471  0.136E+00  0.136E+00  0.165E-05  0.165E-05
  -2.461  0.146E+00  0.146E+00  0.173E-05  0.173E-05
  -2.451  0.157E+00  0.157E+00  0.182E-05  0.182E-05
  -2.441  0.171E+00  0.171E+00  0.191E-05  0.191E-05
  -2.431  0.185E+00  0.185E+00  0.200E-05  0.200E-05
  -2.421  0.199E+00  0.199E+00  0.209E-05  0.209E-05
  -2.411  0.211E+00  0.211E+00  0.217E-05  0.217E-05
  -2.401  0.220E+00  0.220E+00  0.222E-05  0.222E-05
  -2.391  0.223E+00  0.223E+00  0.223E-05  0.223E-05
  -2.381  0.220E+00  0.220E+00  0.219E-05  0.219E-05
  -2.371  0.209E+00  0.209E+00  0.209E-05  0.209E-05
  -2.361  0.191E+00  0.191E+00  0.192E-05  0.192E-05
  -2.351  0.168E+00  0.168E+00  0.172E-05  0.172E-05
  -2.341  0.142E+00  0.142E+00  0.148E-05  0.148E-05
  -2.331  0.116E+00  0.116E+00  0.124E-05  0.124E-05
  -2.321  0.915E-01  0.915E-01  0.103E-05  0.103E-05
  -2.311  0.721E-01  0.721E-01  0.855E-06  0.855E-06
  -2.301  0.588E-01  0.588E-01  0.737E-06  0.737E-06
  -2.291  0.518E-01  0.518E-01  0.679E-06  0.679E-06
  -2.281  0.510E-01  0.509E-01  0.680E-06  0.680E-06
  -2.271  0.552E-01  0.552E-01  0.731E-06  0.731E-06
  -2.261  0.633E-01  0.633E-01  0.825E-06  0.825E-06
  -2.251  0.741E-01  0.741E-01  0.949E-06  0.949E-06
  -2.241  0.865E-01  0.865E-01  0.109E-05  0.109E-05
  -2.231  0.994E-01  0.994E-01  0.125E-05  0.125E-05
  -2.221  0.112E+00  0.112E+00  0.140E-05  0.140E-05
  -2.211  0.124E+00  0.124E+00  0.154E-05  0.154E-05
  -2.201  0.135E+00  0.135E+00  0.166E-05  0.166E-05
  -2.191  0.145E+00  0.145E+00  0.176E-05  0.176E-05
  -2.181  0.153E+00  0.153E+00  0.183E-05  0.183E-05
  -2.171  0.159E+00  0.159E+00  0.187E-05  0.187E-05
  -2.161  0.164E+00  0.164E+00  0.189E-05  0.189E-05
  -2.151  0.166E+00  0.166E+00  0.188E-05  0.188E-05
  -2.141  0.166E+00  0.166E+00  0.184E-05  0.184E-05
  -2.131  0.163E+00  0.163E+00  0.178E-05  0.178E-05
  -2.121  0.157E+00  0.157E+00  0.169E-05  0.169E-05
  -2.111  0.147E+00  0.147E+00  0.158E-05  0.158E-05
  -2.101  0.135E+00  0.135E+00  0.145E-05  0.145E-05
  -2.091  0.121E+00  0.121E+00  0.131E-05  0.131E-05
  -2.081  0.106E+00  0.106E+00  0.116E-05  0.116E-05
  -2.071  0.905E-01  0.905E-01  0.102E-05  0.102E-05
  -2.061  0.768E-01  0.768E-01  0.901E-06  0.901E-06
  -2.051  0.657E-01  0.657E-01  0.804E-06  0.804E-06
  -2.041  0.578E-01  0.578E-01  0.738E-06  0.738E-06
  -2.031  0.531E-01  0.531E-01  0.703E-06  0.703E-06
  -2.021  0.514E-01  0.514E-01  0.695E-06  0.695E-06
  -2.011  0.521E-01  0.521E-01  0.708E-06  0.708E-06
  -2.001  0.544E-01  0.544E-01  0.736E-06  0.736E-06
  -1.991  0.577E-01  0.577E-01  0.771E-06  0.771E-06
  -1.981  0.615E-01  0.615E-01  0.810E-06  0.810E-06
  -1.971  0.657E-01  0.657E-01  0.856E-06  0.856E-06
  -1.961  0.706E-01  0.706E-01  0.910E-06  0.910E-06
  -1.951  0.765E-01  0.765E-01  0.979E-06  0.979E-06
  -1.941  0.835E-01  0.835E-01  0.107E-05  0.107E-05
  -1.931  0.918E-01  0.918E-01  0.117E-05  0.117E-05
  -1.921  0.101E+00  0.101E+00  0.129E-05  0.129E-05
  -1.911  0.111E+00  0.111E+00  0.141E-05  0.141E-05
  -1.901  0.119E+00  0.119E+00  0.152E-05  0.152E-05
  -1.891  0.126E+00  0.126E+00  0.161E-05  0.161E-05
  -1.881  0.131E+00  0.131E+00  0.166E-05  0.166E-05
  -1.871  0.132E+00  0.132E+00  0.166E-05  0.166E-05
  -1.861  0.130E+00  0.130E+00  0.161E-05  0.161E-05
  -1.851  0.124E+00  0.124E+00  0.152E-05  0.152E-05
  -1.841  0.115E+00  0.115E+00  0.138E-05  0.138E-05
  -1.831  0.104E+00  0.104E+00  0.122E-05  0.122E-05
  -1.821  0.921E-01  0.921E-01  0.105E-05  0.105E-05
  -1.811  0.798E-01  0.798E-01  0.888E-06  0.888E-06
  -1.801  0.683E-01  0.683E-01  0.751E-06  0.751E-06
  -1.791  0.585E-01  0.585E-01  0.645E-06  0.645E-06
  -1.781  0.508E-01  0.508E-01  0.576E-06  0.576E-06
  -1.771  0.456E-01  0.456E-01  0.542E-06  0.542E-06
  -1.761  0.426E-01  0.426E-01  0.539E-06  0.539E-06
  -1.751  0.417E-01  0.417E-01  0.558E-06  0.558E-06
  -1.741  0.422E-01  0.422E-01  0.591E-06  0.591E-06
  -1.731  0.438E-01  0.438E-01  0.629E-06  0.629E-06
  -1.721  0.460E-01  0.460E-01  0.668E-06  0.668E-06
  -1.711  0.485E-01  0.485E-01  0.707E-06  0.707E-06
  -1.701  0.514E-01  0.514E-01  0.748E-06  0.748E-06
  -1.691  0.549E-01  0.549E-01  0.793E-06  0.793E-06
  -1.681  0.590E-01  0.590E-01  0.846E-06  0.846E-06
  -1.671  0.638E-01  0.638E-01  0.909E-06  0.909E-06
  -1.661  0.694E-01  0.694E-01  0.978E-06  0.978E-06
  -1.651  0.752E-01  0.752E-01  0.105E-05  0.105E-05
  -1.641  0.808E-01  0.808E-01  0.111E-05  0.111E-05
  -1.631  0.857E-01  0.857E-01  0.116E-05  0.116E-05
  -1.621  0.891E-01  0.891E-01  0.119E-05  0.119E-05
  -1.611  0.909E-01  0.909E-01  0.120E-05  0.120E-05
  -1.601  0.907E-01  0.907E-01  0.117E-05  0.117E-05
  -1.591  0.886E-01  0.886E-01  0.113E-05  0.113E-05
  -1.581  0.850E-01  0.850E-01  0.107E-05  0.107E-05
  -1.571  0.802E-01  0.802E-01  0.993E-06  0.993E-06
  -1.561  0.748E-01  0.748E-01  0.918E-06  0.918E-06
  -1.551  0.692E-01  0.692E-01  0.849E-06  0.849E-06
  -1.541  0.638E-01  0.638E-01  0.790E-06  0.790E-06
  -1.531  0.589E-01  0.589E-01  0.743E-06  0.743E-06
  -1.521  0.545E-01  0.545E-01  0.707E-06  0.707E-06
  -1.511  0.506E-01  0.506E-01  0.678E-06  0.678E-06
  -1.501  0.470E-01  0.470E-01  0.651E-06  0.651E-06
  -1.491  0.436E-01  0.436E-01  0.621E-06  0.621E-06
  -1.481  0.403E-01  0.403E-01  0.586E-06  0.586E-06
  -1.471  0.372E-01  0.372E-01  0.545E-06  0.545E-06
  -1.461  0.345E-01  0.345E-01  0.504E-06  0.504E-06
  -1.451  0.324E-01  0.324E-01  0.467E-06  0.467E-06
  -1.441  0.313E-01  0.313E-01  0.443E-06  0.443E-06
  -1.431  0.313E-01  0.313E-01  0.437E-06  0.437E-06
  -1.421  0.326E-01  0.326E-01  0.452E-06  0.452E-06
  -1.411  0.349E-01  0.349E-01  0.489E-06  0.489E-06
  -1.401  0.382E-01  0.382E-01  0.542E-06  0.542E-06
  -1.391  0.420E-01  0.420E-01  0.608E-06  0.608E-06
  -1.381  0.462E-01  0.462E-01  0.679E-06  0.679E-06
  -1.371  0.505E-01  0.505E-01  0.750E-06  0.750E-06
  -1.361  0.547E-01  0.547E-01  0.815E-06  0.815E-06
  -1.351  0.589E-01  0.589E-01  0.871E-06  0.871E-06
  -1.341  0.628E-01  0.628E-01  0.917E-06  0.917E-06
  -1.331  0.662E-01  0.662E-01  0.950E-06  0.950E-06
  -1.321  0.690E-01  0.690E-01  0.970E-06  0.970E-06
  -1.311  0.705E-01  0.705E-01  0.974E-06  0.974E-06
  -1.301  0.705E-01  0.705E-01  0.958E-06  0.958E-06
  -1.291  0.685E-01  0.685E-01  0.918E-06  0.918E-06
  -1.281  0.642E-01  0.642E-01  0.853E-06  0.853E-06
  -1.271  0.578E-01  0.578E-01  0.764E-06  0.764E-06
  -1.261  0.496E-01  0.496E-01  0.655E-06  0.655E-06
  -1.251  0.403E-01  0.403E-01  0.533E-06  0.533E-06
  -1.241  0.309E-01  0.309E-01  0.411E-06  0.411E-06
  -1.231  0.224E-01  0.224E-01  0.299E-06  0.299E-06
  -1.221  0.156E-01  0.156E-01  0.209E-06  0.209E-06
  -1.211  0.112E-01  0.112E-01  0.149E-06  0.149E-06
  -1.201  0.928E-02  0.928E-02  0.122E-06  0.122E-06
  -1.191  0.981E-02  0.981E-02  0.129E-06  0.129E-06
  -1.181  0.123E-01  0.123E-01  0.164E-06  0.164E-06
  -1.171  0.162E-01  0.162E-01  0.221E-06  0.221E-06
  -1.161  0.209E-01  0.209E-01  0.293E-06  0.293E-06
  -1.151  0.258E-01  0.258E-01  0.372E-06  0.372E-06
  -1.141  0.307E-01  0.307E-01  0.454E-06  0.454E-06
  -1.131  0.351E-01  0.351E-01  0.533E-06  0.533E-06
  -1.121  0.391E-01  0.391E-01  0.606E-06  0.606E-06
  -1.111  0.425E-01  0.425E-01  0.668E-06  0.668E-06
  -1.101  0.451E-01  0.451E-01  0.714E-06  0.714E-06
  -1.091  0.468E-01  0.468E-01  0.739E-06  0.739E-06
  -1.081  0.475E-01  0.475E-01  0.741E-06  0.741E-06
  -1.071  0.469E-01  0.469E-01  0.719E-06  0.719E-06
  -1.061  0.450E-01  0.450E-01  0.673E-06  0.673E-06
  -1.051  0.421E-01  0.421E-01  0.609E-06  0.609E-06
  -1.041  0.383E-01  0.383E-01  0.533E-06  0.533E-06
  -1.031  0.341E-01  0.341E-01  0.453E-06  0.453E-06
  -1.021  0.298E-01  0.298E-01  0.378E-06  0.378E-06
  -1.011  0.256E-01  0.256E-01  0.311E-06  0.311E-06
  -1.001  0.220E-01  0.220E-01  0.257E-06  0.257E-06
  -0.991  0.191E-01  0.191E-01  0.218E-06  0.218E-06
  -0.981  0.169E-01  0.169E-01  0.192E-06  0.192E-06
  -0.971  0.155E-01  0.155E-01  0.180E-06  0.180E-06
  -0.961  0.149E-01  0.149E-01  0.178E-06  0.178E-06
  -0.951  0.149E-01  0.149E-01  0.184E-06  0.184E-06
  -0.941  0.152E-01  0.152E-01  0.194E-06  0.194E-06
  -0.931  0.156E-01  0.156E-01  0.204E-06  0.204E-06
  -0.921  0.159E-01  0.159E-01  0.211E-06  0.211E-06
  -0.911  0.157E-01  0.157E-01  0.213E-06  0.213E-06
  -0.901  0.151E-01  0.151E-01  0.209E-06  0.209E-06
  -0.891  0.142E-01  0.142E-01  0.202E-06  0.202E-06
  -0.881  0.132E-01  0.132E-01  0.196E-06  0.196E-06
  -0.871  0.126E-01  0.126E-01  0.195E-06  0.195E-06
  -0.861  0.127E-01  0.127E-01  0.203E-06  0.203E-06
  -0.851  0.136E-01  0.136E-01  0.223E-06  0.223E-06
  -0.841  0.154E-01  0.154E-01  0.254E-06  0.254E-06
  -0.831  0.180E-01  0.180E-01  0.293E-06  0.293E-06
  -0.821  0.209E-01  0.209E-01  0.334E-06  0.334E-06
  -0.811  0.237E-01  0.237E-01  0.370E-06  0.370E-06
  -0.801  0.260E-01  0.260E-01  0.396E-06  0.396E-06
  -0.791  0.274E-01  0.274E-01  0.407E-06  0.407E-06
  -0.781  0.277E-01  0.277E-01  0.402E-06  0.402E-06
  -0.771  0.270E-01  0.270E-01  0.383E-06  0.383E-06
  -0.761  0.254E-01  0.254E-01  0.353E-06  0.353E-06
  -0.751  0.232E-01  0.232E-01  0.317E-06  0.317E-06
  -0.741  0.208E-01  0.208E-01  0.278E-06  0.278E-06
  -0.731  0.182E-01  0.182E-01  0.241E-06  0.241E-06
  -0.721  0.158E-01  0.158E-01  0.207E-06  0.207E-06
  -0.711  0.135E-01  0.135E-01  0.177E-06  0.177E-06
  -0.701  0.114E-01  0.114E-01  0.150E-06  0.150E-06
  -0.691  0.935E-02  0.935E-02  0.125E-06  0.125E-06
  -0.681  0.749E-02  0.749E-02  0.102E-06  0.102E-06
  -0.671  0.581E-02  0.581E-02  0.825E-07  0.825E-07
  -0.661  0.443E-02  0.443E-02  0.680E-07  0.680E-07
  -0.651  0.352E-02  0.352E-02  0.616E-07  0.616E-07
  -0.641  0.328E-02  0.328E-02  0.668E-07  0.668E-07
  -0.631  0.390E-02  0.390E-02  0.871E-07  0.871E-07
  -0.621  0.553E-02  0.553E-02  0.125E-06  0.125E-06
  -0.611  0.821E-02  0.821E-02  0.181E-06  0.181E-06
  -0.601  0.119E-01  0.119E-01  0.255E-06  0.255E-06
  -0.591  0.164E-01  0.164E-01  0.341E-06  0.341E-06
  -0.581  0.213E-01  0.213E-01  0.433E-06  0.433E-06
  -0.571  0.261E-01  0.261E-01  0.521E-06  0.521E-06
  -0.561  0.303E-01  0.303E-01  0.593E-06  0.593E-06
  -0.551  0.334E-01  0.334E-01  0.641E-06  0.641E-06
  -0.541  0.347E-01  0.347E-01  0.654E-06  0.654E-06
  -0.531  0.341E-01  0.341E-01  0.631E-06  0.631E-06
  -0.521  0.316E-01  0.316E-01  0.572E-06  0.572E-06
  -0.511  0.274E-01  0.274E-01  0.485E-06  0.485E-06
  -0.501  0.221E-01  0.221E-01  0.381E-06  0.381E-06
  -0.491  0.164E-01  0.164E-01  0.274E-06  0.274E-06
  -0.481  0.110E-01  0.110E-01  0.177E-06  0.177E-06
  -0.471  0.640E-02  0.640E-02  0.100E-06  0.100E-06
  -0.461  0.315E-02  0.315E-02  0.497E-07  0.497E-07
  -0.451  0.139E-02  0.139E-02  0.287E-07  0.287E-07
  -0.441  0.109E-02  0.109E-02  0.351E-07  0.351E-07
  -0.431  0.202E-02  0.202E-02  0.644E-07  0.644E-07
  -0.421  0.388E-02  0.388E-02  0.110E-06  0.110E-06
  -0.411  0.631E-02  0.631E-02  0.166E-06  0.166E-06
  -0.401  0.899E-02  0.899E-02  0.226E-06  0.226E-06
  -0.391  0.117E-01  0.117E-01  0.285E-06  0.285E-06
  -0.381  0.142E-01  0.142E-01  0.340E-06  0.340E-06
  -0.371  0.165E-01  0.165E-01  0.392E-06  0.392E-06
  -0.361  0.186E-01  0.186E-01  0.439E-06  0.439E-06
  -0.351  0.206E-01  0.206E-01  0.483E-06  0.483E-06
  -0.341  0.225E-01  0.225E-01  0.525E-06  0.525E-06
  -0.331  0.243E-01  0.243E-01  0.563E-06  0.563E-06
  -0.321  0.259E-01  0.259E-01  0.596E-06  0.596E-06
  -0.311  0.271E-01  0.271E-01  0.619E-06  0.619E-06
  -0.301  0.279E-01  0.279E-01  0.629E-06  0.629E-06
  -0.291  0.279E-01  0.279E-01  0.623E-06  0.623E-06
  -0.281  0.271E-01  0.271E-01  0.597E-06  0.597E-06
  -0.271  0.256E-01  0.256E-01  0.555E-06  0.555E-06
  -0.261  0.234E-01  0.234E-01  0.501E-06  0.501E-06
  -0.251  0.210E-01  0.210E-01  0.442E-06  0.442E-06
  -0.241  0.186E-01  0.186E-01  0.388E-06  0.388E-06
  -0.231  0.166E-01  0.166E-01  0.347E-06  0.347E-06
  -0.221  0.154E-01  0.154E-01  0.323E-06  0.323E-06
  -0.211  0.149E-01  0.149E-01  0.317E-06  0.317E-06
  -0.201  0.150E-01  0.150E-01  0.327E-06  0.327E-06
  -0.191  0.155E-01  0.155E-01  0.344E-06  0.344E-06
  -0.181  0.160E-01  0.160E-01  0.361E-06  0.361E-06
  -0.171  0.162E-01  0.162E-01  0.371E-06  0.371E-06
  -0.161  0.161E-01  0.161E-01  0.371E-06  0.371E-06
  -0.151  0.156E-01  0.156E-01  0.363E-06  0.363E-06
  -0.141  0.150E-01  0.150E-01  0.353E-06  0.353E-06
  -0.131  0.148E-01  0.148E-01  0.352E-06  0.352E-06
  -0.121  0.155E-01  0.155E-01  0.369E-06  0.369E-06
  -0.111  0.173E-01  0.173E-01  0.415E-06  0.415E-06
  -0.101  0.206E-01  0.206E-01  0.491E-06  0.491E-06
  -0.091  0.252E-01  0.252E-01  0.598E-06  0.598E-06
  -0.081  0.309E-01  0.309E-01  0.725E-06  0.725E-06
  -0.071  0.373E-01  0.373E-01  0.863E-06  0.863E-06
  -0.061  0.435E-01  0.435E-01  0.994E-06  0.994E-06
  -0.051  0.492E-01  0.492E-01  0.111E-05  0.111E-05
  -0.041  0.536E-01  0.536E-01  0.119E-05  0.119E-05
  -0.031  0.564E-01  0.564E-01  0.123E-05  0.123E-05
  -0.021  0.573E-01  0.573E-01  0.122E-05  0.122E-05
  -0.011  0.563E-01  0.563E-01  0.118E-05  0.118E-05
  -0.001  0.537E-01  0.537E-01  0.110E-05  0.110E-05
   0.009  0.496E-01  0.496E-01  0.100E-05  0.100E-05
   0.019  0.444E-01  0.444E-01  0.888E-06  0.888E-06
   0.029  0.387E-01  0.387E-01  0.767E-06  0.767E-06
   0.039  0.328E-01  0.328E-01  0.650E-06  0.650E-06
   0.049  0.273E-01  0.273E-01  0.542E-06  0.542E-06
   0.059  0.225E-01  0.225E-01  0.452E-06  0.452E-06
   0.069  0.188E-01  0.188E-01  0.384E-06  0.384E-06
   0.079  0.165E-01  0.165E-01  0.342E-06  0.342E-06
   0.089  0.158E-01  0.158E-01  0.330E-06  0.330E-06
   0.099  0.168E-01  0.168E-01  0.351E-06  0.351E-06
   0.109  0.193E-01  0.193E-01  0.403E-06  0.403E-06
   0.119  0.233E-01  0.233E-01  0.484E-06  0.484E-06
   0.129  0.284E-01  0.284E-01  0.591E-06  0.591E-06
   0.139  0.344E-01  0.344E-01  0.719E-06  0.719E-06
   0.149  0.410E-01  0.410E-01  0.864E-06  0.864E-06
   0.159  0.480E-01  0.480E-01  0.102E-05  0.102E-05
   0.169  0.553E-01  0.553E-01  0.119E-05  0.119E-05
   0.179  0.628E-01  0.628E-01  0.136E-05  0.136E-05
   0.189  0.700E-01  0.700E-01  0.153E-05  0.153E-05
   0.199  0.767E-01  0.767E-01  0.167E-05  0.167E-05
   0.209  0.824E-01  0.824E-01  0.180E-05  0.180E-05
   0.219  0.866E-01  0.866E-01  0.187E-05  0.187E-05
   0.229  0.886E-01  0.886E-01  0.190E-05  0.190E-05
   0.239  0.883E-01  0.883E-01  0.187E-05  0.187E-05
   0.249  0.855E-01  0.855E-01  0.179E-05  0.179E-05
   0.259  0.804E-01  0.803E-01  0.165E-05  0.165E-05
   0.269  0.734E-01  0.734E-01  0.148E-05  0.148E-05
   0.279  0.653E-01  0.653E-01  0.129E-05  0.129E-05
   0.289  0.569E-01  0.569E-01  0.110E-05  0.110E-05
   0.299  0.491E-01  0.491E-01  0.923E-06  0.923E-06
   0.309  0.425E-01  0.425E-01  0.777E-06  0.777E-06
   0.319  0.375E-01  0.375E-01  0.669E-06  0.669E-06
   0.329  0.345E-01  0.345E-01  0.601E-06  0.601E-06
   0.339  0.334E-01  0.334E-01  0.571E-06  0.571E-06
   0.349  0.338E-01  0.338E-01  0.573E-06  0.573E-06
   0.359  0.355E-01  0.355E-01  0.601E-06  0.601E-06
   0.369  0.379E-01  0.379E-01  0.649E-06  0.649E-06
   0.379  0.410E-01  0.410E-01  0.716E-06  0.716E-06
   0.389  0.449E-01  0.449E-01  0.805E-06  0.805E-06
   0.399  0.499E-01  0.499E-01  0.925E-06  0.925E-06
   0.409  0.566E-01  0.566E-01  0.109E-05  0.109E-05
   0.419  0.657E-01  0.657E-01  0.131E-05  0.131E-05
   0.429  0.775E-01  0.775E-01  0.158E-05  0.158E-05
   0.439  0.919E-01  0.919E-01  0.191E-05  0.191E-05
   0.449  0.108E+00  0.108E+00  0.226E-05  0.226E-05
   0.459  0.124E+00  0.124E+00  0.261E-05  0.261E-05
   0.469  0.139E+00  0.139E+00  0.290E-05  0.290E-05
   0.479  0.149E+00  0.149E+00  0.310E-05  0.310E-05
   0.489  0.154E+00  0.154E+00  0.316E-05  0.316E-05
   0.499  0.153E+00  0.153E+00  0.308E-05  0.308E-05
   0.509  0.145E+00  0.145E+00  0.286E-05  0.286E-05
   0.519  0.132E+00  0.132E+00  0.253E-05  0.253E-05
   0.529  0.115E+00  0.115E+00  0.214E-05  0.214E-05
   0.539  0.977E-01  0.977E-01  0.173E-05  0.173E-05
   0.549  0.812E-01  0.812E-01  0.135E-05  0.135E-05
   0.559  0.679E-01  0.679E-01  0.105E-05  0.105E-05
   0.569  0.592E-01  0.592E-01  0.854E-06  0.854E-06
   0.579  0.557E-01  0.557E-01  0.766E-06  0.766E-06
   0.589  0.575E-01  0.575E-01  0.782E-06  0.782E-06
   0.599  0.638E-01  0.637E-01  0.886E-06  0.886E-06
   0.609  0.736E-01  0.736E-01  0.106E-05  0.106E-05
   0.619  0.859E-01  0.859E-01  0.127E-05  0.127E-05
   0.629  0.997E-01  0.997E-01  0.151E-05  0.151E-05
   0.639  0.114E+00  0.114E+00  0.176E-05  0.176E-05
   0.649  0.129E+00  0.129E+00  0.202E-05  0.202E-05
   0.659  0.145E+00  0.145E+00  0.228E-05  0.228E-05
   0.669  0.161E+00  0.161E+00  0.256E-05  0.256E-05
   0.679  0.179E+00  0.179E+00  0.285E-05  0.285E-05
   0.689  0.197E+00  0.197E+00  0.316E-05  0.316E-05
   0.699  0.217E+00  0.217E+00  0.349E-05  0.349E-05
   0.709  0.237E+00  0.237E+00  0.381E-05  0.381E-05
   0.719  0.256E+00  0.256E+00  0.411E-05  0.411E-05
   0.729  0.271E+00  0.271E+00  0.436E-05  0.436E-05
   0.739  0.282E+00  0.282E+00  0.453E-05  0.453E-05
   0.749  0.286E+00  0.286E+00  0.461E-05  0.461E-05
   0.759  0.284E+00  0.283E+00  0.456E-05  0.456E-05
   0.769  0.274E+00  0.274E+00  0.440E-05  0.440E-05
   0.779  0.259E+00  0.259E+00  0.414E-05  0.414E-05
   0.789  0.240E+00  0.240E+00  0.380E-05  0.380E-05
   0.799  0.218E+00  0.218E+00  0.343E-05  0.343E-05
   0.809  0.197E+00  0.197E+00  0.307E-05  0.307E-05
   0.819  0.177E+00  0.177E+00  0.273E-05  0.273E-05
   0.829  0.161E+00  0.161E+00  0.245E-05  0.245E-05
   0.839  0.148E+00  0.148E+00  0.224E-05  0.224E-05
   0.849  0.138E+00  0.138E+00  0.210E-05  0.210E-05
   0.859  0.131E+00  0.131E+00  0.201E-05  0.201E-05
   0.869  0.126E+00  0.126E+00  0.197E-05  0.197E-05
   0.879  0.123E+00  0.123E+00  0.196E-05  0.196E-05
   0.889  0.122E+00  0.122E+00  0.198E-05  0.198E-05
   0.899  0.121E+00  0.121E+00  0.202E-05  0.202E-05
   0.909  0.122E+00  0.122E+00  0.208E-05  0.208E-05
   0.919  0.125E+00  0.125E+00  0.216E-05  0.216E-05
   0.929  0.128E+00  0.128E+00  0.227E-05  0.227E-05
   0.939  0.134E+00  0.134E+00  0.240E-05  0.240E-05
   0.949  0.140E+00  0.140E+00  0.255E-05  0.255E-05
   0.959  0.147E+00  0.147E+00  0.272E-05  0.272E-05
   0.969  0.155E+00  0.155E+00  0.291E-05  0.291E-05
   0.979  0.164E+00  0.164E+00  0.312E-05  0.312E-05
   0.989  0.173E+00  0.173E+00  0.334E-05  0.334E-05
   0.999  0.183E+00  0.183E+00  0.357E-05  0.357E-05
   1.009  0.192E+00  0.192E+00  0.380E-05  0.380E-05
   1.019  0.201E+00  0.201E+00  0.400E-05  0.400E-05
   1.029  0.208E+00  0.208E+00  0.415E-05  0.415E-05
   1.039  0.212E+00  0.212E+00  0.423E-05  0.423E-05
   1.049  0.211E+00  0.211E+00  0.421E-05  0.421E-05
   1.059  0.205E+00  0.205E+00  0.408E-05  0.408E-05
   1.069  0.194E+00  0.194E+00  0.385E-05  0.385E-05
   1.079  0.179E+00  0.179E+00  0.353E-05  0.353E-05
   1.089  0.161E+00  0.161E+00  0.315E-05  0.315E-05
   1.099  0.143E+00  0.143E+00  0.276E-05  0.276E-05
   1.109  0.125E+00  0.125E+00  0.240E-05  0.240E-05
   1.119  0.110E+00  0.110E+00  0.210E-05  0.210E-05
   1.129  0.991E-01  0.991E-01  0.189E-05  0.189E-05
   1.139  0.926E-01  0.926E-01  0.176E-05  0.176E-05
   1.149  0.905E-01  0.905E-01  0.173E-05  0.173E-05
   1.159  0.923E-01  0.922E-01  0.178E-05  0.178E-05
   1.169  0.971E-01  0.971E-01  0.189E-05  0.189E-05
   1.179  0.104E+00  0.104E+00  0.205E-05  0.205E-05
   1.189  0.113E+00  0.113E+00  0.224E-05  0.224E-05
   1.199  0.123E+00  0.123E+00  0.245E-05  0.245E-05
   1.209  0.134E+00  0.134E+00  0.267E-05  0.267E-05
   1.219  0.146E+00  0.146E+00  0.290E-05  0.290E-05
   1.229  0.158E+00  0.158E+00  0.314E-05  0.314E-05
   1.239  0.172E+00  0.172E+00  0.340E-05  0.340E-05
   1.249  0.186E+00  0.186E+00  0.367E-05  0.367E-05
   1.259  0.200E+00  0.200E+00  0.394E-05  0.394E-05
   1.269  0.212E+00  0.212E+00  0.420E-05  0.420E-05
   1.279  0.222E+00  0.222E+00  0.442E-05  0.442E-05
   1.289  0.228E+00  0.228E+00  0.459E-05  0.459E-05
   1.299  0.229E+00  0.229E+00  0.467E-05  0.467E-05
   1.309  0.226E+00  0.226E+00  0.468E-05  0.468E-05
   1.319  0.218E+00  0.218E+00  0.460E-05  0.460E-05
   1.329  0.207E+00  0.207E+00  0.446E-05  0.446E-05
   1.339  0.194E+00  0.194E+00  0.427E-05  0.427E-05
   1.349  0.181E+00  0.181E+00  0.406E-05  0.406E-05
   1.359  0.170E+00  0.170E+00  0.384E-05  0.384E-05
   1.369  0.161E+00  0.161E+00  0.365E-05  0.365E-05
   1.379  0.156E+00  0.155E+00  0.349E-05  0.349E-05
   1.389  0.153E+00  0.153E+00  0.338E-05  0.338E-05
   1.399  0.154E+00  0.154E+00  0.333E-05  0.333E-05
   1.409  0.159E+00  0.159E+00  0.336E-05  0.336E-05
   1.419  0.166E+00  0.166E+00  0.345E-05  0.345E-05
   1.429  0.175E+00  0.175E+00  0.362E-05  0.362E-05
   1.439  0.187E+00  0.187E+00  0.385E-05  0.385E-05
   1.449  0.201E+00  0.201E+00  0.414E-05  0.414E-05
   1.459  0.215E+00  0.215E+00  0.447E-05  0.447E-05
   1.469  0.230E+00  0.230E+00  0.482E-05  0.482E-05
   1.479  0.245E+00  0.245E+00  0.518E-05  0.518E-05
   1.489  0.259E+00  0.259E+00  0.552E-05  0.552E-05
   1.499  0.270E+00  0.270E+00  0.581E-05  0.581E-05
   1.509  0.279E+00  0.279E+00  0.602E-05  0.602E-05
   1.519  0.283E+00  0.283E+00  0.615E-05  0.615E-05
   1.529  0.282E+00  0.282E+00  0.618E-05  0.618E-05
   1.539  0.277E+00  0.277E+00  0.611E-05  0.611E-05
   1.549  0.268E+00  0.268E+00  0.594E-05  0.594E-05
   1.559  0.255E+00  0.255E+00  0.571E-05  0.571E-05
   1.569  0.241E+00  0.241E+00  0.544E-05  0.544E-05
   1.579  0.227E+00  0.227E+00  0.517E-05  0.517E-05
   1.589  0.213E+00  0.213E+00  0.492E-05  0.492E-05
   1.599  0.202E+00  0.202E+00  0.473E-05  0.473E-05
   1.609  0.193E+00  0.193E+00  0.461E-05  0.461E-05
   1.619  0.188E+00  0.187E+00  0.457E-05  0.457E-05
   1.629  0.185E+00  0.185E+00  0.461E-05  0.461E-05
   1.639  0.186E+00  0.186E+00  0.471E-05  0.471E-05
   1.649  0.188E+00  0.188E+00  0.485E-05  0.485E-05
   1.659  0.192E+00  0.192E+00  0.500E-05  0.500E-05
   1.669  0.195E+00  0.195E+00  0.512E-05  0.512E-05
   1.679  0.195E+00  0.195E+00  0.517E-05  0.517E-05
   1.689  0.193E+00  0.193E+00  0.511E-05  0.511E-05
   1.699  0.187E+00  0.187E+00  0.494E-05  0.494E-05
   1.709  0.178E+00  0.178E+00  0.468E-05  0.468E-05
   1.719  0.166E+00  0.166E+00  0.435E-05  0.435E-05
   1.729  0.154E+00  0.154E+00  0.401E-05  0.401E-05
   1.739  0.143E+00  0.143E+00  0.370E-05  0.370E-05
   1.749  0.135E+00  0.135E+00  0.348E-05  0.348E-05
   1.759  0.132E+00  0.132E+00  0.338E-05  0.338E-05
   1.769  0.132E+00  0.132E+00  0.339E-05  0.339E-05
   1.779  0.136E+00  0.136E+00  0.350E-05  0.350E-05
   1.789  0.142E+00  0.142E+00  0.368E-05  0.368E-05
   1.799  0.149E+00  0.149E+00  0.390E-05  0.390E-05
   1.809  0.157E+00  0.157E+00  0.412E-05  0.412E-05
   1.819  0.164E+00  0.164E+00  0.434E-05  0.434E-05
   1.829  0.171E+00  0.171E+00  0.454E-05  0.454E-05
   1.839  0.177E+00  0.177E+00  0.473E-05  0.473E-05
   1.849  0.183E+00  0.183E+00  0.491E-05  0.491E-05
   1.859  0.187E+00  0.187E+00  0.506E-05  0.506E-05
   1.869  0.190E+00  0.190E+00  0.517E-05  0.517E-05
   1.879  0.191E+00  0.191E+00  0.522E-05  0.522E-05
   1.889  0.189E+00  0.188E+00  0.521E-05  0.521E-05
   1.899  0.183E+00  0.183E+00  0.510E-05  0.510E-05
   1.909  0.175E+00  0.175E+00  0.492E-05  0.492E-05
   1.919  0.164E+00  0.164E+00  0.467E-05  0.467E-05
   1.929  0.152E+00  0.152E+00  0.437E-05  0.437E-05
   1.939  0.141E+00  0.141E+00  0.408E-05  0.408E-05
   1.949  0.130E+00  0.130E+00  0.382E-05  0.382E-05
   1.959  0.123E+00  0.123E+00  0.363E-05  0.363E-05
   1.969  0.119E+00  0.119E+00  0.355E-05  0.355E-05
   1.979  0.119E+00  0.119E+00  0.359E-05  0.359E-05
   1.989  0.123E+00  0.123E+00  0.374E-05  0.374E-05
   1.999  0.130E+00  0.130E+00  0.400E-05  0.400E-05
   2.009  0.140E+00  0.140E+00  0.431E-05  0.431E-05
   2.019  0.150E+00  0.150E+00  0.465E-05  0.465E-05
   2.029  0.159E+00  0.159E+00  0.495E-05  0.495E-05
   2.039  0.166E+00  0.166E+00  0.517E-05  0.517E-05
   2.049  0.169E+00  0.169E+00  0.526E-05  0.526E-05
   2.059  0.167E+00  0.167E+00  0.522E-05  0.522E-05
   2.069  0.162E+00  0.162E+00  0.503E-05  0.503E-05
   2.079  0.153E+00  0.153E+00  0.474E-05  0.474E-05
   2.089  0.142E+00  0.142E+00  0.438E-05  0.438E-05
   2.099  0.132E+00  0.132E+00  0.401E-05  0.401E-05
   2.109  0.123E+00  0.123E+00  0.371E-05  0.371E-05
   2.119  0.118E+00  0.118E+00  0.351E-05  0.351E-05
   2.129  0.116E+00  0.116E+00  0.344E-05  0.344E-05
   2.139  0.119E+00  0.119E+00  0.350E-05  0.350E-05
   2.149  0.125E+00  0.125E+00  0.368E-05  0.368E-05
   2.159  0.132E+00  0.132E+00  0.392E-05  0.392E-05
   2.169  0.139E+00  0.139E+00  0.418E-05  0.418E-05
   2.179  0.146E+00  0.146E+00  0.441E-05  0.441E-05
   2.189  0.150E+00  0.150E+00  0.460E-05  0.460E-05
   2.199  0.151E+00  0.151E+00  0.472E-05  0.472E-05
   2.209  0.151E+00  0.151E+00  0.478E-05  0.478E-05
   2.219  0.149E+00  0.149E+00  0.480E-05  0.480E-05
   2.229  0.146E+00  0.146E+00  0.479E-05  0.479E-05
   2.239  0.144E+00  0.144E+00  0.478E-05  0.478E-05
   2.249  0.141E+00  0.141E+00  0.476E-05  0.476E-05
   2.259  0.139E+00  0.139E+00  0.474E-05  0.474E-05
   2.269  0.138E+00  0.138E+00  0.471E-05  0.471E-05
   2.279  0.136E+00  0.136E+00  0.467E-05  0.467E-05
   2.289  0.134E+00  0.134E+00  0.462E-05  0.462E-05
   2.299  0.132E+00  0.132E+00  0.456E-05  0.456E-05
   2.309  0.131E+00  0.131E+00  0.451E-05  0.451E-05
   2.319  0.129E+00  0.129E+00  0.446E-05  0.446E-05
   2.329  0.128E+00  0.128E+00  0.443E-05  0.443E-05
   2.339  0.127E+00  0.127E+00  0.441E-05  0.441E-05
   2.349  0.126E+00  0.126E+00  0.439E-05  0.439E-05
   2.359  0.125E+00  0.125E+00  0.436E-05  0.436E-05
   2.369  0.124E+00  0.124E+00  0.433E-05  0.433E-05
   2.379  0.122E+00  0.122E+00  0.427E-05  0.427E-05
   2.389  0.120E+00  0.120E+00  0.420E-05  0.420E-05
   2.399  0.118E+00  0.118E+00  0.415E-05  0.415E-05
   2.409  0.116E+00  0.116E+00  0.414E-05  0.414E-05
   2.419  0.116E+00  0.116E+00  0.423E-05  0.423E-05
   2.429  0.118E+00  0.118E+00  0.450E-05  0.450E-05
   2.439  0.121E+00  0.121E+00  0.502E-05  0.502E-05
   2.449  0.127E+00  0.127E+00  0.593E-05  0.593E-05
   2.459  0.133E+00  0.133E+00  0.738E-05  0.738E-05
   2.469  0.140E+00  0.140E+00  0.960E-05  0.960E-05
   2.479  0.146E+00  0.146E+00  0.129E-04  0.129E-04
   2.489  0.150E+00  0.150E+00  0.176E-04  0.176E-04
   2.499  0.152E+00  0.152E+00  0.241E-04  0.241E-04
   2.509  0.151E+00  0.151E+00  0.329E-04  0.329E-04
   2.519  0.147E+00  0.147E+00  0.443E-04  0.443E-04
   2.529  0.140E+00  0.140E+00  0.587E-04  0.587E-04
   2.539  0.132E+00  0.132E+00  0.763E-04  0.763E-04
   2.549  0.123E+00  0.122E+00  0.970E-04  0.970E-04
   2.559  0.113E+00  0.113E+00  0.121E-03  0.121E-03
   2.569  0.105E+00  0.104E+00  0.147E-03  0.147E-03
   2.579  0.977E-01  0.974E-01  0.174E-03  0.174E-03
   2.589  0.929E-01  0.925E-01  0.204E-03  0.204E-03
   2.599  0.907E-01  0.902E-01  0.233E-03  0.233E-03
   2.609  0.911E-01  0.906E-01  0.263E-03  0.263E-03
   2.619  0.943E-01  0.937E-01  0.292E-03  0.292E-03
   2.629  0.100E+00  0.993E-01  0.321E-03  0.321E-03
   2.639  0.108E+00  0.107E+00  0.348E-03  0.348E-03
   2.649  0.117E+00  0.117E+00  0.375E-03  0.375E-03
   2.659  0.128E+00  0.127E+00  0.401E-03  0.401E-03
   2.669  0.139E+00  0.138E+00  0.426E-03  0.426E-03
   2.679  0.149E+00  0.148E+00  0.450E-03  0.450E-03
   2.689  0.156E+00  0.155E+00  0.472E-03  0.472E-03
   2.699  0.161E+00  0.160E+00  0.494E-03  0.494E-03
   2.709  0.160E+00  0.159E+00  0.515E-03  0.515E-03
   2.719  0.156E+00  0.155E+00  0.536E-03  0.536E-03
   2.729  0.147E+00  0.145E+00  0.555E-03  0.555E-03
   2.739  0.134E+00  0.133E+00  0.575E-03  0.575E-03
   2.749  0.121E+00  0.119E+00  0.595E-03  0.595E-03
   2.759  0.107E+00  0.106E+00  0.614E-03  0.614E-03
   2.769  0.962E-01  0.949E-01  0.632E-03  0.632E-03
   2.779  0.890E-01  0.877E-01  0.650E-03  0.650E-03
   2.789  0.862E-01  0.849E-01  0.666E-03  0.666E-03
   2.799  0.879E-01  0.865E-01  0.681E-03  0.681E-03
   2.809  0.931E-01  0.918E-01  0.695E-03  0.695E-03
   2.819  0.101E+00  0.993E-01  0.711E-03  0.711E-03
   2.829  0.109E+00  0.108E+00  0.728E-03  0.728E-03
   2.839  0.117E+00  0.115E+00  0.748E-03  0.748E-03
   2.849  0.123E+00  0.121E+00  0.768E-03  0.768E-03
   2.859  0.126E+00  0.125E+00  0.788E-03  0.788E-03
   2.869  0.128E+00  0.126E+00  0.804E-03  0.804E-03
   2.879  0.128E+00  0.127E+00  0.816E-03  0.816E-03
   2.889  0.128E+00  0.126E+00  0.824E-03  0.824E-03
   2.899  0.127E+00  0.125E+00  0.829E-03  0.829E-03
   2.909  0.126E+00  0.124E+00  0.834E-03  0.834E-03
   2.919  0.125E+00  0.123E+00  0.844E-03  0.844E-03
   2.929  0.124E+00  0.122E+00  0.860E-03  0.860E-03
   2.939  0.122E+00  0.120E+00  0.884E-03  0.884E-03
   2.949  0.119E+00  0.118E+00  0.912E-03  0.912E-03
   2.959  0.116E+00  0.114E+00  0.940E-03  0.940E-03
   2.969  0.111E+00  0.109E+00  0.963E-03  0.963E-03
   2.979  0.106E+00  0.104E+00  0.976E-03  0.976E-03
   2.989  0.101E+00  0.987E-01  0.980E-03  0.980E-03
   2.999  0.964E-01  0.944E-01  0.976E-03  0.976E-03
   3.009  0.935E-01  0.915E-01  0.971E-03  0.971E-03
   3.019  0.926E-01  0.906E-01  0.971E-03  0.971E-03
   3.029  0.939E-01  0.919E-01  0.982E-03  0.982E-03
   3.039  0.976E-01  0.956E-01  0.101E-02  0.101E-02
   3.049  0.103E+00  0.101E+00  0.105E-02  0.105E-02
   3.059  0.111E+00  0.109E+00  0.110E-02  0.110E-02
   3.069  0.119E+00  0.117E+00  0.114E-02  0.114E-02
   3.079  0.128E+00  0.126E+00  0.119E-02  0.119E-02
   3.089  0.137E+00  0.134E+00  0.121E-02  0.121E-02
   3.099  0.144E+00  0.141E+00  0.122E-02  0.122E-02
   3.109  0.149E+00  0.147E+00  0.120E-02  0.120E-02
   3.119  0.151E+00  0.149E+00  0.118E-02  0.118E-02
   3.129  0.150E+00  0.148E+00  0.115E-02  0.115E-02
   3.139  0.145E+00  0.143E+00  0.114E-02  0.114E-02
   3.149  0.137E+00  0.134E+00  0.114E-02  0.114E-02
   3.159  0.126E+00  0.124E+00  0.116E-02  0.116E-02
   3.169  0.114E+00  0.111E+00  0.120E-02  0.120E-02
   3.179  0.102E+00  0.994E-01  0.126E-02  0.126E-02
   3.189  0.917E-01  0.891E-01  0.133E-02  0.133E-02
   3.199  0.841E-01  0.813E-01  0.138E-02  0.138E-02
   3.209  0.796E-01  0.767E-01  0.142E-02  0.142E-02
   3.219  0.780E-01  0.751E-01  0.144E-02  0.144E-02
   3.229  0.788E-01  0.759E-01  0.143E-02  0.143E-02
   3.239  0.811E-01  0.783E-01  0.139E-02  0.139E-02
   3.249  0.841E-01  0.814E-01  0.134E-02  0.134E-02
   3.259  0.873E-01  0.848E-01  0.129E-02  0.129E-02
   3.269  0.907E-01  0.882E-01  0.125E-02  0.125E-02
   3.279  0.944E-01  0.919E-01  0.124E-02  0.124E-02
   3.289  0.989E-01  0.964E-01  0.125E-02  0.125E-02
   3.299  0.104E+00  0.102E+00  0.129E-02  0.129E-02
   3.309  0.111E+00  0.108E+00  0.136E-02  0.136E-02
   3.319  0.119E+00  0.116E+00  0.144E-02  0.144E-02
   3.329  0.126E+00  0.123E+00  0.153E-02  0.153E-02
   3.339  0.133E+00  0.130E+00  0.159E-02  0.159E-02
   3.349  0.139E+00  0.135E+00  0.163E-02  0.163E-02
   3.359  0.141E+00  0.138E+00  0.164E-02  0.164E-02
   3.369  0.141E+00  0.137E+00  0.161E-02  0.161E-02
   3.379  0.137E+00  0.134E+00  0.155E-02  0.155E-02
   3.389  0.130E+00  0.127E+00  0.148E-02  0.148E-02
   3.399  0.122E+00  0.119E+00  0.142E-02  0.142E-02
   3.409  0.112E+00  0.109E+00  0.136E-02  0.136E-02
   3.419  0.103E+00  0.100E+00  0.132E-02  0.132E-02
   3.429  0.945E-01  0.918E-01  0.132E-02  0.132E-02
   3.439  0.888E-01  0.861E-01  0.134E-02  0.134E-02
   3.449  0.863E-01  0.836E-01  0.139E-02  0.139E-02
   3.459  0.875E-01  0.846E-01  0.146E-02  0.146E-02
   3.469  0.921E-01  0.890E-01  0.154E-02  0.154E-02
   3.479  0.993E-01  0.960E-01  0.163E-02  0.163E-02
   3.489  0.108E+00  0.104E+00  0.171E-02  0.171E-02
   3.499  0.116E+00  0.112E+00  0.177E-02  0.177E-02
   3.509  0.122E+00  0.119E+00  0.180E-02  0.180E-02
   3.519  0.125E+00  0.122E+00  0.179E-02  0.179E-02
   3.529  0.125E+00  0.121E+00  0.174E-02  0.174E-02
   3.539  0.120E+00  0.117E+00  0.167E-02  0.167E-02
   3.549  0.113E+00  0.110E+00  0.157E-02  0.157E-02
   3.559  0.105E+00  0.102E+00  0.147E-02  0.147E-02
   3.569  0.964E-01  0.937E-01  0.139E-02  0.139E-02
   3.579  0.895E-01  0.869E-01  0.133E-02  0.133E-02
   3.589  0.851E-01  0.825E-01  0.131E-02  0.131E-02
   3.599  0.833E-01  0.807E-01  0.134E-02  0.134E-02
   3.609  0.839E-01  0.811E-01  0.140E-02  0.140E-02
   3.619  0.861E-01  0.831E-01  0.149E-02  0.149E-02
   3.629  0.888E-01  0.856E-01  0.161E-02  0.161E-02
   3.639  0.914E-01  0.879E-01  0.172E-02  0.172E-02
   3.649  0.932E-01  0.896E-01  0.183E-02  0.183E-02
   3.659  0.944E-01  0.906E-01  0.190E-02  0.190E-02
   3.669  0.954E-01  0.915E-01  0.194E-02  0.194E-02
   3.679  0.966E-01  0.927E-01  0.194E-02  0.194E-02
   3.689  0.986E-01  0.948E-01  0.189E-02  0.189E-02
   3.699  0.102E+00  0.981E-01  0.181E-02  0.181E-02
   3.709  0.106E+00  0.102E+00  0.170E-02  0.170E-02
   3.719  0.111E+00  0.107E+00  0.158E-02  0.158E-02
   3.729  0.115E+00  0.112E+00  0.146E-02  0.146E-02
   3.739  0.119E+00  0.116E+00  0.136E-02  0.136E-02
   3.749  0.122E+00  0.119E+00  0.130E-02  0.130E-02
   3.759  0.123E+00  0.121E+00  0.129E-02  0.129E-02
   3.769  0.123E+00  0.120E+00  0.132E-02  0.132E-02
   3.779  0.121E+00  0.119E+00  0.140E-02  0.140E-02
   3.789  0.119E+00  0.116E+00  0.152E-02  0.152E-02
   3.799  0.117E+00  0.114E+00  0.165E-02  0.165E-02
   3.809  0.115E+00  0.111E+00  0.179E-02  0.179E-02
   3.819  0.113E+00  0.109E+00  0.190E-02  0.190E-02
   3.829  0.111E+00  0.107E+00  0.198E-02  0.198E-02
   3.839  0.109E+00  0.105E+00  0.201E-02  0.201E-02
   3.849  0.106E+00  0.102E+00  0.199E-02  0.199E-02
   3.859  0.103E+00  0.987E-01  0.193E-02  0.193E-02
   3.869  0.982E-01  0.945E-01  0.185E-02  0.185E-02
   3.879  0.933E-01  0.898E-01  0.174E-02  0.174E-02
   3.889  0.885E-01  0.852E-01  0.164E-02  0.164E-02
   3.899  0.844E-01  0.813E-01  0.155E-02  0.155E-02
   3.909  0.816E-01  0.786E-01  0.148E-02  0.148E-02
   3.919  0.802E-01  0.774E-01  0.143E-02  0.143E-02
   3.929  0.801E-01  0.773E-01  0.140E-02  0.140E-02
   3.939  0.809E-01  0.781E-01  0.139E-02  0.139E-02
   3.949  0.818E-01  0.790E-01  0.140E-02  0.140E-02
   3.959  0.825E-01  0.796E-01  0.143E-02  0.143E-02
   3.969  0.827E-01  0.797E-01  0.149E-02  0.149E-02
   3.979  0.825E-01  0.794E-01  0.156E-02  0.156E-02
   3.989  0.824E-01  0.791E-01  0.164E-02  0.164E-02
   3.999  0.830E-01  0.795E-01  0.174E-02  0.174E-02
   4.009  0.847E-01  0.810E-01  0.183E-02  0.183E-02
   4.019  0.879E-01  0.841E-01  0.191E-02  0.191E-02
   4.029  0.924E-01  0.885E-01  0.196E-02  0.196E-02
   4.039  0.977E-01  0.938E-01  0.198E-02  0.198E-02
   4.049  0.103E+00  0.995E-01  0.196E-02  0.196E-02
   4.059  0.109E+00  0.105E+00  0.190E-02  0.190E-02
   4.069  0.113E+00  0.110E+00  0.182E-02  0.182E-02
   4.079  0.117E+00  0.113E+00  0.173E-02  0.173E-02
   4.089  0.119E+00  0.116E+00  0.163E-02  0.163E-02
   4.099  0.121E+00  0.118E+00  0.156E-02  0.156E-02
   4.109  0.122E+00  0.119E+00  0.150E-02  0.150E-02
   4.119  0.122E+00  0.119E+00  0.147E-02  0.147E-02
   4.129  0.121E+00  0.118E+00  0.146E-02  0.146E-02
   4.139  0.118E+00  0.115E+00  0.146E-02  0.146E-02
   4.149  0.115E+00  0.112E+00  0.147E-02  0.147E-02
   4.159  0.111E+00  0.109E+00  0.148E-02  0.148E-02
   4.169  0.107E+00  0.104E+00  0.150E-02  0.150E-02
   4.179  0.102E+00  0.991E-01  0.153E-02  0.153E-02
   4.189  0.972E-01  0.941E-01  0.157E-02  0.157E-02
   4.199  0.923E-01  0.890E-01  0.163E-02  0.163E-02
   4.209  0.874E-01  0.840E-01  0.171E-02  0.171E-02
   4.219  0.830E-01  0.795E-01  0.179E-02  0.179E-02
   4.229  0.793E-01  0.756E-01  0.188E-02  0.188E-02
   4.239  0.766E-01  0.727E-01  0.195E-02  0.195E-02
   4.249  0.752E-01  0.712E-01  0.201E-02  0.201E-02
   4.259  0.752E-01  0.712E-01  0.204E-02  0.204E-02
   4.269  0.767E-01  0.726E-01  0.203E-02  0.203E-02
   4.279  0.792E-01  0.752E-01  0.198E-02  0.198E-02
   4.289  0.823E-01  0.785E-01  0.190E-02  0.190E-02
   4.299  0.852E-01  0.816E-01  0.180E-02  0.180E-02
   4.309  0.875E-01  0.842E-01  0.168E-02  0.168E-02
   4.319  0.889E-01  0.858E-01  0.156E-02  0.156E-02
   4.329  0.892E-01  0.863E-01  0.145E-02  0.145E-02
   4.339  0.888E-01  0.861E-01  0.137E-02  0.137E-02
   4.349  0.880E-01  0.854E-01  0.133E-02  0.133E-02
   4.359  0.874E-01  0.848E-01  0.131E-02  0.131E-02
   4.369  0.872E-01  0.846E-01  0.133E-02  0.133E-02
   4.379  0.877E-01  0.849E-01  0.138E-02  0.138E-02
   4.389  0.887E-01  0.858E-01  0.144E-02  0.144E-02
   4.399  0.900E-01  0.870E-01  0.152E-02  0.152E-02
   4.409  0.915E-01  0.882E-01  0.161E-02  0.161E-02
   4.419  0.927E-01  0.893E-01  0.170E-02  0.170E-02
   4.429  0.938E-01  0.903E-01  0.179E-02  0.179E-02
   4.439  0.948E-01  0.911E-01  0.188E-02  0.188E-02
   4.449  0.958E-01  0.919E-01  0.195E-02  0.195E-02
   4.459  0.971E-01  0.931E-01  0.201E-02  0.201E-02
   4.469  0.989E-01  0.948E-01  0.205E-02  0.205E-02
   4.479  0.101E+00  0.971E-01  0.206E-02  0.206E-02
   4.489  0.104E+00  0.999E-01  0.204E-02  0.204E-02
   4.499  0.107E+00  0.103E+00  0.199E-02  0.199E-02
   4.509  0.111E+00  0.107E+00  0.192E-02  0.192E-02
   4.519  0.114E+00  0.110E+00  0.182E-02  0.182E-02
   4.529  0.117E+00  0.114E+00  0.171E-02  0.171E-02
   4.539  0.119E+00  0.116E+00  0.158E-02  0.158E-02
   4.549  0.120E+00  0.117E+00  0.145E-02  0.145E-02
   4.559  0.119E+00  0.116E+00  0.132E-02  0.132E-02
   4.569  0.115E+00  0.113E+00  0.123E-02  0.123E-02
   4.579  0.110E+00  0.107E+00  0.116E-02  0.116E-02
   4.589  0.101E+00  0.990E-01  0.114E-02  0.114E-02
   4.599  0.912E-01  0.889E-01  0.116E-02  0.116E-02
   4.609  0.800E-01  0.776E-01  0.123E-02  0.123E-02
   4.619  0.689E-01  0.663E-01  0.133E-02  0.133E-02
   4.629  0.590E-01  0.561E-01  0.147E-02  0.147E-02
   4.639  0.512E-01  0.480E-01  0.161E-02  0.161E-02
   4.649  0.465E-01  0.430E-01  0.176E-02  0.176E-02
   4.659  0.451E-01  0.413E-01  0.189E-02  0.189E-02
   4.669  0.470E-01  0.430E-01  0.200E-02  0.200E-02
   4.679  0.516E-01  0.475E-01  0.208E-02  0.208E-02
   4.689  0.582E-01  0.540E-01  0.212E-02  0.212E-02
   4.699  0.658E-01  0.616E-01  0.211E-02  0.211E-02
   4.709  0.733E-01  0.691E-01  0.206E-02  0.206E-02
   4.719  0.800E-01  0.760E-01  0.198E-02  0.198E-02
   4.729  0.855E-01  0.818E-01  0.187E-02  0.187E-02
   4.739  0.899E-01  0.864E-01  0.175E-02  0.175E-02
   4.749  0.934E-01  0.901E-01  0.163E-02  0.163E-02
   4.759  0.965E-01  0.934E-01  0.152E-02  0.152E-02
   4.769  0.995E-01  0.967E-01  0.142E-02  0.142E-02
   4.779  0.103E+00  0.100E+00  0.134E-02  0.134E-02
   4.789  0.107E+00  0.104E+00  0.127E-02  0.127E-02
   4.799  0.110E+00  0.108E+00  0.122E-02  0.122E-02
   4.809  0.114E+00  0.111E+00  0.118E-02  0.118E-02
   4.819  0.116E+00  0.114E+00  0.115E-02  0.115E-02
   4.829  0.118E+00  0.116E+00  0.114E-02  0.114E-02
   4.839  0.118E+00  0.115E+00  0.115E-02  0.115E-02
   4.849  0.116E+00  0.114E+00  0.119E-02  0.119E-02
   4.859  0.112E+00  0.110E+00  0.126E-02  0.126E-02
   4.869  0.108E+00  0.105E+00  0.138E-02  0.138E-02
   4.879  0.101E+00  0.982E-01  0.152E-02  0.152E-02
   4.889  0.940E-01  0.907E-01  0.168E-02  0.168E-02
   4.899  0.865E-01  0.828E-01  0.183E-02  0.183E-02
   4.909  0.791E-01  0.752E-01  0.197E-02  0.197E-02
   4.919  0.728E-01  0.686E-01  0.207E-02  0.207E-02
   4.929  0.680E-01  0.638E-01  0.212E-02  0.212E-02
   4.939  0.654E-01  0.612E-01  0.211E-02  0.211E-02
   4.949  0.653E-01  0.612E-01  0.205E-02  0.205E-02
   4.959  0.677E-01  0.639E-01  0.194E-02  0.194E-02
   4.969  0.723E-01  0.687E-01  0.181E-02  0.181E-02
   4.979  0.783E-01  0.749E-01  0.166E-02  0.166E-02
   4.989  0.847E-01  0.816E-01  0.151E-02  0.151E-02
   4.999  0.904E-01  0.876E-01  0.137E-02  0.137E-02
   5.009  0.943E-01  0.918E-01  0.125E-02  0.125E-02
   5.019  0.956E-01  0.932E-01  0.116E-02  0.116E-02
   5.029  0.938E-01  0.916E-01  0.110E-02  0.110E-02
   5.039  0.889E-01  0.868E-01  0.107E-02  0.107E-02
   5.049  0.817E-01  0.796E-01  0.107E-02  0.107E-02
   5.059  0.733E-01  0.711E-01  0.109E-02  0.109E-02
   5.069  0.650E-01  0.627E-01  0.112E-02  0.112E-02
   5.079  0.582E-01  0.559E-01  0.117E-02  0.117E-02
   5.089  0.541E-01  0.517E-01  0.122E-02  0.122E-02
   5.099  0.533E-01  0.507E-01  0.128E-02  0.128E-02
   5.109  0.557E-01  0.531E-01  0.134E-02  0.134E-02
   5.119  0.608E-01  0.580E-01  0.140E-02  0.140E-02
   5.129  0.676E-01  0.646E-01  0.148E-02  0.148E-02
   5.139  0.749E-01  0.718E-01  0.156E-02  0.156E-02
   5.149  0.819E-01  0.786E-01  0.165E-02  0.165E-02
   5.159  0.880E-01  0.845E-01  0.174E-02  0.174E-02
   5.169  0.930E-01  0.894E-01  0.182E-02  0.182E-02
   5.179  0.973E-01  0.936E-01  0.187E-02  0.187E-02
   5.189  0.101E+00  0.976E-01  0.188E-02  0.188E-02
   5.199  0.106E+00  0.102E+00  0.185E-02  0.185E-02
   5.209  0.110E+00  0.106E+00  0.179E-02  0.179E-02
   5.219  0.114E+00  0.111E+00  0.169E-02  0.169E-02
   5.229  0.119E+00  0.115E+00  0.157E-02  0.157E-02
   5.239  0.122E+00  0.119E+00  0.144E-02  0.144E-02
   5.249  0.123E+00  0.120E+00  0.132E-02  0.132E-02
   5.259  0.122E+00  0.120E+00  0.121E-02  0.121E-02
   5.269  0.119E+00  0.116E+00  0.111E-02  0.111E-02
   5.279  0.112E+00  0.110E+00  0.103E-02  0.103E-02
   5.289  0.103E+00  0.102E+00  0.966E-03  0.966E-03
   5.299  0.926E-01  0.908E-01  0.925E-03  0.925E-03
   5.309  0.805E-01  0.786E-01  0.907E-03  0.907E-03
   5.319  0.679E-01  0.661E-01  0.916E-03  0.916E-03
   5.329  0.560E-01  0.541E-01  0.954E-03  0.954E-03
   5.339  0.460E-01  0.440E-01  0.102E-02  0.102E-02
   5.349  0.389E-01  0.366E-01  0.112E-02  0.112E-02
   5.359  0.354E-01  0.329E-01  0.124E-02  0.124E-02
   5.369  0.360E-01  0.333E-01  0.137E-02  0.137E-02
   5.379  0.406E-01  0.376E-01  0.150E-02  0.150E-02
   5.389  0.485E-01  0.453E-01  0.162E-02  0.162E-02
   5.399  0.588E-01  0.554E-01  0.171E-02  0.171E-02
   5.409  0.701E-01  0.665E-01  0.178E-02  0.178E-02
   5.419  0.808E-01  0.772E-01  0.181E-02  0.181E-02
   5.429  0.897E-01  0.861E-01  0.182E-02  0.182E-02
   5.439  0.959E-01  0.922E-01  0.181E-02  0.181E-02
   5.449  0.989E-01  0.953E-01  0.177E-02  0.177E-02
   5.459  0.989E-01  0.955E-01  0.172E-02  0.172E-02
   5.469  0.969E-01  0.936E-01  0.167E-02  0.167E-02
   5.479  0.939E-01  0.907E-01  0.161E-02  0.161E-02
   5.489  0.910E-01  0.879E-01  0.155E-02  0.155E-02
   5.499  0.893E-01  0.863E-01  0.149E-02  0.149E-02
   5.509  0.892E-01  0.864E-01  0.143E-02  0.143E-02
   5.519  0.907E-01  0.880E-01  0.137E-02  0.137E-02
   5.529  0.933E-01  0.907E-01  0.132E-02  0.132E-02
   5.539  0.963E-01  0.938E-01  0.128E-02  0.128E-02
   5.549  0.990E-01  0.965E-01  0.125E-02  0.125E-02
   5.559  0.101E+00  0.984E-01  0.122E-02  0.122E-02
   5.569  0.102E+00  0.992E-01  0.119E-02  0.119E-02
   5.579  0.101E+00  0.988E-01  0.117E-02  0.117E-02
   5.589  0.998E-01  0.975E-01  0.115E-02  0.115E-02
   5.599  0.976E-01  0.953E-01  0.113E-02  0.113E-02
   5.609  0.947E-01  0.924E-01  0.111E-02  0.111E-02
   5.619  0.909E-01  0.887E-01  0.110E-02  0.110E-02
   5.629  0.862E-01  0.840E-01  0.110E-02  0.110E-02
   5.639  0.805E-01  0.783E-01  0.110E-02  0.110E-02
   5.649  0.740E-01  0.717E-01  0.112E-02  0.112E-02
   5.659  0.669E-01  0.646E-01  0.115E-02  0.115E-02
   5.669  0.598E-01  0.575E-01  0.119E-02  0.119E-02
   5.679  0.534E-01  0.509E-01  0.123E-02  0.123E-02
   5.689  0.480E-01  0.455E-01  0.128E-02  0.128E-02
   5.699  0.442E-01  0.415E-01  0.131E-02  0.131E-02
   5.709  0.417E-01  0.390E-01  0.134E-02  0.134E-02
   5.719  0.404E-01  0.377E-01  0.134E-02  0.134E-02
   5.729  0.397E-01  0.371E-01  0.133E-02  0.133E-02
   5.739  0.391E-01  0.365E-01  0.129E-02  0.129E-02
   5.749  0.378E-01  0.353E-01  0.123E-02  0.123E-02
   5.759  0.356E-01  0.333E-01  0.117E-02  0.117E-02
   5.769  0.324E-01  0.302E-01  0.110E-02  0.110E-02
   5.779  0.286E-01  0.265E-01  0.104E-02  0.104E-02
   5.789  0.246E-01  0.226E-01  0.992E-03  0.992E-03
   5.799  0.214E-01  0.195E-01  0.955E-03  0.955E-03
   5.809  0.197E-01  0.178E-01  0.930E-03  0.930E-03
   5.819  0.202E-01  0.184E-01  0.915E-03  0.915E-03
   5.829  0.235E-01  0.216E-01  0.909E-03  0.909E-03
   5.839  0.295E-01  0.277E-01  0.912E-03  0.912E-03
   5.849  0.382E-01  0.364E-01  0.926E-03  0.926E-03
   5.859  0.490E-01  0.471E-01  0.951E-03  0.951E-03
   5.869  0.612E-01  0.592E-01  0.987E-03  0.987E-03
   5.879  0.740E-01  0.719E-01  0.103E-02  0.103E-02
   5.889  0.865E-01  0.843E-01  0.109E-02  0.109E-02
   5.899  0.982E-01  0.959E-01  0.115E-02  0.115E-02
   5.909  0.109E+00  0.106E+00  0.120E-02  0.120E-02
   5.919  0.117E+00  0.115E+00  0.124E-02  0.124E-02
   5.929  0.125E+00  0.122E+00  0.127E-02  0.127E-02
   5.939  0.130E+00  0.128E+00  0.128E-02  0.128E-02
   5.949  0.134E+00  0.131E+00  0.128E-02  0.128E-02
   5.959  0.136E+00  0.133E+00  0.127E-02  0.127E-02
   5.969  0.135E+00  0.133E+00  0.127E-02  0.127E-02
   5.979  0.133E+00  0.131E+00  0.129E-02  0.129E-02
   5.989  0.129E+00  0.126E+00  0.132E-02  0.132E-02
   5.999  0.123E+00  0.120E+00  0.136E-02  0.136E-02
   6.009  0.116E+00  0.113E+00  0.142E-02  0.142E-02
   6.019  0.107E+00  0.104E+00  0.147E-02  0.147E-02
   6.029  0.983E-01  0.953E-01  0.150E-02  0.150E-02
   6.039  0.890E-01  0.860E-01  0.150E-02  0.150E-02
   6.049  0.799E-01  0.770E-01  0.147E-02  0.147E-02
   6.059  0.711E-01  0.683E-01  0.141E-02  0.141E-02
   6.069  0.628E-01  0.602E-01  0.132E-02  0.132E-02
   6.079  0.553E-01  0.529E-01  0.122E-02  0.122E-02
   6.089  0.490E-01  0.468E-01  0.112E-02  0.112E-02
   6.099  0.443E-01  0.422E-01  0.103E-02  0.103E-02
   6.109  0.415E-01  0.396E-01  0.957E-03  0.957E-03
   6.119  0.411E-01  0.393E-01  0.904E-03  0.904E-03
   6.129  0.431E-01  0.414E-01  0.871E-03  0.871E-03
   6.139  0.474E-01  0.457E-01  0.858E-03  0.858E-03
   6.149  0.534E-01  0.516E-01  0.859E-03  0.859E-03
   6.159  0.602E-01  0.585E-01  0.872E-03  0.872E-03
   6.169  0.670E-01  0.652E-01  0.893E-03  0.893E-03
   6.179  0.727E-01  0.709E-01  0.917E-03  0.917E-03
   6.189  0.766E-01  0.748E-01  0.941E-03  0.941E-03
   6.199  0.784E-01  0.765E-01  0.963E-03  0.963E-03
   6.209  0.780E-01  0.760E-01  0.979E-03  0.979E-03
   6.219  0.759E-01  0.739E-01  0.989E-03  0.989E-03
   6.229  0.730E-01  0.710E-01  0.993E-03  0.993E-03
   6.239  0.700E-01  0.680E-01  0.995E-03  0.995E-03
   6.249  0.678E-01  0.658E-01  0.996E-03  0.996E-03
   6.259  0.669E-01  0.649E-01  0.999E-03  0.999E-03
   6.269  0.676E-01  0.656E-01  0.101E-02  0.101E-02
   6.279  0.699E-01  0.679E-01  0.102E-02  0.102E-02
   6.289  0.736E-01  0.716E-01  0.103E-02  0.103E-02
   6.299  0.786E-01  0.765E-01  0.105E-02  0.105E-02
   6.309  0.843E-01  0.821E-01  0.107E-02  0.107E-02
   6.319  0.904E-01  0.882E-01  0.108E-02  0.108E-02
   6.329  0.964E-01  0.942E-01  0.109E-02  0.109E-02
   6.339  0.102E+00  0.994E-01  0.109E-02  0.109E-02
   6.349  0.105E+00  0.103E+00  0.107E-02  0.107E-02
   6.359  0.107E+00  0.105E+00  0.105E-02  0.105E-02
   6.369  0.107E+00  0.105E+00  0.101E-02  0.101E-02
   6.379  0.104E+00  0.102E+00  0.965E-03  0.965E-03
   6.389  0.988E-01  0.969E-01  0.916E-03  0.916E-03
   6.399  0.925E-01  0.908E-01  0.868E-03  0.868E-03
   6.409  0.857E-01  0.841E-01  0.825E-03  0.825E-03
   6.419  0.793E-01  0.777E-01  0.792E-03  0.792E-03
   6.429  0.737E-01  0.721E-01  0.770E-03  0.770E-03
   6.439  0.692E-01  0.677E-01  0.759E-03  0.759E-03
   6.449  0.657E-01  0.641E-01  0.759E-03  0.759E-03
   6.459  0.627E-01  0.611E-01  0.767E-03  0.767E-03
   6.469  0.597E-01  0.581E-01  0.779E-03  0.779E-03
   6.479  0.563E-01  0.547E-01  0.790E-03  0.790E-03
   6.489  0.521E-01  0.505E-01  0.798E-03  0.798E-03
   6.499  0.472E-01  0.456E-01  0.798E-03  0.798E-03
   6.509  0.422E-01  0.406E-01  0.790E-03  0.790E-03
   6.519  0.375E-01  0.360E-01  0.772E-03  0.772E-03
   6.529  0.343E-01  0.328E-01  0.747E-03  0.747E-03
   6.539  0.332E-01  0.318E-01  0.719E-03  0.719E-03
   6.549  0.350E-01  0.336E-01  0.692E-03  0.692E-03
   6.559  0.399E-01  0.385E-01  0.673E-03  0.673E-03
   6.569  0.476E-01  0.462E-01  0.666E-03  0.666E-03
   6.579  0.573E-01  0.560E-01  0.676E-03  0.676E-03
   6.589  0.680E-01  0.666E-01  0.702E-03  0.702E-03
   6.599  0.783E-01  0.768E-01  0.742E-03  0.742E-03
   6.609  0.870E-01  0.854E-01  0.790E-03  0.790E-03
   6.619  0.931E-01  0.915E-01  0.838E-03  0.838E-03
   6.629  0.965E-01  0.947E-01  0.878E-03  0.878E-03
   6.639  0.971E-01  0.953E-01  0.901E-03  0.901E-03
   6.649  0.957E-01  0.939E-01  0.903E-03  0.903E-03
   6.659  0.932E-01  0.914E-01  0.885E-03  0.885E-03
   6.669  0.905E-01  0.888E-01  0.850E-03  0.850E-03
   6.679  0.885E-01  0.869E-01  0.807E-03  0.807E-03
   6.689  0.876E-01  0.861E-01  0.769E-03  0.769E-03
   6.699  0.880E-01  0.865E-01  0.751E-03  0.751E-03
   6.709  0.896E-01  0.880E-01  0.771E-03  0.771E-03
   6.719  0.917E-01  0.900E-01  0.850E-03  0.850E-03
   6.729  0.939E-01  0.919E-01  0.101E-02  0.101E-02
   6.739  0.954E-01  0.929E-01  0.128E-02  0.128E-02
   6.749  0.957E-01  0.923E-01  0.169E-02  0.169E-02
   6.759  0.943E-01  0.898E-01  0.227E-02  0.227E-02
   6.769  0.913E-01  0.852E-01  0.304E-02  0.304E-02
   6.779  0.869E-01  0.788E-01  0.403E-02  0.403E-02
   6.789  0.818E-01  0.713E-01  0.524E-02  0.524E-02
   6.799  0.769E-01  0.636E-01  0.664E-02  0.664E-02
   6.809  0.731E-01  0.567E-01  0.818E-02  0.818E-02
   6.819  0.712E-01  0.516E-01  0.979E-02  0.979E-02
   6.829  0.714E-01  0.487E-01  0.114E-01  0.114E-01
   6.839  0.738E-01  0.480E-01  0.129E-01  0.129E-01
   6.849  0.776E-01  0.493E-01  0.142E-01  0.142E-01
   6.859  0.820E-01  0.516E-01  0.152E-01  0.152E-01
   6.869  0.859E-01  0.538E-01  0.161E-01  0.161E-01
   6.879  0.884E-01  0.551E-01  0.167E-01  0.167E-01
   6.889  0.890E-01  0.546E-01  0.172E-01  0.172E-01
   6.899  0.875E-01  0.523E-01  0.176E-01  0.176E-01
   6.909  0.844E-01  0.482E-01  0.181E-01  0.181E-01
   6.919  0.804E-01  0.432E-01  0.186E-01  0.186E-01
   6.929  0.766E-01  0.381E-01  0.192E-01  0.192E-01
   6.939  0.738E-01  0.340E-01  0.199E-01  0.199E-01
   6.949  0.727E-01  0.315E-01  0.206E-01  0.206E-01
   6.959  0.736E-01  0.311E-01  0.212E-01  0.212E-01
   6.969  0.765E-01  0.328E-01  0.218E-01  0.218E-01
   6.979  0.808E-01  0.362E-01  0.223E-01  0.223E-01
   6.989  0.860E-01  0.406E-01  0.227E-01  0.227E-01
   6.999  0.915E-01  0.453E-01  0.231E-01  0.231E-01
   7.009  0.966E-01  0.499E-01  0.234E-01  0.234E-01
   7.019  0.101E+00  0.538E-01  0.237E-01  0.237E-01
   7.029  0.105E+00  0.570E-01  0.242E-01  0.242E-01
   7.039  0.109E+00  0.596E-01  0.249E-01  0.249E-01
   7.049  0.114E+00  0.619E-01  0.259E-01  0.259E-01
   7.059  0.119E+00  0.641E-01  0.273E-01  0.273E-01
   7.069  0.124E+00  0.665E-01  0.290E-01  0.290E-01
   7.079  0.131E+00  0.690E-01  0.310E-01  0.310E-01
   7.089  0.138E+00  0.715E-01  0.331E-01  0.331E-01
   7.099  0.144E+00  0.736E-01  0.351E-01  0.351E-01
   7.109  0.148E+00  0.748E-01  0.367E-01  0.367E-01
   7.119  0.151E+00  0.750E-01  0.379E-01  0.379E-01
   7.129  0.151E+00  0.738E-01  0.384E-01  0.384E-01
   7.139  0.148E+00  0.714E-01  0.382E-01  0.382E-01
   7.149  0.143E+00  0.682E-01  0.374E-01  0.374E-01
   7.159  0.137E+00  0.647E-01  0.362E-01  0.362E-01
   7.169  0.131E+00  0.614E-01  0.346E-01  0.346E-01
   7.179  0.125E+00  0.588E-01  0.331E-01  0.331E-01
   7.189  0.121E+00  0.571E-01  0.319E-01  0.319E-01
   7.199  0.118E+00  0.564E-01  0.310E-01  0.310E-01
   7.209  0.118E+00  0.564E-01  0.308E-01  0.308E-01
   7.219  0.119E+00  0.568E-01  0.313E-01  0.313E-01
   7.229  0.122E+00  0.572E-01  0.324E-01  0.324E-01
   7.239  0.126E+00  0.575E-01  0.340E-01  0.340E-01
   7.249  0.130E+00  0.577E-01  0.359E-01  0.359E-01
   7.259  0.134E+00  0.578E-01  0.380E-01  0.380E-01
   7.269  0.138E+00  0.580E-01  0.401E-01  0.401E-01
   7.279  0.143E+00  0.585E-01  0.420E-01  0.420E-01
   7.289  0.147E+00  0.595E-01  0.437E-01  0.437E-01
   7.299  0.151E+00  0.610E-01  0.451E-01  0.451E-01
   7.309  0.155E+00  0.629E-01  0.462E-01  0.462E-01
   7.319  0.159E+00  0.651E-01  0.471E-01  0.471E-01
   7.329  0.163E+00  0.674E-01  0.477E-01  0.477E-01
   7.339  0.166E+00  0.698E-01  0.479E-01  0.479E-01
   7.349  0.168E+00  0.723E-01  0.479E-01  0.479E-01
   7.359  0.170E+00  0.750E-01  0.475E-01  0.475E-01
   7.369  0.171E+00  0.779E-01  0.467E-01  0.467E-01
   7.379  0.172E+00  0.809E-01  0.456E-01  0.456E-01
   7.389  0.173E+00  0.841E-01  0.442E-01  0.442E-01
   7.399  0.173E+00  0.872E-01  0.428E-01  0.428E-01
   7.409  0.173E+00  0.900E-01  0.415E-01  0.415E-01
   7.419  0.173E+00  0.923E-01  0.404E-01  0.404E-01
   7.429  0.173E+00  0.938E-01  0.396E-01  0.396E-01
   7.439  0.173E+00  0.943E-01  0.392E-01  0.392E-01
   7.449  0.172E+00  0.935E-01  0.392E-01  0.392E-01
   7.459  0.170E+00  0.912E-01  0.396E-01  0.396E-01
   7.469  0.168E+00  0.873E-01  0.404E-01  0.404E-01
   7.479  0.165E+00  0.820E-01  0.416E-01  0.416E-01
   7.489  0.161E+00  0.756E-01  0.429E-01  0.429E-01
   7.499  0.158E+00  0.686E-01  0.445E-01  0.445E-01
   7.509  0.154E+00  0.618E-01  0.460E-01  0.460E-01
   7.519  0.150E+00  0.558E-01  0.473E-01  0.473E-01
   7.529  0.148E+00  0.510E-01  0.483E-01  0.483E-01
   7.539  0.145E+00  0.476E-01  0.488E-01  0.488E-01
   7.549  0.143E+00  0.457E-01  0.486E-01  0.486E-01
   7.559  0.140E+00  0.449E-01  0.478E-01  0.478E-01
   7.569  0.138E+00  0.448E-01  0.464E-01  0.464E-01
   7.579  0.134E+00  0.451E-01  0.445E-01  0.445E-01
   7.589  0.130E+00  0.455E-01  0.424E-01  0.424E-01
   7.599  0.127E+00  0.458E-01  0.403E-01  0.403E-01
   7.609  0.123E+00  0.460E-01  0.386E-01  0.386E-01
   7.619  0.121E+00  0.459E-01  0.375E-01  0.375E-01
   7.629  0.120E+00  0.458E-01  0.372E-01  0.372E-01
   7.639  0.122E+00  0.459E-01  0.381E-01  0.381E-01
   7.649  0.126E+00  0.463E-01  0.400E-01  0.400E-01
   7.659  0.133E+00  0.472E-01  0.431E-01  0.431E-01
   7.669  0.143E+00  0.489E-01  0.470E-01  0.470E-01
   7.679  0.154E+00  0.514E-01  0.515E-01  0.515E-01
   7.689  0.167E+00  0.546E-01  0.562E-01  0.562E-01
   7.699  0.180E+00  0.584E-01  0.607E-01  0.607E-01
   7.709  0.192E+00  0.628E-01  0.644E-01  0.644E-01
   7.719  0.202E+00  0.674E-01  0.673E-01  0.673E-01
   7.729  0.210E+00  0.721E-01  0.692E-01  0.692E-01
   7.739  0.217E+00  0.767E-01  0.702E-01  0.702E-01
   7.749  0.223E+00  0.812E-01  0.708E-01  0.708E-01
   7.759  0.228E+00  0.852E-01  0.716E-01  0.716E-01
   7.769  0.235E+00  0.885E-01  0.732E-01  0.732E-01
   7.779  0.243E+00  0.910E-01  0.762E-01  0.762E-01
   7.789  0.254E+00  0.920E-01  0.811E-01  0.811E-01
   7.799  0.268E+00  0.915E-01  0.883E-01  0.883E-01
   7.809  0.285E+00  0.892E-01  0.978E-01  0.978E-01
   7.819  0.304E+00  0.849E-01  0.110E+00  0.110E+00
   7.829  0.326E+00  0.789E-01  0.123E+00  0.123E+00
   7.839  0.349E+00  0.715E-01  0.139E+00  0.139E+00
   7.849  0.374E+00  0.633E-01  0.155E+00  0.155E+00
   7.859  0.400E+00  0.547E-01  0.173E+00  0.173E+00
   7.869  0.427E+00  0.464E-01  0.190E+00  0.190E+00
   7.879  0.454E+00  0.389E-01  0.207E+00  0.207E+00
   7.889  0.479E+00  0.328E-01  0.223E+00  0.223E+00
   7.899  0.502E+00  0.281E-01  0.237E+00  0.237E+00
   7.909  0.521E+00  0.252E-01  0.248E+00  0.248E+00
   7.919  0.534E+00  0.239E-01  0.255E+00  0.255E+00
   7.929  0.541E+00  0.241E-01  0.258E+00  0.258E+00
   7.939  0.540E+00  0.255E-01  0.257E+00  0.257E+00
   7.949  0.530E+00  0.280E-01  0.251E+00  0.251E+00
   7.959  0.514E+00  0.312E-01  0.241E+00  0.241E+00
   7.969  0.492E+00  0.348E-01  0.228E+00  0.228E+00
   7.979  0.465E+00  0.384E-01  0.213E+00  0.213E+00
   7.989  0.436E+00  0.420E-01  0.197E+00  0.197E+00
   7.999  0.406E+00  0.451E-01  0.181E+00  0.181E+00
   8.009  0.378E+00  0.476E-01  0.165E+00  0.165E+00
   8.019  0.351E+00  0.494E-01  0.151E+00  0.151E+00
   8.029  0.327E+00  0.505E-01  0.138E+00  0.138E+00
   8.039  0.306E+00  0.510E-01  0.127E+00  0.127E+00
   8.049  0.287E+00  0.512E-01  0.118E+00  0.118E+00
   8.059  0.272E+00  0.514E-01  0.110E+00  0.110E+00
   8.069  0.259E+00  0.520E-01  0.104E+00  0.104E+00
   8.079  0.249E+00  0.534E-01  0.980E-01  0.980E-01
   8.089  0.242E+00  0.556E-01  0.932E-01  0.932E-01
   8.099  0.237E+00  0.589E-01  0.891E-01  0.891E-01
   8.109  0.234E+00  0.630E-01  0.857E-01  0.857E-01
   8.119  0.234E+00  0.674E-01  0.831E-01  0.831E-01
   8.129  0.234E+00  0.717E-01  0.812E-01  0.812E-01
   8.139  0.235E+00  0.751E-01  0.801E-01  0.801E-01
   8.149  0.236E+00  0.767E-01  0.796E-01  0.796E-01
   8.159  0.235E+00  0.760E-01  0.796E-01  0.796E-01
   8.169  0.232E+00  0.726E-01  0.796E-01  0.796E-01
   8.179  0.225E+00  0.666E-01  0.792E-01  0.792E-01
   8.189  0.215E+00  0.583E-01  0.782E-01  0.782E-01
   8.199  0.201E+00  0.486E-01  0.763E-01  0.763E-01
   8.209  0.185E+00  0.383E-01  0.734E-01  0.734E-01
   8.219  0.167E+00  0.282E-01  0.696E-01  0.696E-01
   8.229  0.150E+00  0.191E-01  0.653E-01  0.653E-01
   8.239  0.133E+00  0.115E-01  0.609E-01  0.609E-01
   8.249  0.120E+00  0.568E-02  0.570E-01  0.570E-01
   8.259  0.110E+00  0.152E-02  0.540E-01  0.540E-01
   8.269  0.104E+00 -0.110E-02  0.523E-01  0.523E-01
   8.279  0.102E+00 -0.248E-02  0.521E-01  0.521E-01
   8.289  0.104E+00 -0.292E-02  0.533E-01  0.533E-01
   8.299  0.108E+00 -0.270E-02  0.555E-01  0.555E-01
   8.309  0.114E+00 -0.207E-02  0.582E-01  0.582E-01
   8.319  0.120E+00 -0.122E-02  0.607E-01  0.607E-01
   8.329  0.124E+00 -0.283E-03  0.623E-01  0.623E-01
   8.339  0.126E+00  0.641E-03  0.627E-01  0.627E-01
   8.349  0.124E+00  0.151E-02  0.614E-01  0.614E-01
   8.359  0.120E+00  0.230E-02  0.587E-01  0.587E-01
   8.369  0.112E+00  0.304E-02  0.547E-01  0.547E-01
   8.379  0.104E+00  0.378E-02  0.499E-01  0.499E-01
   8.389  0.942E-01  0.461E-02  0.448E-01  0.448E-01
   8.399  0.856E-01  0.560E-02  0.400E-01  0.400E-01
   8.409  0.785E-01  0.685E-02  0.358E-01  0.358E-01
   8.419  0.736E-01  0.840E-02  0.326E-01  0.326E-01
   8.429  0.712E-01  0.102E-01  0.305E-01  0.305E-01
   8.439  0.713E-01  0.123E-01  0.295E-01  0.295E-01
   8.449  0.736E-01  0.144E-01  0.296E-01  0.296E-01
   8.459  0.776E-01  0.163E-01  0.307E-01  0.307E-01
   8.469  0.825E-01  0.177E-01  0.324E-01  0.324E-01
   8.479  0.875E-01  0.183E-01  0.346E-01  0.346E-01
   8.489  0.916E-01  0.180E-01  0.368E-01  0.368E-01
   8.499  0.940E-01  0.167E-01  0.386E-01  0.386E-01
   8.509  0.939E-01  0.146E-01  0.397E-01  0.397E-01
   8.519  0.911E-01  0.117E-01  0.397E-01  0.397E-01
   8.529  0.856E-01  0.860E-02  0.385E-01  0.385E-01
   8.539  0.777E-01  0.556E-02  0.361E-01  0.361E-01
   8.549  0.682E-01  0.291E-02  0.326E-01  0.326E-01
   8.559  0.581E-01  0.866E-03  0.286E-01  0.286E-01
   8.569  0.485E-01 -0.490E-03  0.245E-01  0.245E-01
   8.579  0.403E-01 -0.120E-02  0.208E-01  0.208E-01
   8.589  0.345E-01 -0.138E-02  0.179E-01  0.179E-01
   8.599  0.315E-01 -0.119E-02  0.163E-01  0.163E-01
   8.609  0.314E-01 -0.813E-03  0.161E-01  0.161E-01
   8.619  0.341E-01 -0.370E-03  0.173E-01  0.173E-01
   8.629  0.391E-01  0.417E-04  0.195E-01  0.195E-01
   8.639  0.457E-01  0.369E-03  0.226E-01  0.226E-01
   8.649  0.529E-01  0.596E-03  0.261E-01  0.261E-01
   8.659  0.600E-01  0.730E-03  0.296E-01  0.296E-01
   8.669  0.662E-01  0.789E-03  0.327E-01  0.327E-01
   8.679  0.712E-01  0.800E-03  0.352E-01  0.352E-01
   8.689  0.747E-01  0.784E-03  0.369E-01  0.369E-01
   8.699  0.767E-01  0.760E-03  0.380E-01  0.380E-01
   8.709  0.774E-01  0.740E-03  0.383E-01  0.383E-01
   8.719  0.772E-01  0.729E-03  0.382E-01  0.382E-01
   8.729  0.763E-01  0.730E-03  0.378E-01  0.378E-01
   8.739  0.750E-01  0.739E-03  0.372E-01  0.372E-01
   8.749  0.734E-01  0.751E-03  0.363E-01  0.363E-01
   8.759  0.713E-01  0.763E-03  0.353E-01  0.353E-01
   8.769  0.687E-01  0.770E-03  0.340E-01  0.340E-01
   8.779  0.654E-01  0.771E-03  0.323E-01  0.323E-01
   8.789  0.614E-01  0.767E-03  0.303E-01  0.303E-01
   8.799  0.568E-01  0.760E-03  0.280E-01  0.280E-01
   8.809  0.520E-01  0.752E-03  0.256E-01  0.256E-01
   8.819  0.472E-01  0.745E-03  0.232E-01  0.232E-01
   8.829  0.431E-01  0.743E-03  0.212E-01  0.212E-01
   8.839  0.399E-01  0.745E-03  0.196E-01  0.196E-01
   8.849  0.378E-01  0.751E-03  0.185E-01  0.185E-01
   8.859  0.369E-01  0.761E-03  0.180E-01  0.180E-01
   8.869  0.367E-01  0.774E-03  0.180E-01  0.180E-01
   8.879  0.372E-01  0.791E-03  0.182E-01  0.182E-01
   8.889  0.378E-01  0.811E-03  0.185E-01  0.185E-01
   8.899  0.382E-01  0.832E-03  0.187E-01  0.187E-01
   8.909  0.385E-01  0.853E-03  0.188E-01  0.188E-01
   8.919  0.385E-01  0.870E-03  0.188E-01  0.188E-01
   8.929  0.386E-01  0.879E-03  0.189E-01  0.189E-01
   8.939  0.392E-01  0.876E-03  0.191E-01  0.191E-01
   8.949  0.404E-01  0.859E-03  0.198E-01  0.198E-01
   8.959  0.426E-01  0.828E-03  0.209E-01  0.209E-01
   8.969  0.459E-01  0.787E-03  0.226E-01  0.226E-01
   8.979  0.502E-01  0.741E-03  0.247E-01  0.247E-01
   8.989  0.553E-01  0.696E-03  0.273E-01  0.273E-01
   8.999  0.607E-01  0.660E-03  0.300E-01  0.300E-01
   9.009  0.659E-01  0.637E-03  0.326E-01  0.326E-01
   9.019  0.702E-01  0.630E-03  0.348E-01  0.348E-01
   9.029  0.732E-01  0.639E-03  0.363E-01  0.363E-01
   9.039  0.743E-01  0.661E-03  0.368E-01  0.368E-01
   9.049  0.734E-01  0.694E-03  0.364E-01  0.364E-01
   9.059  0.705E-01  0.732E-03  0.349E-01  0.349E-01
   9.069  0.660E-01  0.773E-03  0.326E-01  0.326E-01
   9.079  0.605E-01  0.814E-03  0.298E-01  0.298E-01
   9.089  0.546E-01  0.851E-03  0.269E-01  0.269E-01
   9.099  0.491E-01  0.883E-03  0.241E-01  0.241E-01
   9.109  0.445E-01  0.909E-03  0.218E-01  0.218E-01
   9.119  0.410E-01  0.925E-03  0.201E-01  0.201E-01
   9.129  0.386E-01  0.931E-03  0.188E-01  0.188E-01
   9.139  0.370E-01  0.925E-03  0.180E-01  0.180E-01
   9.149  0.358E-01  0.908E-03  0.174E-01  0.174E-01
   9.159  0.346E-01  0.882E-03  0.169E-01  0.169E-01
   9.169  0.332E-01  0.849E-03  0.162E-01  0.162E-01
   9.179  0.316E-01  0.816E-03  0.154E-01  0.154E-01
   9.189  0.299E-01  0.788E-03  0.146E-01  0.146E-01
   9.199  0.285E-01  0.769E-03  0.139E-01  0.139E-01
   9.209  0.276E-01  0.764E-03  0.134E-01  0.134E-01
   9.219  0.277E-01  0.774E-03  0.135E-01  0.135E-01
   9.229  0.290E-01  0.797E-03  0.141E-01  0.141E-01
   9.239  0.316E-01  0.832E-03  0.154E-01  0.154E-01
   9.249  0.354E-01  0.874E-03  0.173E-01  0.173E-01
   9.259  0.401E-01  0.918E-03  0.196E-01  0.196E-01
   9.269  0.454E-01  0.959E-03  0.222E-01  0.222E-01
   9.279  0.508E-01  0.993E-03  0.249E-01  0.249E-01
   9.289  0.560E-01  0.102E-02  0.275E-01  0.275E-01
   9.299  0.605E-01  0.103E-02  0.298E-01  0.298E-01
   9.309  0.642E-01  0.102E-02  0.316E-01  0.316E-01
   9.319  0.668E-01  0.100E-02  0.329E-01  0.329E-01
   9.329  0.684E-01  0.974E-03  0.337E-01  0.337E-01
   9.339  0.688E-01  0.940E-03  0.339E-01  0.339E-01
   9.349  0.680E-01  0.906E-03  0.336E-01  0.336E-01
   9.359  0.660E-01  0.882E-03  0.326E-01  0.326E-01
   9.369  0.628E-01  0.873E-03  0.309E-01  0.309E-01
   9.379  0.582E-01  0.888E-03  0.287E-01  0.287E-01
   9.389  0.525E-01  0.927E-03  0.258E-01  0.258E-01
   9.399  0.461E-01  0.989E-03  0.225E-01  0.225E-01
   9.409  0.392E-01  0.107E-02  0.191E-01  0.191E-01
   9.419  0.326E-01  0.115E-02  0.157E-01  0.157E-01
   9.429  0.267E-01  0.122E-02  0.128E-01  0.128E-01
   9.439  0.221E-01  0.128E-02  0.104E-01  0.104E-01
   9.449  0.191E-01  0.130E-02  0.892E-02  0.892E-02
   9.459  0.179E-01  0.129E-02  0.830E-02  0.830E-02
   9.469  0.184E-01  0.124E-02  0.856E-02  0.856E-02
   9.479  0.203E-01  0.117E-02  0.957E-02  0.957E-02
   9.489  0.234E-01  0.109E-02  0.112E-01  0.112E-01
   9.499  0.272E-01  0.101E-02  0.131E-01  0.131E-01
   9.509  0.313E-01  0.935E-03  0.152E-01  0.152E-01
   9.519  0.352E-01  0.888E-03  0.171E-01  0.171E-01
   9.529  0.385E-01  0.872E-03  0.188E-01  0.188E-01
   9.539  0.412E-01  0.891E-03  0.201E-01  0.201E-01
   9.549  0.431E-01  0.945E-03  0.211E-01  0.211E-01
   9.559  0.443E-01  0.103E-02  0.217E-01  0.217E-01
   9.569  0.453E-01  0.115E-02  0.221E-01  0.221E-01
   9.579  0.461E-01  0.128E-02  0.224E-01  0.224E-01
   9.589  0.472E-01  0.141E-02  0.229E-01  0.229E-01
   9.599  0.487E-01  0.153E-02  0.236E-01  0.236E-01
   9.609  0.507E-01  0.163E-02  0.245E-01  0.245E-01
   9.619  0.531E-01  0.169E-02  0.257E-01  0.257E-01
   9.629  0.558E-01  0.171E-02  0.270E-01  0.270E-01
   9.639  0.584E-01  0.168E-02  0.284E-01  0.284E-01
   9.649  0.607E-01  0.162E-02  0.295E-01  0.295E-01
   9.659  0.624E-01  0.153E-02  0.304E-01  0.304E-01
   9.669  0.632E-01  0.144E-02  0.309E-01  0.309E-01
   9.679  0.628E-01  0.135E-02  0.307E-01  0.307E-01
   9.689  0.611E-01  0.128E-02  0.299E-01  0.299E-01
   9.699  0.580E-01  0.124E-02  0.284E-01  0.284E-01
   9.709  0.537E-01  0.124E-02  0.262E-01  0.262E-01
   9.719  0.485E-01  0.127E-02  0.236E-01  0.236E-01
   9.729  0.427E-01  0.134E-02  0.207E-01  0.207E-01
   9.739  0.368E-01  0.145E-02  0.177E-01  0.177E-01
   9.749  0.314E-01  0.157E-02  0.149E-01  0.149E-01
   9.759  0.269E-01  0.170E-02  0.126E-01  0.126E-01
   9.769  0.235E-01  0.183E-02  0.108E-01  0.108E-01
   9.779  0.212E-01  0.193E-02  0.962E-02  0.962E-02
   9.789  0.199E-01  0.199E-02  0.896E-02  0.896E-02
   9.799  0.195E-01  0.199E-02  0.874E-02  0.874E-02
   9.809  0.196E-01  0.195E-02  0.882E-02  0.882E-02
   9.819  0.200E-01  0.186E-02  0.908E-02  0.908E-02
   9.829  0.206E-01  0.174E-02  0.941E-02  0.941E-02
   9.839  0.211E-01  0.161E-02  0.973E-02  0.973E-02
   9.849  0.215E-01  0.151E-02  0.100E-01  0.100E-01
   9.859  0.219E-01  0.145E-02  0.102E-01  0.102E-01
   9.869  0.222E-01  0.145E-02  0.104E-01  0.104E-01
   9.879  0.227E-01  0.149E-02  0.106E-01  0.106E-01
   9.889  0.233E-01  0.158E-02  0.109E-01  0.109E-01
   9.899  0.244E-01  0.169E-02  0.113E-01  0.113E-01
   9.909  0.259E-01  0.180E-02  0.121E-01  0.121E-01
   9.919  0.281E-01  0.189E-02  0.131E-01  0.131E-01
   9.929  0.310E-01  0.193E-02  0.145E-01  0.145E-01
   9.939  0.346E-01  0.193E-02  0.163E-01  0.163E-01
   9.949  0.386E-01  0.187E-02  0.184E-01  0.184E-01
   9.959  0.429E-01  0.177E-02  0.206E-01  0.206E-01
   9.969  0.472E-01  0.164E-02  0.228E-01  0.228E-01
   9.979  0.510E-01  0.149E-02  0.247E-01  0.247E-01
   9.989  0.540E-01  0.135E-02  0.263E-01  0.263E-01
   9.999  0.559E-01  0.123E-02  0.273E-01  0.273E-01
  10.009  0.566E-01  0.113E-02  0.277E-01  0.277E-01
  10.019  0.558E-01  0.107E-02  0.274E-01  0.274E-01
  10.029  0.538E-01  0.104E-02  0.264E-01  0.264E-01
  10.039  0.506E-01  0.104E-02  0.248E-01  0.248E-01
  10.049  0.464E-01  0.106E-02  0.227E-01  0.227E-01
  10.059  0.417E-01  0.108E-02  0.203E-01  0.203E-01
  10.069  0.366E-01  0.111E-02  0.178E-01  0.178E-01
  10.079  0.317E-01  0.114E-02  0.153E-01  0.153E-01
  10.089  0.271E-01  0.117E-02  0.130E-01  0.130E-01
  10.099  0.232E-01  0.120E-02  0.110E-01  0.110E-01
  10.109  0.201E-01  0.124E-02  0.941E-02  0.941E-02
  10.119  0.178E-01  0.130E-02  0.823E-02  0.823E-02
  10.129  0.162E-01  0.137E-02  0.743E-02  0.743E-02
  10.139  0.153E-01  0.146E-02  0.694E-02  0.694E-02
  10.149  0.149E-01  0.157E-02  0.669E-02  0.669E-02
  10.159  0.149E-01  0.169E-02  0.661E-02  0.661E-02
  10.169  0.152E-01  0.181E-02  0.670E-02  0.670E-02
  10.179  0.159E-01  0.194E-02  0.696E-02  0.696E-02
  10.189  0.169E-01  0.205E-02  0.743E-02  0.743E-02
  10.199  0.184E-01  0.214E-02  0.812E-02  0.812E-02
  10.209  0.203E-01  0.222E-02  0.906E-02  0.906E-02
  10.219  0.226E-01  0.227E-02  0.102E-01  0.102E-01
  10.229  0.251E-01  0.229E-02  0.114E-01  0.114E-01
  10.239  0.273E-01  0.228E-02  0.125E-01  0.125E-01
  10.249  0.292E-01  0.224E-02  0.135E-01  0.135E-01
  10.259  0.304E-01  0.218E-02  0.141E-01  0.141E-01
  10.269  0.308E-01  0.209E-02  0.144E-01  0.144E-01
  10.279  0.305E-01  0.199E-02  0.143E-01  0.143E-01
  10.289  0.298E-01  0.191E-02  0.140E-01  0.140E-01
  10.299  0.290E-01  0.184E-02  0.136E-01  0.136E-01
  10.309  0.284E-01  0.180E-02  0.133E-01  0.133E-01
  10.319  0.284E-01  0.180E-02  0.133E-01  0.133E-01
  10.329  0.292E-01  0.183E-02  0.137E-01  0.137E-01
  10.339  0.308E-01  0.189E-02  0.144E-01  0.144E-01
  10.349  0.329E-01  0.195E-02  0.155E-01  0.155E-01
  10.359  0.354E-01  0.200E-02  0.167E-01  0.167E-01
  10.369  0.377E-01  0.201E-02  0.178E-01  0.178E-01
  10.379  0.396E-01  0.200E-02  0.188E-01  0.188E-01
  10.389  0.409E-01  0.194E-02  0.195E-01  0.195E-01
  10.399  0.413E-01  0.187E-02  0.197E-01  0.197E-01
  10.409  0.408E-01  0.179E-02  0.195E-01  0.195E-01
  10.419  0.395E-01  0.173E-02  0.189E-01  0.189E-01
  10.429  0.376E-01  0.170E-02  0.180E-01  0.180E-01
  10.439  0.354E-01  0.172E-02  0.168E-01  0.168E-01
  10.449  0.329E-01  0.177E-02  0.156E-01  0.156E-01
  10.459  0.305E-01  0.186E-02  0.143E-01  0.143E-01
  10.469  0.283E-01  0.197E-02  0.131E-01  0.131E-01
  10.479  0.263E-01  0.207E-02  0.121E-01  0.121E-01
  10.489  0.247E-01  0.216E-02  0.113E-01  0.113E-01
  10.499  0.235E-01  0.221E-02  0.107E-01  0.107E-01
  10.509  0.227E-01  0.222E-02  0.102E-01  0.102E-01
  10.519  0.223E-01  0.219E-02  0.101E-01  0.101E-01
  10.529  0.223E-01  0.211E-02  0.101E-01  0.101E-01
  10.539  0.226E-01  0.201E-02  0.103E-01  0.103E-01
  10.549  0.232E-01  0.188E-02  0.107E-01  0.107E-01
  10.559  0.241E-01  0.174E-02  0.112E-01  0.112E-01
  10.569  0.251E-01  0.162E-02  0.118E-01  0.118E-01
  10.579  0.262E-01  0.153E-02  0.124E-01  0.124E-01
  10.589  0.272E-01  0.147E-02  0.129E-01  0.129E-01
  10.599  0.280E-01  0.146E-02  0.133E-01  0.133E-01
  10.609  0.285E-01  0.150E-02  0.135E-01  0.135E-01
  10.619  0.288E-01  0.159E-02  0.136E-01  0.136E-01
  10.629  0.288E-01  0.171E-02  0.136E-01  0.136E-01
  10.639  0.287E-01  0.187E-02  0.134E-01  0.134E-01
  10.649  0.286E-01  0.205E-02  0.133E-01  0.133E-01
  10.659  0.285E-01  0.223E-02  0.131E-01  0.131E-01
  10.669  0.285E-01  0.241E-02  0.130E-01  0.130E-01
  10.679  0.286E-01  0.256E-02  0.130E-01  0.130E-01
  10.689  0.288E-01  0.267E-02  0.130E-01  0.130E-01
  10.699  0.290E-01  0.270E-02  0.132E-01  0.132E-01
  10.709  0.294E-01  0.265E-02  0.134E-01  0.134E-01
  10.719  0.298E-01  0.253E-02  0.136E-01  0.136E-01
  10.729  0.302E-01  0.233E-02  0.139E-01  0.139E-01
  10.739  0.304E-01  0.208E-02  0.142E-01  0.142E-01
  10.749  0.303E-01  0.183E-02  0.143E-01  0.143E-01
  10.759  0.298E-01  0.160E-02  0.141E-01  0.141E-01
  10.769  0.286E-01  0.144E-02  0.136E-01  0.136E-01
  10.779  0.268E-01  0.138E-02  0.127E-01  0.127E-01
  10.789  0.244E-01  0.141E-02  0.115E-01  0.115E-01
  10.799  0.214E-01  0.154E-02  0.994E-02  0.994E-02
  10.809  0.182E-01  0.174E-02  0.824E-02  0.824E-02
  10.819  0.151E-01  0.197E-02  0.655E-02  0.655E-02
  10.829  0.123E-01  0.222E-02  0.502E-02  0.502E-02
  10.839  0.100E-01  0.243E-02  0.381E-02  0.381E-02
  10.849  0.865E-02  0.260E-02  0.302E-02  0.302E-02
  10.859  0.820E-02  0.271E-02  0.275E-02  0.275E-02
  10.869  0.877E-02  0.275E-02  0.301E-02  0.301E-02
  10.879  0.103E-01  0.273E-02  0.381E-02  0.381E-02
  10.889  0.128E-01  0.265E-02  0.509E-02  0.509E-02
  10.899  0.160E-01  0.252E-02  0.676E-02  0.676E-02
  10.909  0.197E-01  0.235E-02  0.868E-02  0.868E-02
  10.919  0.235E-01  0.215E-02  0.107E-01  0.107E-01
  10.929  0.272E-01  0.193E-02  0.126E-01  0.126E-01
  10.939  0.304E-01  0.170E-02  0.144E-01  0.144E-01
  10.949  0.330E-01  0.149E-02  0.157E-01  0.157E-01
  10.959  0.347E-01  0.130E-02  0.167E-01  0.167E-01
  10.969  0.358E-01  0.116E-02  0.173E-01  0.173E-01
  10.979  0.362E-01  0.108E-02  0.176E-01  0.176E-01
  10.989  0.363E-01  0.107E-02  0.176E-01  0.176E-01
  10.999  0.362E-01  0.113E-02  0.175E-01  0.175E-01
  11.009  0.361E-01  0.126E-02  0.174E-01  0.174E-01
  11.019  0.361E-01  0.144E-02  0.173E-01  0.173E-01
  11.029  0.362E-01  0.164E-02  0.173E-01  0.173E-01
  11.039  0.363E-01  0.185E-02  0.172E-01  0.172E-01
  11.049  0.362E-01  0.202E-02  0.171E-01  0.171E-01
  11.059  0.357E-01  0.213E-02  0.168E-01  0.168E-01
  11.069  0.347E-01  0.217E-02  0.162E-01  0.162E-01
  11.079  0.330E-01  0.212E-02  0.155E-01  0.155E-01
  11.089  0.310E-01  0.200E-02  0.145E-01  0.145E-01
  11.099  0.285E-01  0.183E-02  0.134E-01  0.134E-01
  11.109  0.260E-01  0.163E-02  0.122E-01  0.122E-01
  11.119  0.236E-01  0.143E-02  0.111E-01  0.111E-01
  11.129  0.214E-01  0.125E-02  0.101E-01  0.101E-01
  11.139  0.194E-01  0.111E-02  0.914E-02  0.914E-02
  11.149  0.176E-01  0.102E-02  0.828E-02  0.828E-02
  11.159  0.158E-01  0.960E-03  0.741E-02  0.741E-02
  11.169  0.139E-01  0.946E-03  0.649E-02  0.649E-02
  11.179  0.119E-01  0.967E-03  0.549E-02  0.549E-02
  11.189  0.986E-02  0.102E-02  0.442E-02  0.442E-02
  11.199  0.778E-02  0.111E-02  0.334E-02  0.334E-02
  11.209  0.584E-02  0.123E-02  0.230E-02  0.230E-02
  11.219  0.417E-02  0.138E-02  0.139E-02  0.139E-02
  11.229  0.290E-02  0.156E-02  0.673E-03  0.673E-03
  11.239  0.210E-02  0.173E-02  0.186E-03  0.186E-03
  11.249  0.179E-02  0.188E-02 -0.458E-04 -0.458E-04
  11.259  0.196E-02  0.199E-02 -0.143E-04 -0.143E-04
  11.269  0.259E-02  0.203E-02  0.282E-03  0.282E-03
  11.279  0.367E-02  0.198E-02  0.847E-03  0.847E-03
  11.289  0.524E-02  0.185E-02  0.170E-02  0.170E-02
  11.299  0.737E-02  0.164E-02  0.286E-02  0.286E-02
  11.309  0.101E-01  0.139E-02  0.437E-02  0.437E-02
  11.319  0.136E-01  0.112E-02  0.625E-02  0.625E-02
  11.329  0.179E-01  0.878E-03  0.850E-02  0.850E-02
  11.339  0.228E-01  0.685E-03  0.111E-01  0.111E-01
  11.349  0.283E-01  0.562E-03  0.139E-01  0.139E-01
  11.359  0.340E-01  0.511E-03  0.168E-01  0.168E-01
  11.369  0.395E-01  0.525E-03  0.195E-01  0.195E-01
  11.379  0.444E-01  0.585E-03  0.219E-01  0.219E-01
  11.389  0.481E-01  0.669E-03  0.237E-01  0.237E-01
  11.399  0.503E-01  0.755E-03  0.248E-01  0.248E-01
  11.409  0.508E-01  0.828E-03  0.250E-01  0.250E-01
  11.419  0.496E-01  0.876E-03  0.244E-01  0.244E-01
  11.429  0.469E-01  0.893E-03  0.230E-01  0.230E-01
  11.439  0.431E-01  0.878E-03  0.211E-01  0.211E-01
  11.449  0.385E-01  0.834E-03  0.188E-01  0.188E-01
  11.459  0.337E-01  0.763E-03  0.165E-01  0.165E-01
  11.469  0.290E-01  0.671E-03  0.142E-01  0.142E-01
  11.479  0.247E-01  0.562E-03  0.121E-01  0.121E-01
  11.489  0.210E-01  0.445E-03  0.103E-01  0.103E-01
  11.499  0.179E-01  0.327E-03  0.876E-02  0.876E-02
  11.509  0.152E-01  0.217E-03  0.749E-02  0.749E-02
  11.519  0.129E-01  0.122E-03  0.641E-02  0.641E-02
  11.529  0.110E-01  0.465E-04  0.547E-02  0.547E-02
  11.539  0.925E-02 -0.616E-05  0.463E-02  0.463E-02
  11.549  0.770E-02 -0.374E-04  0.387E-02  0.387E-02
  11.559  0.637E-02 -0.506E-04  0.321E-02  0.321E-02
  11.569  0.531E-02 -0.506E-04  0.268E-02  0.268E-02
  11.579  0.455E-02 -0.424E-04  0.230E-02  0.230E-02
  11.589  0.414E-02 -0.306E-04  0.209E-02  0.209E-02
  11.599  0.409E-02 -0.184E-04  0.205E-02  0.205E-02
  11.609  0.437E-02 -0.791E-05  0.219E-02  0.219E-02
  11.619  0.494E-02  0.215E-06  0.247E-02  0.247E-02
  11.629  0.574E-02  0.602E-05  0.287E-02  0.287E-02
  11.639  0.672E-02  0.100E-04  0.335E-02  0.335E-02
  11.649  0.785E-02  0.129E-04  0.392E-02  0.392E-02
  11.659  0.912E-02  0.153E-04  0.455E-02  0.455E-02
  11.669  0.106E-01  0.176E-04  0.528E-02  0.528E-02
  11.679  0.122E-01  0.200E-04  0.611E-02  0.611E-02
  11.689  0.142E-01  0.227E-04  0.707E-02  0.707E-02
  11.699  0.164E-01  0.255E-04  0.818E-02  0.818E-02
  11.709  0.189E-01  0.283E-04  0.945E-02  0.945E-02
  11.719  0.217E-01  0.308E-04  0.108E-01  0.108E-01
  11.729  0.247E-01  0.328E-04  0.123E-01  0.123E-01
  11.739  0.276E-01  0.341E-04  0.138E-01  0.138E-01
  11.749  0.304E-01  0.346E-04  0.152E-01  0.152E-01
  11.759  0.329E-01  0.345E-04  0.164E-01  0.164E-01
  11.769  0.348E-01  0.337E-04  0.174E-01  0.174E-01
  11.779  0.361E-01  0.324E-04  0.180E-01  0.180E-01
  11.789  0.366E-01  0.309E-04  0.183E-01  0.183E-01
  11.799  0.362E-01  0.292E-04  0.181E-01  0.181E-01
  11.809  0.350E-01  0.276E-04  0.175E-01  0.175E-01
  11.819  0.332E-01  0.261E-04  0.166E-01  0.166E-01
  11.829  0.308E-01  0.249E-04  0.154E-01  0.154E-01
  11.839  0.281E-01  0.240E-04  0.140E-01  0.140E-01
  11.849  0.253E-01  0.234E-04  0.126E-01  0.126E-01
  11.859  0.227E-01  0.232E-04  0.113E-01  0.113E-01
  11.869  0.203E-01  0.235E-04  0.102E-01  0.102E-01
  11.879  0.185E-01  0.243E-04  0.922E-02  0.922E-02
  11.889  0.171E-01  0.255E-04  0.855E-02  0.855E-02
  11.899  0.164E-01  0.273E-04  0.816E-02  0.816E-02
  11.909  0.162E-01  0.295E-04  0.806E-02  0.806E-02
  11.919  0.165E-01  0.321E-04  0.822E-02  0.822E-02
  11.929  0.172E-01  0.351E-04  0.860E-02  0.860E-02
  11.939  0.183E-01  0.383E-04  0.913E-02  0.913E-02
  11.949  0.195E-01  0.413E-04  0.973E-02  0.973E-02
  11.959  0.207E-01  0.440E-04  0.103E-01  0.103E-01
  11.969  0.216E-01  0.458E-04  0.108E-01  0.108E-01
  11.979  0.221E-01  0.466E-04  0.110E-01  0.110E-01
  11.989  0.221E-01  0.461E-04  0.110E-01  0.110E-01
  11.999  0.215E-01  0.442E-04  0.107E-01  0.107E-01
  12.009  0.204E-01  0.410E-04  0.102E-01  0.102E-01
  12.019  0.188E-01  0.367E-04  0.938E-02  0.938E-02
  12.029  0.168E-01  0.317E-04  0.839E-02  0.839E-02
  12.039  0.146E-01  0.262E-04  0.729E-02  0.729E-02
  12.049  0.123E-01  0.209E-04  0.616E-02  0.616E-02
  12.059  0.102E-01  0.159E-04  0.507E-02  0.507E-02
  12.069  0.823E-02  0.115E-04  0.411E-02  0.411E-02
  12.079  0.665E-02  0.802E-05  0.332E-02  0.332E-02
  12.089  0.548E-02  0.537E-05  0.274E-02  0.274E-02
  12.099  0.480E-02  0.358E-05  0.240E-02  0.240E-02
  12.109  0.462E-02  0.256E-05  0.231E-02  0.231E-02
  12.119  0.496E-02  0.219E-05  0.248E-02  0.248E-02
  12.129  0.580E-02  0.237E-05  0.290E-02  0.290E-02
  12.139  0.706E-02  0.296E-05  0.353E-02  0.353E-02
  12.149  0.866E-02  0.385E-05  0.433E-02  0.433E-02
  12.159  0.104E-01  0.491E-05  0.521E-02  0.521E-02
  12.169  0.122E-01  0.601E-05  0.608E-02  0.608E-02
  12.179  0.137E-01  0.700E-05  0.682E-02  0.682E-02
  12.189  0.147E-01  0.778E-05  0.736E-02  0.736E-02
  12.199  0.152E-01  0.823E-05  0.761E-02  0.761E-02
  12.209  0.151E-01  0.832E-05  0.755E-02  0.755E-02
  12.219  0.145E-01  0.806E-05  0.722E-02  0.722E-02
  12.229  0.134E-01  0.749E-05  0.668E-02  0.668E-02
  12.239  0.121E-01  0.673E-05  0.604E-02  0.604E-02
  12.249  0.107E-01  0.587E-05  0.537E-02  0.537E-02
  12.259  0.953E-02  0.501E-05  0.476E-02  0.476E-02
  12.269  0.853E-02  0.424E-05  0.427E-02  0.427E-02
  12.279  0.779E-02  0.359E-05  0.389E-02  0.389E-02
  12.289  0.727E-02  0.309E-05  0.364E-02  0.364E-02
  12.299  0.694E-02  0.272E-05  0.347E-02  0.347E-02
  12.309  0.674E-02  0.247E-05  0.337E-02  0.337E-02
  12.319  0.662E-02  0.233E-05  0.331E-02  0.331E-02
  12.329  0.654E-02  0.227E-05  0.327E-02  0.327E-02
  12.339  0.649E-02  0.228E-05  0.325E-02  0.325E-02
  12.349  0.645E-02  0.233E-05  0.322E-02  0.322E-02
  12.359  0.637E-02  0.241E-05  0.318E-02  0.318E-02
  12.369  0.624E-02  0.248E-05  0.312E-02  0.312E-02
  12.379  0.603E-02  0.252E-05  0.301E-02  0.301E-02
  12.389  0.571E-02  0.253E-05  0.285E-02  0.285E-02
  12.399  0.528E-02  0.249E-05  0.264E-02  0.264E-02
  12.409  0.477E-02  0.244E-05  0.238E-02  0.238E-02
  12.419  0.422E-02  0.239E-05  0.211E-02  0.211E-02
  12.429  0.368E-02  0.237E-05  0.184E-02  0.184E-02
  12.439  0.321E-02  0.239E-05  0.160E-02  0.160E-02
  12.449  0.283E-02  0.247E-05  0.141E-02  0.141E-02
  12.459  0.255E-02  0.258E-05  0.128E-02  0.128E-02
  12.469  0.237E-02  0.272E-05  0.118E-02  0.118E-02
  12.479  0.224E-02  0.285E-05  0.112E-02  0.112E-02
  12.489  0.215E-02  0.295E-05  0.107E-02  0.107E-02
  12.499  0.207E-02  0.301E-05  0.104E-02  0.104E-02
  12.509  0.200E-02  0.304E-05  0.998E-03  0.998E-03
  12.519  0.193E-02  0.305E-05  0.964E-03  0.964E-03
  12.529  0.188E-02  0.306E-05  0.938E-03  0.938E-03
  12.539  0.185E-02  0.307E-05  0.924E-03  0.924E-03
  12.549  0.184E-02  0.309E-05  0.920E-03  0.920E-03
  12.559  0.184E-02  0.310E-05  0.918E-03  0.918E-03
  12.569  0.182E-02  0.307E-05  0.909E-03  0.909E-03
  12.579  0.176E-02  0.298E-05  0.879E-03  0.879E-03
  12.589  0.165E-02  0.281E-05  0.823E-03  0.823E-03
  12.599  0.148E-02  0.259E-05  0.740E-03  0.740E-03
  12.609  0.127E-02  0.232E-05  0.636E-03  0.636E-03
  12.619  0.105E-02  0.207E-05  0.524E-03  0.524E-03
  12.629  0.840E-03  0.187E-05  0.419E-03  0.419E-03
  12.639  0.673E-03  0.176E-05  0.336E-03  0.336E-03
  12.649  0.566E-03  0.176E-05  0.282E-03  0.282E-03
  12.659  0.523E-03  0.185E-05  0.261E-03  0.261E-03
  12.669  0.541E-03  0.202E-05  0.269E-03  0.269E-03
  12.679  0.606E-03  0.224E-05  0.302E-03  0.302E-03
  12.689  0.706E-03  0.248E-05  0.352E-03  0.352E-03
  12.699  0.832E-03  0.273E-05  0.414E-03  0.414E-03
  12.709  0.975E-03  0.300E-05  0.486E-03  0.486E-03
  12.719  0.113E-02  0.329E-05  0.565E-03  0.565E-03
  12.729  0.130E-02  0.360E-05  0.649E-03  0.649E-03
  12.739  0.147E-02  0.392E-05  0.733E-03  0.733E-03
  12.749  0.162E-02  0.421E-05  0.807E-03  0.807E-03
  12.759  0.172E-02  0.441E-05  0.860E-03  0.860E-03
  12.769  0.176E-02  0.447E-05  0.880E-03  0.880E-03
  12.779  0.172E-02  0.433E-05  0.858E-03  0.858E-03
  12.789  0.158E-02  0.398E-05  0.790E-03  0.790E-03
  12.799  0.137E-02  0.343E-05  0.682E-03  0.682E-03
  12.809  0.109E-02  0.274E-05  0.546E-03  0.546E-03
  12.819  0.801E-03  0.200E-05  0.399E-03  0.399E-03
  12.829  0.524E-03  0.131E-05  0.262E-03  0.262E-03
  12.839  0.298E-03  0.735E-06  0.148E-03  0.148E-03
  12.849  0.141E-03  0.338E-06  0.703E-04  0.703E-04
  12.859  0.606E-04  0.134E-06  0.302E-04  0.302E-04
  12.869  0.491E-04  0.103E-06  0.245E-04  0.245E-04
  12.879  0.886E-04  0.201E-06  0.442E-04  0.442E-04
  12.889  0.156E-03  0.370E-06  0.778E-04  0.778E-04
  12.899  0.228E-03  0.552E-06  0.114E-03  0.114E-03
  12.909  0.286E-03  0.698E-06  0.143E-03  0.143E-03
  12.919  0.317E-03  0.777E-06  0.158E-03  0.158E-03
  12.929  0.315E-03  0.777E-06  0.157E-03  0.157E-03
  12.939  0.285E-03  0.702E-06  0.142E-03  0.142E-03
  12.949  0.232E-03  0.572E-06  0.115E-03  0.115E-03
  12.959  0.167E-03  0.412E-06  0.831E-04  0.831E-04
  12.969  0.100E-03  0.248E-06  0.501E-04  0.501E-04
  12.979  0.417E-04  0.103E-06  0.208E-04  0.208E-04
  12.989 -0.374E-05 -0.941E-08 -0.187E-05 -0.187E-05
  12.999 -0.338E-04 -0.837E-07 -0.168E-04 -0.168E-04
  13.009 -0.493E-04 -0.122E-06 -0.246E-04 -0.246E-04
  13.019 -0.531E-04 -0.132E-06 -0.265E-04 -0.265E-04
  13.029 -0.491E-04 -0.122E-06 -0.245E-04 -0.245E-04
  13.039 -0.408E-04 -0.101E-06 -0.204E-04 -0.204E-04
  13.049 -0.313E-04 -0.774E-07 -0.156E-04 -0.156E-04
  13.059 -0.223E-04 -0.552E-07 -0.111E-04 -0.111E-04
  13.069 -0.149E-04 -0.370E-07 -0.744E-05 -0.744E-05
  13.079 -0.942E-05 -0.233E-07 -0.470E-05 -0.470E-05
  13.089 -0.563E-05 -0.139E-07 -0.281E-05 -0.281E-05
  13.099 -0.319E-05 -0.789E-08 -0.159E-05 -0.159E-05
