#  E (eV)   dos(E)     Int dos(E) EFermi =   -1.771 eV
 -10.000  0.4141E+00  0.4141E-02
  -9.990  0.4152E+00  0.8293E-02
  -9.980  0.4169E+00  0.1246E-01
  -9.970  0.4191E+00  0.1665E-01
  -9.960  0.4220E+00  0.2087E-01
  -9.950  0.4255E+00  0.2513E-01
  -9.940  0.4295E+00  0.2942E-01
  -9.930  0.4339E+00  0.3376E-01
  -9.920  0.4386E+00  0.3815E-01
  -9.910  0.4433E+00  0.4258E-01
  -9.900  0.4480E+00  0.4706E-01
  -9.890  0.4524E+00  0.5159E-01
  -9.880  0.4563E+00  0.5615E-01
  -9.870  0.4594E+00  0.6074E-01
  -9.860  0.4617E+00  0.6536E-01
  -9.850  0.4629E+00  0.6999E-01
  -9.840  0.4629E+00  0.7462E-01
  -9.830  0.4618E+00  0.7924E-01
  -9.820  0.4596E+00  0.8383E-01
  -9.810  0.4562E+00  0.8839E-01
  -9.800  0.4519E+00  0.9291E-01
  -9.790  0.4469E+00  0.9738E-01
  -9.780  0.4414E+00  0.1018E+00
  -9.770  0.4357E+00  0.1062E+00
  -9.760  0.4300E+00  0.1105E+00
  -9.750  0.4247E+00  0.1147E+00
  -9.740  0.4202E+00  0.1189E+00
  -9.730  0.4166E+00  0.1231E+00
  -9.720  0.4142E+00  0.1272E+00
  -9.710  0.4132E+00  0.1313E+00
  -9.700  0.4137E+00  0.1355E+00
  -9.690  0.4158E+00  0.1396E+00
  -9.680  0.4195E+00  0.1438E+00
  -9.670  0.4247E+00  0.1481E+00
  -9.660  0.4312E+00  0.1524E+00
  -9.650  0.4389E+00  0.1568E+00
  -9.640  0.4475E+00  0.1613E+00
  -9.630  0.4568E+00  0.1658E+00
  -9.620  0.4664E+00  0.1705E+00
  -9.610  0.4762E+00  0.1752E+00
  -9.600  0.4858E+00  0.1801E+00
  -9.590  0.4950E+00  0.1851E+00
  -9.580  0.5037E+00  0.1901E+00
  -9.570  0.5117E+00  0.1952E+00
  -9.560  0.5190E+00  0.2004E+00
  -9.550  0.5255E+00  0.2057E+00
  -9.540  0.5312E+00  0.2110E+00
  -9.530  0.5363E+00  0.2163E+00
  -9.520  0.5409E+00  0.2217E+00
  -9.510  0.5452E+00  0.2272E+00
  -9.500  0.5494E+00  0.2327E+00
  -9.490  0.5536E+00  0.2382E+00
  -9.480  0.5582E+00  0.2438E+00
  -9.470  0.5632E+00  0.2494E+00
  -9.460  0.5689E+00  0.2551E+00
  -9.450  0.5755E+00  0.2609E+00
  -9.440  0.5831E+00  0.2667E+00
  -9.430  0.5916E+00  0.2726E+00
  -9.420  0.6013E+00  0.2786E+00
  -9.410  0.6119E+00  0.2848E+00
  -9.400  0.6236E+00  0.2910E+00
  -9.390  0.6360E+00  0.2974E+00
  -9.380  0.6490E+00  0.3038E+00
  -9.370  0.6625E+00  0.3105E+00
  -9.360  0.6760E+00  0.3172E+00
  -9.350  0.6894E+00  0.3241E+00
  -9.340  0.7023E+00  0.3311E+00
  -9.330  0.7144E+00  0.3383E+00
  -9.320  0.7255E+00  0.3455E+00
  -9.310  0.7352E+00  0.3529E+00
  -9.300  0.7434E+00  0.3603E+00
  -9.290  0.7499E+00  0.3678E+00
  -9.280  0.7547E+00  0.3754E+00
  -9.270  0.7576E+00  0.3830E+00
  -9.260  0.7589E+00  0.3905E+00
  -9.250  0.7585E+00  0.3981E+00
  -9.240  0.7568E+00  0.4057E+00
  -9.230  0.7540E+00  0.4132E+00
  -9.220  0.7504E+00  0.4207E+00
  -9.210  0.7464E+00  0.4282E+00
  -9.200  0.7423E+00  0.4356E+00
  -9.190  0.7384E+00  0.4430E+00
  -9.180  0.7351E+00  0.4504E+00
  -9.170  0.7328E+00  0.4577E+00
  -9.160  0.7315E+00  0.4650E+00
  -9.150  0.7315E+00  0.4723E+00
  -9.140  0.7328E+00  0.4796E+00
  -9.130  0.7355E+00  0.4870E+00
  -9.120  0.7395E+00  0.4944E+00
  -9.110  0.7446E+00  0.5018E+00
  -9.100  0.7507E+00  0.5093E+00
  -9.090  0.7575E+00  0.5169E+00
  -9.080  0.7648E+00  0.5246E+00
  -9.070  0.7722E+00  0.5323E+00
  -9.060  0.7794E+00  0.5401E+00
  -9.050  0.7861E+00  0.5479E+00
  -9.040  0.7922E+00  0.5559E+00
  -9.030  0.7973E+00  0.5638E+00
  -9.020  0.8013E+00  0.5719E+00
  -9.010  0.8042E+00  0.5799E+00
  -9.000  0.8058E+00  0.5880E+00
  -8.990  0.8063E+00  0.5960E+00
  -8.980  0.8056E+00  0.6041E+00
  -8.970  0.8040E+00  0.6121E+00
  -8.960  0.8016E+00  0.6201E+00
  -8.950  0.7986E+00  0.6281E+00
  -8.940  0.7953E+00  0.6361E+00
  -8.930  0.7919E+00  0.6440E+00
  -8.920  0.7887E+00  0.6519E+00
  -8.910  0.7858E+00  0.6597E+00
  -8.900  0.7836E+00  0.6676E+00
  -8.890  0.7821E+00  0.6754E+00
  -8.880  0.7814E+00  0.6832E+00
  -8.870  0.7818E+00  0.6910E+00
  -8.860  0.7832E+00  0.6989E+00
  -8.850  0.7856E+00  0.7067E+00
  -8.840  0.7890E+00  0.7146E+00
  -8.830  0.7933E+00  0.7225E+00
  -8.820  0.7984E+00  0.7305E+00
  -8.810  0.8042E+00  0.7386E+00
  -8.800  0.8105E+00  0.7467E+00
  -8.790  0.8171E+00  0.7548E+00
  -8.780  0.8238E+00  0.7631E+00
  -8.770  0.8305E+00  0.7714E+00
  -8.760  0.8371E+00  0.7797E+00
  -8.750  0.8433E+00  0.7882E+00
  -8.740  0.8491E+00  0.7967E+00
  -8.730  0.8543E+00  0.8052E+00
  -8.720  0.8589E+00  0.8138E+00
  -8.710  0.8630E+00  0.8224E+00
  -8.700  0.8665E+00  0.8311E+00
  -8.690  0.8695E+00  0.8398E+00
  -8.680  0.8720E+00  0.8485E+00
  -8.670  0.8742E+00  0.8573E+00
  -8.660  0.8761E+00  0.8660E+00
  -8.650  0.8780E+00  0.8748E+00
  -8.640  0.8798E+00  0.8836E+00
  -8.630  0.8817E+00  0.8924E+00
  -8.620  0.8838E+00  0.9012E+00
  -8.610  0.8861E+00  0.9101E+00
  -8.600  0.8888E+00  0.9190E+00
  -8.590  0.8918E+00  0.9279E+00
  -8.580  0.8951E+00  0.9369E+00
  -8.570  0.8987E+00  0.9459E+00
  -8.560  0.9027E+00  0.9549E+00
  -8.550  0.9070E+00  0.9640E+00
  -8.540  0.9116E+00  0.9731E+00
  -8.530  0.9166E+00  0.9822E+00
  -8.520  0.9219E+00  0.9915E+00
  -8.510  0.9277E+00  0.1001E+01
  -8.500  0.9339E+00  0.1010E+01
  -8.490  0.9406E+00  0.1019E+01
  -8.480  0.9480E+00  0.1029E+01
  -8.470  0.9560E+00  0.1039E+01
  -8.460  0.9648E+00  0.1048E+01
  -8.450  0.9744E+00  0.1058E+01
  -8.440  0.9849E+00  0.1068E+01
  -8.430  0.9962E+00  0.1078E+01
  -8.420  0.1008E+01  0.1088E+01
  -8.410  0.1021E+01  0.1098E+01
  -8.400  0.1035E+01  0.1108E+01
  -8.390  0.1049E+01  0.1119E+01
  -8.380  0.1063E+01  0.1129E+01
  -8.370  0.1077E+01  0.1140E+01
  -8.360  0.1090E+01  0.1151E+01
  -8.350  0.1103E+01  0.1162E+01
  -8.340  0.1115E+01  0.1173E+01
  -8.330  0.1125E+01  0.1185E+01
  -8.320  0.1134E+01  0.1196E+01
  -8.310  0.1141E+01  0.1207E+01
  -8.300  0.1146E+01  0.1219E+01
  -8.290  0.1148E+01  0.1230E+01
  -8.280  0.1148E+01  0.1242E+01
  -8.270  0.1146E+01  0.1253E+01
  -8.260  0.1141E+01  0.1265E+01
  -8.250  0.1134E+01  0.1276E+01
  -8.240  0.1125E+01  0.1287E+01
  -8.230  0.1114E+01  0.1298E+01
  -8.220  0.1102E+01  0.1309E+01
  -8.210  0.1088E+01  0.1320E+01
  -8.200  0.1074E+01  0.1331E+01
  -8.190  0.1059E+01  0.1342E+01
  -8.180  0.1045E+01  0.1352E+01
  -8.170  0.1030E+01  0.1362E+01
  -8.160  0.1017E+01  0.1372E+01
  -8.150  0.1004E+01  0.1383E+01
  -8.140  0.9921E+00  0.1392E+01
  -8.130  0.9816E+00  0.1402E+01
  -8.120  0.9724E+00  0.1412E+01
  -8.110  0.9644E+00  0.1422E+01
  -8.100  0.9577E+00  0.1431E+01
  -8.090  0.9521E+00  0.1441E+01
  -8.080  0.9474E+00  0.1450E+01
  -8.070  0.9435E+00  0.1460E+01
  -8.060  0.9400E+00  0.1469E+01
  -8.050  0.9368E+00  0.1478E+01
  -8.040  0.9336E+00  0.1488E+01
  -8.030  0.9302E+00  0.1497E+01
  -8.020  0.9263E+00  0.1506E+01
  -8.010  0.9219E+00  0.1516E+01
  -8.000  0.9168E+00  0.1525E+01
  -7.990  0.9110E+00  0.1534E+01
  -7.980  0.9044E+00  0.1543E+01
  -7.970  0.8971E+00  0.1552E+01
  -7.960  0.8893E+00  0.1561E+01
  -7.950  0.8810E+00  0.1570E+01
  -7.940  0.8725E+00  0.1578E+01
  -7.930  0.8639E+00  0.1587E+01
  -7.920  0.8555E+00  0.1595E+01
  -7.910  0.8474E+00  0.1604E+01
  -7.900  0.8398E+00  0.1612E+01
  -7.890  0.8328E+00  0.1621E+01
  -7.880  0.8265E+00  0.1629E+01
  -7.870  0.8211E+00  0.1637E+01
  -7.860  0.8163E+00  0.1645E+01
  -7.850  0.8124E+00  0.1653E+01
  -7.840  0.8091E+00  0.1661E+01
  -7.830  0.8063E+00  0.1670E+01
  -7.820  0.8040E+00  0.1678E+01
  -7.810  0.8020E+00  0.1686E+01
  -7.800  0.8001E+00  0.1694E+01
  -7.790  0.7983E+00  0.1702E+01
  -7.780  0.7963E+00  0.1710E+01
  -7.770  0.7942E+00  0.1718E+01
  -7.760  0.7919E+00  0.1725E+01
  -7.750  0.7894E+00  0.1733E+01
  -7.740  0.7866E+00  0.1741E+01
  -7.730  0.7837E+00  0.1749E+01
  -7.720  0.7806E+00  0.1757E+01
  -7.710  0.7775E+00  0.1765E+01
  -7.700  0.7745E+00  0.1772E+01
  -7.690  0.7717E+00  0.1780E+01
  -7.680  0.7691E+00  0.1788E+01
  -7.670  0.7668E+00  0.1795E+01
  -7.660  0.7648E+00  0.1803E+01
  -7.650  0.7633E+00  0.1811E+01
  -7.640  0.7621E+00  0.1818E+01
  -7.630  0.7612E+00  0.1826E+01
  -7.620  0.7607E+00  0.1834E+01
  -7.610  0.7602E+00  0.1841E+01
  -7.600  0.7599E+00  0.1849E+01
  -7.590  0.7594E+00  0.1856E+01
  -7.580  0.7587E+00  0.1864E+01
  -7.570  0.7578E+00  0.1872E+01
  -7.560  0.7563E+00  0.1879E+01
  -7.550  0.7543E+00  0.1887E+01
  -7.540  0.7518E+00  0.1894E+01
  -7.530  0.7486E+00  0.1902E+01
  -7.520  0.7449E+00  0.1909E+01
  -7.510  0.7407E+00  0.1916E+01
  -7.500  0.7361E+00  0.1924E+01
  -7.490  0.7312E+00  0.1931E+01
  -7.480  0.7263E+00  0.1938E+01
  -7.470  0.7214E+00  0.1946E+01
  -7.460  0.7168E+00  0.1953E+01
  -7.450  0.7125E+00  0.1960E+01
  -7.440  0.7089E+00  0.1967E+01
  -7.430  0.7058E+00  0.1974E+01
  -7.420  0.7035E+00  0.1981E+01
  -7.410  0.7019E+00  0.1988E+01
  -7.400  0.7010E+00  0.1995E+01
  -7.390  0.7007E+00  0.2002E+01
  -7.380  0.7010E+00  0.2009E+01
  -7.370  0.7016E+00  0.2016E+01
  -7.360  0.7025E+00  0.2023E+01
  -7.350  0.7034E+00  0.2030E+01
  -7.340  0.7042E+00  0.2037E+01
  -7.330  0.7048E+00  0.2044E+01
  -7.320  0.7050E+00  0.2051E+01
  -7.310  0.7048E+00  0.2058E+01
  -7.300  0.7040E+00  0.2065E+01
  -7.290  0.7028E+00  0.2072E+01
  -7.280  0.7012E+00  0.2079E+01
  -7.270  0.6991E+00  0.2086E+01
  -7.260  0.6967E+00  0.2093E+01
  -7.250  0.6941E+00  0.2100E+01
  -7.240  0.6915E+00  0.2107E+01
  -7.230  0.6888E+00  0.2114E+01
  -7.220  0.6864E+00  0.2121E+01
  -7.210  0.6841E+00  0.2128E+01
  -7.200  0.6821E+00  0.2135E+01
  -7.190  0.6805E+00  0.2142E+01
  -7.180  0.6792E+00  0.2148E+01
  -7.170  0.6783E+00  0.2155E+01
  -7.160  0.6776E+00  0.2162E+01
  -7.150  0.6771E+00  0.2169E+01
  -7.140  0.6767E+00  0.2175E+01
  -7.130  0.6763E+00  0.2182E+01
  -7.120  0.6759E+00  0.2189E+01
  -7.110  0.6754E+00  0.2196E+01
  -7.100  0.6746E+00  0.2202E+01
  -7.090  0.6736E+00  0.2209E+01
  -7.080  0.6722E+00  0.2216E+01
  -7.070  0.6705E+00  0.2223E+01
  -7.060  0.6684E+00  0.2229E+01
  -7.050  0.6659E+00  0.2236E+01
  -7.040  0.6632E+00  0.2243E+01
  -7.030  0.6602E+00  0.2249E+01
  -7.020  0.6570E+00  0.2256E+01
  -7.010  0.6538E+00  0.2262E+01
  -7.000  0.6505E+00  0.2269E+01
  -6.990  0.6473E+00  0.2275E+01
  -6.980  0.6443E+00  0.2282E+01
  -6.970  0.6417E+00  0.2288E+01
  -6.960  0.6394E+00  0.2295E+01
  -6.950  0.6376E+00  0.2301E+01
  -6.940  0.6364E+00  0.2307E+01
  -6.930  0.6358E+00  0.2314E+01
  -6.920  0.6358E+00  0.2320E+01
  -6.910  0.6365E+00  0.2326E+01
  -6.900  0.6378E+00  0.2333E+01
  -6.890  0.6397E+00  0.2339E+01
  -6.880  0.6420E+00  0.2346E+01
  -6.870  0.6447E+00  0.2352E+01
  -6.860  0.6476E+00  0.2358E+01
  -6.850  0.6504E+00  0.2365E+01
  -6.840  0.6532E+00  0.2371E+01
  -6.830  0.6555E+00  0.2378E+01
  -6.820  0.6573E+00  0.2385E+01
  -6.810  0.6584E+00  0.2391E+01
  -6.800  0.6586E+00  0.2398E+01
  -6.790  0.6579E+00  0.2404E+01
  -6.780  0.6561E+00  0.2411E+01
  -6.770  0.6533E+00  0.2417E+01
  -6.760  0.6494E+00  0.2424E+01
  -6.750  0.6447E+00  0.2430E+01
  -6.740  0.6392E+00  0.2437E+01
  -6.730  0.6331E+00  0.2443E+01
  -6.720  0.6267E+00  0.2449E+01
  -6.710  0.6202E+00  0.2456E+01
  -6.700  0.6138E+00  0.2462E+01
  -6.690  0.6079E+00  0.2468E+01
  -6.680  0.6027E+00  0.2474E+01
  -6.670  0.5983E+00  0.2480E+01
  -6.660  0.5951E+00  0.2486E+01
  -6.650  0.5931E+00  0.2492E+01
  -6.640  0.5924E+00  0.2498E+01
  -6.630  0.5931E+00  0.2504E+01
  -6.620  0.5950E+00  0.2510E+01
  -6.610  0.5981E+00  0.2515E+01
  -6.600  0.6022E+00  0.2522E+01
  -6.590  0.6070E+00  0.2528E+01
  -6.580  0.6123E+00  0.2534E+01
  -6.570  0.6179E+00  0.2540E+01
  -6.560  0.6233E+00  0.2546E+01
  -6.550  0.6283E+00  0.2552E+01
  -6.540  0.6326E+00  0.2559E+01
  -6.530  0.6360E+00  0.2565E+01
  -6.520  0.6383E+00  0.2571E+01
  -6.510  0.6392E+00  0.2578E+01
  -6.500  0.6389E+00  0.2584E+01
  -6.490  0.6372E+00  0.2591E+01
  -6.480  0.6342E+00  0.2597E+01
  -6.470  0.6301E+00  0.2603E+01
  -6.460  0.6251E+00  0.2610E+01
  -6.450  0.6193E+00  0.2616E+01
  -6.440  0.6132E+00  0.2622E+01
  -6.430  0.6068E+00  0.2628E+01
  -6.420  0.6005E+00  0.2634E+01
  -6.410  0.5946E+00  0.2640E+01
  -6.400  0.5892E+00  0.2646E+01
  -6.390  0.5846E+00  0.2652E+01
  -6.380  0.5809E+00  0.2657E+01
  -6.370  0.5781E+00  0.2663E+01
  -6.360  0.5764E+00  0.2669E+01
  -6.350  0.5755E+00  0.2675E+01
  -6.340  0.5756E+00  0.2680E+01
  -6.330  0.5765E+00  0.2686E+01
  -6.320  0.5780E+00  0.2692E+01
  -6.310  0.5801E+00  0.2698E+01
  -6.300  0.5826E+00  0.2704E+01
  -6.290  0.5853E+00  0.2709E+01
  -6.280  0.5882E+00  0.2715E+01
  -6.270  0.5910E+00  0.2721E+01
  -6.260  0.5938E+00  0.2727E+01
  -6.250  0.5963E+00  0.2733E+01
  -6.240  0.5986E+00  0.2739E+01
  -6.230  0.6006E+00  0.2745E+01
  -6.220  0.6023E+00  0.2751E+01
  -6.210  0.6036E+00  0.2757E+01
  -6.200  0.6045E+00  0.2763E+01
  -6.190  0.6049E+00  0.2769E+01
  -6.180  0.6050E+00  0.2775E+01
  -6.170  0.6046E+00  0.2781E+01
  -6.160  0.6037E+00  0.2787E+01
  -6.150  0.6023E+00  0.2793E+01
  -6.140  0.6005E+00  0.2799E+01
  -6.130  0.5981E+00  0.2805E+01
  -6.120  0.5953E+00  0.2811E+01
  -6.110  0.5921E+00  0.2817E+01
  -6.100  0.5884E+00  0.2823E+01
  -6.090  0.5844E+00  0.2829E+01
  -6.080  0.5801E+00  0.2835E+01
  -6.070  0.5757E+00  0.2841E+01
  -6.060  0.5713E+00  0.2846E+01
  -6.050  0.5670E+00  0.2852E+01
  -6.040  0.5631E+00  0.2858E+01
  -6.030  0.5595E+00  0.2863E+01
  -6.020  0.5567E+00  0.2869E+01
  -6.010  0.5545E+00  0.2874E+01
  -6.000  0.5533E+00  0.2880E+01
  -5.990  0.5531E+00  0.2885E+01
  -5.980  0.5539E+00  0.2891E+01
  -5.970  0.5558E+00  0.2897E+01
  -5.960  0.5587E+00  0.2902E+01
  -5.950  0.5624E+00  0.2908E+01
  -5.940  0.5669E+00  0.2913E+01
  -5.930  0.5719E+00  0.2919E+01
  -5.920  0.5771E+00  0.2925E+01
  -5.910  0.5824E+00  0.2931E+01
  -5.900  0.5874E+00  0.2937E+01
  -5.890  0.5918E+00  0.2942E+01
  -5.880  0.5954E+00  0.2948E+01
  -5.870  0.5980E+00  0.2954E+01
  -5.860  0.5994E+00  0.2960E+01
  -5.850  0.5994E+00  0.2966E+01
  -5.840  0.5981E+00  0.2972E+01
  -5.830  0.5955E+00  0.2978E+01
  -5.820  0.5916E+00  0.2984E+01
  -5.810  0.5867E+00  0.2990E+01
  -5.800  0.5810E+00  0.2996E+01
  -5.790  0.5748E+00  0.3002E+01
  -5.780  0.5683E+00  0.3007E+01
  -5.770  0.5618E+00  0.3013E+01
  -5.760  0.5556E+00  0.3019E+01
  -5.750  0.5501E+00  0.3024E+01
  -5.740  0.5453E+00  0.3030E+01
  -5.730  0.5416E+00  0.3035E+01
  -5.720  0.5390E+00  0.3040E+01
  -5.710  0.5375E+00  0.3046E+01
  -5.700  0.5372E+00  0.3051E+01
  -5.690  0.5381E+00  0.3056E+01
  -5.680  0.5399E+00  0.3062E+01
  -5.670  0.5426E+00  0.3067E+01
  -5.660  0.5460E+00  0.3073E+01
  -5.650  0.5499E+00  0.3078E+01
  -5.640  0.5541E+00  0.3084E+01
  -5.630  0.5584E+00  0.3089E+01
  -5.620  0.5626E+00  0.3095E+01
  -5.610  0.5667E+00  0.3101E+01
  -5.600  0.5704E+00  0.3106E+01
  -5.590  0.5736E+00  0.3112E+01
  -5.580  0.5763E+00  0.3118E+01
  -5.570  0.5784E+00  0.3124E+01
  -5.560  0.5798E+00  0.3129E+01
  -5.550  0.5806E+00  0.3135E+01
  -5.540  0.5807E+00  0.3141E+01
  -5.530  0.5802E+00  0.3147E+01
  -5.520  0.5790E+00  0.3153E+01
  -5.510  0.5772E+00  0.3158E+01
  -5.500  0.5749E+00  0.3164E+01
  -5.490  0.5720E+00  0.3170E+01
  -5.480  0.5687E+00  0.3176E+01
  -5.470  0.5651E+00  0.3181E+01
  -5.460  0.5612E+00  0.3187E+01
  -5.450  0.5571E+00  0.3192E+01
  -5.440  0.5530E+00  0.3198E+01
  -5.430  0.5489E+00  0.3203E+01
  -5.420  0.5450E+00  0.3209E+01
  -5.410  0.5414E+00  0.3214E+01
  -5.400  0.5383E+00  0.3220E+01
  -5.390  0.5357E+00  0.3225E+01
  -5.380  0.5337E+00  0.3230E+01
  -5.370  0.5325E+00  0.3236E+01
  -5.360  0.5320E+00  0.3241E+01
  -5.350  0.5324E+00  0.3246E+01
  -5.340  0.5336E+00  0.3252E+01
  -5.330  0.5355E+00  0.3257E+01
  -5.320  0.5382E+00  0.3262E+01
  -5.310  0.5416E+00  0.3268E+01
  -5.300  0.5455E+00  0.3273E+01
  -5.290  0.5498E+00  0.3279E+01
  -5.280  0.5543E+00  0.3284E+01
  -5.270  0.5589E+00  0.3290E+01
  -5.260  0.5633E+00  0.3296E+01
  -5.250  0.5676E+00  0.3301E+01
  -5.240  0.5713E+00  0.3307E+01
  -5.230  0.5745E+00  0.3313E+01
  -5.220  0.5770E+00  0.3318E+01
  -5.210  0.5787E+00  0.3324E+01
  -5.200  0.5795E+00  0.3330E+01
  -5.190  0.5793E+00  0.3336E+01
  -5.180  0.5782E+00  0.3342E+01
  -5.170  0.5762E+00  0.3347E+01
  -5.160  0.5733E+00  0.3353E+01
  -5.150  0.5696E+00  0.3359E+01
  -5.140  0.5651E+00  0.3364E+01
  -5.130  0.5601E+00  0.3370E+01
  -5.120  0.5547E+00  0.3376E+01
  -5.110  0.5489E+00  0.3381E+01
  -5.100  0.5430E+00  0.3387E+01
  -5.090  0.5371E+00  0.3392E+01
  -5.080  0.5313E+00  0.3397E+01
  -5.070  0.5258E+00  0.3402E+01
  -5.060  0.5206E+00  0.3408E+01
  -5.050  0.5159E+00  0.3413E+01
  -5.040  0.5117E+00  0.3418E+01
  -5.030  0.5080E+00  0.3423E+01
  -5.020  0.5048E+00  0.3428E+01
  -5.010  0.5021E+00  0.3433E+01
  -5.000  0.4999E+00  0.3438E+01
  -4.990  0.4980E+00  0.3443E+01
  -4.980  0.4964E+00  0.3448E+01
  -4.970  0.4949E+00  0.3453E+01
  -4.960  0.4934E+00  0.3458E+01
  -4.950  0.4918E+00  0.3463E+01
  -4.940  0.4899E+00  0.3468E+01
  -4.930  0.4877E+00  0.3473E+01
  -4.920  0.4849E+00  0.3477E+01
  -4.910  0.4816E+00  0.3482E+01
  -4.900  0.4776E+00  0.3487E+01
  -4.890  0.4728E+00  0.3492E+01
  -4.880  0.4673E+00  0.3496E+01
  -4.870  0.4610E+00  0.3501E+01
  -4.860  0.4541E+00  0.3506E+01
  -4.850  0.4464E+00  0.3510E+01
  -4.840  0.4382E+00  0.3514E+01
  -4.830  0.4295E+00  0.3519E+01
  -4.820  0.4205E+00  0.3523E+01
  -4.810  0.4113E+00  0.3527E+01
  -4.800  0.4020E+00  0.3531E+01
  -4.790  0.3928E+00  0.3535E+01
  -4.780  0.3840E+00  0.3539E+01
  -4.770  0.3755E+00  0.3543E+01
  -4.760  0.3677E+00  0.3546E+01
  -4.750  0.3606E+00  0.3550E+01
  -4.740  0.3544E+00  0.3553E+01
  -4.730  0.3492E+00  0.3557E+01
  -4.720  0.3451E+00  0.3560E+01
  -4.710  0.3423E+00  0.3564E+01
  -4.700  0.3407E+00  0.3567E+01
  -4.690  0.3404E+00  0.3571E+01
  -4.680  0.3415E+00  0.3574E+01
  -4.670  0.3438E+00  0.3577E+01
  -4.660  0.3473E+00  0.3581E+01
  -4.650  0.3519E+00  0.3584E+01
  -4.640  0.3576E+00  0.3588E+01
  -4.630  0.3641E+00  0.3592E+01
  -4.620  0.3713E+00  0.3595E+01
  -4.610  0.3790E+00  0.3599E+01
  -4.600  0.3870E+00  0.3603E+01
  -4.590  0.3951E+00  0.3607E+01
  -4.580  0.4030E+00  0.3611E+01
  -4.570  0.4106E+00  0.3615E+01
  -4.560  0.4176E+00  0.3619E+01
  -4.550  0.4238E+00  0.3624E+01
  -4.540  0.4292E+00  0.3628E+01
  -4.530  0.4337E+00  0.3632E+01
  -4.520  0.4370E+00  0.3637E+01
  -4.510  0.4393E+00  0.3641E+01
  -4.500  0.4406E+00  0.3645E+01
  -4.490  0.4408E+00  0.3650E+01
  -4.480  0.4401E+00  0.3654E+01
  -4.470  0.4386E+00  0.3659E+01
  -4.460  0.4365E+00  0.3663E+01
  -4.450  0.4340E+00  0.3667E+01
  -4.440  0.4313E+00  0.3672E+01
  -4.430  0.4286E+00  0.3676E+01
  -4.420  0.4261E+00  0.3680E+01
  -4.410  0.4241E+00  0.3684E+01
  -4.400  0.4228E+00  0.3689E+01
  -4.390  0.4225E+00  0.3693E+01
  -4.380  0.4232E+00  0.3697E+01
  -4.370  0.4252E+00  0.3701E+01
  -4.360  0.4286E+00  0.3706E+01
  -4.350  0.4336E+00  0.3710E+01
  -4.340  0.4400E+00  0.3714E+01
  -4.330  0.4481E+00  0.3719E+01
  -4.320  0.4576E+00  0.3723E+01
  -4.310  0.4686E+00  0.3728E+01
  -4.300  0.4807E+00  0.3733E+01
  -4.290  0.4939E+00  0.3738E+01
  -4.280  0.5079E+00  0.3743E+01
  -4.270  0.5222E+00  0.3748E+01
  -4.260  0.5367E+00  0.3753E+01
  -4.250  0.5507E+00  0.3759E+01
  -4.240  0.5641E+00  0.3765E+01
  -4.230  0.5762E+00  0.3770E+01
  -4.220  0.5868E+00  0.3776E+01
  -4.210  0.5954E+00  0.3782E+01
  -4.200  0.6016E+00  0.3788E+01
  -4.190  0.6053E+00  0.3794E+01
  -4.180  0.6062E+00  0.3800E+01
  -4.170  0.6042E+00  0.3806E+01
  -4.160  0.5992E+00  0.3812E+01
  -4.150  0.5913E+00  0.3818E+01
  -4.140  0.5806E+00  0.3824E+01
  -4.130  0.5675E+00  0.3830E+01
  -4.120  0.5523E+00  0.3835E+01
  -4.110  0.5353E+00  0.3841E+01
  -4.100  0.5171E+00  0.3846E+01
  -4.090  0.4982E+00  0.3851E+01
  -4.080  0.4791E+00  0.3856E+01
  -4.070  0.4604E+00  0.3860E+01
  -4.060  0.4426E+00  0.3865E+01
  -4.050  0.4261E+00  0.3869E+01
  -4.040  0.4115E+00  0.3873E+01
  -4.030  0.3990E+00  0.3877E+01
  -4.020  0.3888E+00  0.3881E+01
  -4.010  0.3811E+00  0.3885E+01
  -4.000  0.3760E+00  0.3888E+01
  -3.990  0.3733E+00  0.3892E+01
  -3.980  0.3728E+00  0.3896E+01
  -3.970  0.3743E+00  0.3900E+01
  -3.960  0.3773E+00  0.3903E+01
  -3.950  0.3815E+00  0.3907E+01
  -3.940  0.3863E+00  0.3911E+01
  -3.930  0.3913E+00  0.3915E+01
  -3.920  0.3959E+00  0.3919E+01
  -3.910  0.3997E+00  0.3923E+01
  -3.900  0.4023E+00  0.3927E+01
  -3.890  0.4033E+00  0.3931E+01
  -3.880  0.4025E+00  0.3935E+01
  -3.870  0.3996E+00  0.3939E+01
  -3.860  0.3947E+00  0.3943E+01
  -3.850  0.3878E+00  0.3947E+01
  -3.840  0.3790E+00  0.3951E+01
  -3.830  0.3685E+00  0.3954E+01
  -3.820  0.3567E+00  0.3958E+01
  -3.810  0.3438E+00  0.3961E+01
  -3.800  0.3303E+00  0.3965E+01
  -3.790  0.3166E+00  0.3968E+01
  -3.780  0.3031E+00  0.3971E+01
  -3.770  0.2901E+00  0.3974E+01
  -3.760  0.2780E+00  0.3976E+01
  -3.750  0.2672E+00  0.3979E+01
  -3.740  0.2578E+00  0.3982E+01
  -3.730  0.2501E+00  0.3984E+01
  -3.720  0.2441E+00  0.3987E+01
  -3.710  0.2399E+00  0.3989E+01
  -3.700  0.2375E+00  0.3991E+01
  -3.690  0.2367E+00  0.3994E+01
  -3.680  0.2375E+00  0.3996E+01
  -3.670  0.2397E+00  0.3999E+01
  -3.660  0.2430E+00  0.4001E+01
  -3.650  0.2472E+00  0.4004E+01
  -3.640  0.2521E+00  0.4006E+01
  -3.630  0.2572E+00  0.4009E+01
  -3.620  0.2624E+00  0.4011E+01
  -3.610  0.2674E+00  0.4014E+01
  -3.600  0.2719E+00  0.4017E+01
  -3.590  0.2756E+00  0.4019E+01
  -3.580  0.2784E+00  0.4022E+01
  -3.570  0.2801E+00  0.4025E+01
  -3.560  0.2805E+00  0.4028E+01
  -3.550  0.2797E+00  0.4031E+01
  -3.540  0.2775E+00  0.4033E+01
  -3.530  0.2740E+00  0.4036E+01
  -3.520  0.2692E+00  0.4039E+01
  -3.510  0.2634E+00  0.4041E+01
  -3.500  0.2566E+00  0.4044E+01
  -3.490  0.2490E+00  0.4046E+01
  -3.480  0.2409E+00  0.4049E+01
  -3.470  0.2325E+00  0.4051E+01
  -3.460  0.2241E+00  0.4053E+01
  -3.450  0.2158E+00  0.4056E+01
  -3.440  0.2078E+00  0.4058E+01
  -3.430  0.2005E+00  0.4060E+01
  -3.420  0.1939E+00  0.4062E+01
  -3.410  0.1881E+00  0.4063E+01
  -3.400  0.1834E+00  0.4065E+01
  -3.390  0.1796E+00  0.4067E+01
  -3.380  0.1769E+00  0.4069E+01
  -3.370  0.1753E+00  0.4071E+01
  -3.360  0.1746E+00  0.4072E+01
  -3.350  0.1749E+00  0.4074E+01
  -3.340  0.1760E+00  0.4076E+01
  -3.330  0.1778E+00  0.4078E+01
  -3.320  0.1801E+00  0.4079E+01
  -3.310  0.1828E+00  0.4081E+01
  -3.300  0.1859E+00  0.4083E+01
  -3.290  0.1890E+00  0.4085E+01
  -3.280  0.1920E+00  0.4087E+01
  -3.270  0.1948E+00  0.4089E+01
  -3.260  0.1972E+00  0.4091E+01
  -3.250  0.1992E+00  0.4093E+01
  -3.240  0.2005E+00  0.4095E+01
  -3.230  0.2011E+00  0.4097E+01
  -3.220  0.2009E+00  0.4099E+01
  -3.210  0.1998E+00  0.4101E+01
  -3.200  0.1980E+00  0.4103E+01
  -3.190  0.1953E+00  0.4105E+01
  -3.180  0.1918E+00  0.4107E+01
  -3.170  0.1876E+00  0.4109E+01
  -3.160  0.1828E+00  0.4110E+01
  -3.150  0.1775E+00  0.4112E+01
  -3.140  0.1719E+00  0.4114E+01
  -3.130  0.1662E+00  0.4116E+01
  -3.120  0.1604E+00  0.4117E+01
  -3.110  0.1547E+00  0.4119E+01
  -3.100  0.1494E+00  0.4120E+01
  -3.090  0.1444E+00  0.4122E+01
  -3.080  0.1400E+00  0.4123E+01
  -3.070  0.1363E+00  0.4124E+01
  -3.060  0.1332E+00  0.4126E+01
  -3.050  0.1309E+00  0.4127E+01
  -3.040  0.1292E+00  0.4128E+01
  -3.030  0.1283E+00  0.4130E+01
  -3.020  0.1281E+00  0.4131E+01
  -3.010  0.1284E+00  0.4132E+01
  -3.000  0.1293E+00  0.4134E+01
  -2.990  0.1306E+00  0.4135E+01
  -2.980  0.1321E+00  0.4136E+01
  -2.970  0.1338E+00  0.4138E+01
  -2.960  0.1356E+00  0.4139E+01
  -2.950  0.1374E+00  0.4140E+01
  -2.940  0.1390E+00  0.4142E+01
  -2.930  0.1403E+00  0.4143E+01
  -2.920  0.1413E+00  0.4144E+01
  -2.910  0.1419E+00  0.4146E+01
  -2.900  0.1421E+00  0.4147E+01
  -2.890  0.1418E+00  0.4149E+01
  -2.880  0.1409E+00  0.4150E+01
  -2.870  0.1396E+00  0.4152E+01
  -2.860  0.1378E+00  0.4153E+01
  -2.850  0.1355E+00  0.4154E+01
  -2.840  0.1328E+00  0.4156E+01
  -2.830  0.1297E+00  0.4157E+01
  -2.820  0.1263E+00  0.4158E+01
  -2.810  0.1227E+00  0.4159E+01
  -2.800  0.1190E+00  0.4161E+01
  -2.790  0.1152E+00  0.4162E+01
  -2.780  0.1114E+00  0.4163E+01
  -2.770  0.1076E+00  0.4164E+01
  -2.760  0.1041E+00  0.4165E+01
  -2.750  0.1007E+00  0.4166E+01
  -2.740  0.9771E-01  0.4167E+01
  -2.730  0.9504E-01  0.4168E+01
  -2.720  0.9278E-01  0.4169E+01
  -2.710  0.9096E-01  0.4170E+01
  -2.700  0.8958E-01  0.4171E+01
  -2.690  0.8867E-01  0.4171E+01
  -2.680  0.8821E-01  0.4172E+01
  -2.670  0.8817E-01  0.4173E+01
  -2.660  0.8851E-01  0.4174E+01
  -2.650  0.8917E-01  0.4175E+01
  -2.640  0.9008E-01  0.4176E+01
  -2.630  0.9116E-01  0.4177E+01
  -2.620  0.9232E-01  0.4178E+01
  -2.610  0.9347E-01  0.4179E+01
  -2.600  0.9451E-01  0.4180E+01
  -2.590  0.9535E-01  0.4181E+01
  -2.580  0.9591E-01  0.4182E+01
  -2.570  0.9612E-01  0.4183E+01
  -2.560  0.9591E-01  0.4183E+01
  -2.550  0.9525E-01  0.4184E+01
  -2.540  0.9411E-01  0.4185E+01
  -2.530  0.9250E-01  0.4186E+01
  -2.520  0.9044E-01  0.4187E+01
  -2.510  0.8795E-01  0.4188E+01
  -2.500  0.8512E-01  0.4189E+01
  -2.490  0.8200E-01  0.4190E+01
  -2.480  0.7870E-01  0.4191E+01
  -2.470  0.7530E-01  0.4191E+01
  -2.460  0.7190E-01  0.4192E+01
  -2.450  0.6861E-01  0.4193E+01
  -2.440  0.6552E-01  0.4193E+01
  -2.430  0.6270E-01  0.4194E+01
  -2.420  0.6023E-01  0.4195E+01
  -2.410  0.5815E-01  0.4195E+01
  -2.400  0.5651E-01  0.4196E+01
  -2.390  0.5529E-01  0.4196E+01
  -2.380  0.5450E-01  0.4197E+01
  -2.370  0.5410E-01  0.4197E+01
  -2.360  0.5405E-01  0.4198E+01
  -2.350  0.5427E-01  0.4198E+01
  -2.340  0.5470E-01  0.4199E+01
  -2.330  0.5526E-01  0.4200E+01
  -2.320  0.5586E-01  0.4200E+01
  -2.310  0.5642E-01  0.4201E+01
  -2.300  0.5686E-01  0.4201E+01
  -2.290  0.5712E-01  0.4202E+01
  -2.280  0.5715E-01  0.4202E+01
  -2.270  0.5689E-01  0.4203E+01
  -2.260  0.5633E-01  0.4204E+01
  -2.250  0.5545E-01  0.4204E+01
  -2.240  0.5426E-01  0.4205E+01
  -2.230  0.5278E-01  0.4205E+01
  -2.220  0.5104E-01  0.4206E+01
  -2.210  0.4907E-01  0.4206E+01
  -2.200  0.4694E-01  0.4207E+01
  -2.190  0.4469E-01  0.4207E+01
  -2.180  0.4238E-01  0.4207E+01
  -2.170  0.4007E-01  0.4208E+01
  -2.160  0.3781E-01  0.4208E+01
  -2.150  0.3566E-01  0.4209E+01
  -2.140  0.3365E-01  0.4209E+01
  -2.130  0.3182E-01  0.4209E+01
  -2.120  0.3019E-01  0.4210E+01
  -2.110  0.2877E-01  0.4210E+01
  -2.100  0.2757E-01  0.4210E+01
  -2.090  0.2658E-01  0.4210E+01
  -2.080  0.2579E-01  0.4211E+01
  -2.070  0.2516E-01  0.4211E+01
  -2.060  0.2466E-01  0.4211E+01
  -2.050  0.2426E-01  0.4211E+01
  -2.040  0.2393E-01  0.4212E+01
  -2.030  0.2361E-01  0.4212E+01
  -2.020  0.2327E-01  0.4212E+01
  -2.010  0.2289E-01  0.4212E+01
  -2.000  0.2242E-01  0.4213E+01
  -1.990  0.2186E-01  0.4213E+01
  -1.980  0.2119E-01  0.4213E+01
  -1.970  0.2040E-01  0.4213E+01
  -1.960  0.1949E-01  0.4213E+01
  -1.950  0.1848E-01  0.4214E+01
  -1.940  0.1739E-01  0.4214E+01
  -1.930  0.1622E-01  0.4214E+01
  -1.920  0.1502E-01  0.4214E+01
  -1.910  0.1380E-01  0.4214E+01
  -1.900  0.1261E-01  0.4214E+01
  -1.890  0.1146E-01  0.4214E+01
  -1.880  0.1038E-01  0.4215E+01
  -1.870  0.9406E-02  0.4215E+01
  -1.860  0.8557E-02  0.4215E+01
  -1.850  0.7855E-02  0.4215E+01
  -1.840  0.7314E-02  0.4215E+01
  -1.830  0.6948E-02  0.4215E+01
  -1.820  0.6765E-02  0.4215E+01
  -1.810  0.6769E-02  0.4215E+01
  -1.800  0.6960E-02  0.4215E+01
  -1.790  0.7334E-02  0.4215E+01
  -1.780  0.7882E-02  0.4215E+01
  -1.770  0.8592E-02  0.4215E+01
  -1.760  0.9447E-02  0.4215E+01
  -1.750  0.1043E-01  0.4216E+01
  -1.740  0.1151E-01  0.4216E+01
  -1.730  0.1267E-01  0.4216E+01
  -1.720  0.1387E-01  0.4216E+01
  -1.710  0.1510E-01  0.4216E+01
  -1.700  0.1631E-01  0.4216E+01
  -1.690  0.1748E-01  0.4216E+01
  -1.680  0.1859E-01  0.4217E+01
  -1.670  0.1962E-01  0.4217E+01
  -1.660  0.2055E-01  0.4217E+01
  -1.650  0.2136E-01  0.4217E+01
  -1.640  0.2207E-01  0.4217E+01
  -1.630  0.2268E-01  0.4218E+01
  -1.620  0.2319E-01  0.4218E+01
  -1.610  0.2364E-01  0.4218E+01
  -1.600  0.2406E-01  0.4218E+01
  -1.590  0.2447E-01  0.4219E+01
  -1.580  0.2491E-01  0.4219E+01
  -1.570  0.2543E-01  0.4219E+01
  -1.560  0.2606E-01  0.4219E+01
  -1.550  0.2683E-01  0.4220E+01
  -1.540  0.2778E-01  0.4220E+01
  -1.530  0.2894E-01  0.4220E+01
  -1.520  0.3031E-01  0.4221E+01
  -1.510  0.3189E-01  0.4221E+01
  -1.500  0.3369E-01  0.4221E+01
  -1.490  0.3568E-01  0.4222E+01
  -1.480  0.3783E-01  0.4222E+01
  -1.470  0.4011E-01  0.4222E+01
  -1.460  0.4246E-01  0.4223E+01
  -1.450  0.4484E-01  0.4223E+01
  -1.440  0.4719E-01  0.4224E+01
  -1.430  0.4944E-01  0.4224E+01
  -1.420  0.5154E-01  0.4225E+01
  -1.410  0.5345E-01  0.4225E+01
  -1.400  0.5510E-01  0.4226E+01
  -1.390  0.5648E-01  0.4226E+01
  -1.380  0.5756E-01  0.4227E+01
  -1.370  0.5833E-01  0.4228E+01
  -1.360  0.5881E-01  0.4228E+01
  -1.350  0.5902E-01  0.4229E+01
  -1.340  0.5899E-01  0.4229E+01
  -1.330  0.5879E-01  0.4230E+01
  -1.320  0.5848E-01  0.4230E+01
  -1.310  0.5813E-01  0.4231E+01
  -1.300  0.5783E-01  0.4232E+01
  -1.290  0.5766E-01  0.4232E+01
  -1.280  0.5770E-01  0.4233E+01
  -1.270  0.5802E-01  0.4233E+01
  -1.260  0.5868E-01  0.4234E+01
  -1.250  0.5973E-01  0.4235E+01
  -1.240  0.6119E-01  0.4235E+01
  -1.230  0.6308E-01  0.4236E+01
  -1.220  0.6538E-01  0.4236E+01
  -1.210  0.6806E-01  0.4237E+01
  -1.200  0.7108E-01  0.4238E+01
  -1.190  0.7435E-01  0.4239E+01
  -1.180  0.7781E-01  0.4239E+01
  -1.170  0.8136E-01  0.4240E+01
  -1.160  0.8491E-01  0.4241E+01
  -1.150  0.8836E-01  0.4242E+01
  -1.140  0.9162E-01  0.4243E+01
  -1.130  0.9461E-01  0.4244E+01
  -1.120  0.9727E-01  0.4245E+01
  -1.110  0.9952E-01  0.4246E+01
  -1.100  0.1013E+00  0.4247E+01
  -1.090  0.1027E+00  0.4248E+01
  -1.080  0.1037E+00  0.4249E+01
  -1.070  0.1042E+00  0.4250E+01
  -1.060  0.1043E+00  0.4251E+01
  -1.050  0.1040E+00  0.4252E+01
  -1.040  0.1036E+00  0.4253E+01
  -1.030  0.1029E+00  0.4254E+01
  -1.020  0.1021E+00  0.4255E+01
  -1.010  0.1013E+00  0.4256E+01
  -1.000  0.1006E+00  0.4257E+01
  -0.990  0.1000E+00  0.4258E+01
  -0.980  0.9973E-01  0.4259E+01
  -0.970  0.9977E-01  0.4260E+01
  -0.960  0.1002E+00  0.4261E+01
  -0.950  0.1011E+00  0.4262E+01
  -0.940  0.1025E+00  0.4263E+01
  -0.930  0.1045E+00  0.4264E+01
  -0.920  0.1070E+00  0.4265E+01
  -0.910  0.1101E+00  0.4266E+01
  -0.900  0.1137E+00  0.4267E+01
  -0.890  0.1178E+00  0.4269E+01
  -0.880  0.1223E+00  0.4270E+01
  -0.870  0.1272E+00  0.4271E+01
  -0.860  0.1323E+00  0.4272E+01
  -0.850  0.1376E+00  0.4274E+01
  -0.840  0.1429E+00  0.4275E+01
  -0.830  0.1481E+00  0.4277E+01
  -0.820  0.1530E+00  0.4278E+01
  -0.810  0.1575E+00  0.4280E+01
  -0.800  0.1616E+00  0.4281E+01
  -0.790  0.1650E+00  0.4283E+01
  -0.780  0.1678E+00  0.4285E+01
  -0.770  0.1699E+00  0.4286E+01
  -0.760  0.1712E+00  0.4288E+01
  -0.750  0.1718E+00  0.4290E+01
  -0.740  0.1717E+00  0.4292E+01
  -0.730  0.1710E+00  0.4293E+01
  -0.720  0.1698E+00  0.4295E+01
  -0.710  0.1683E+00  0.4297E+01
  -0.700  0.1665E+00  0.4298E+01
  -0.690  0.1646E+00  0.4300E+01
  -0.680  0.1629E+00  0.4302E+01
  -0.670  0.1615E+00  0.4303E+01
  -0.660  0.1605E+00  0.4305E+01
  -0.650  0.1603E+00  0.4306E+01
  -0.640  0.1608E+00  0.4308E+01
  -0.630  0.1624E+00  0.4310E+01
  -0.620  0.1649E+00  0.4311E+01
  -0.610  0.1687E+00  0.4313E+01
  -0.600  0.1735E+00  0.4315E+01
  -0.590  0.1796E+00  0.4317E+01
  -0.580  0.1867E+00  0.4318E+01
  -0.570  0.1947E+00  0.4320E+01
  -0.560  0.2036E+00  0.4322E+01
  -0.550  0.2131E+00  0.4325E+01
  -0.540  0.2231E+00  0.4327E+01
  -0.530  0.2332E+00  0.4329E+01
  -0.520  0.2431E+00  0.4332E+01
  -0.510  0.2528E+00  0.4334E+01
  -0.500  0.2618E+00  0.4337E+01
  -0.490  0.2700E+00  0.4339E+01
  -0.480  0.2773E+00  0.4342E+01
  -0.470  0.2834E+00  0.4345E+01
  -0.460  0.2884E+00  0.4348E+01
  -0.450  0.2923E+00  0.4351E+01
  -0.440  0.2952E+00  0.4354E+01
  -0.430  0.2971E+00  0.4357E+01
  -0.420  0.2984E+00  0.4360E+01
  -0.410  0.2993E+00  0.4363E+01
  -0.400  0.3001E+00  0.4366E+01
  -0.390  0.3013E+00  0.4369E+01
  -0.380  0.3030E+00  0.4372E+01
  -0.370  0.3058E+00  0.4375E+01
  -0.360  0.3099E+00  0.4378E+01
  -0.350  0.3155E+00  0.4381E+01
  -0.340  0.3231E+00  0.4384E+01
  -0.330  0.3326E+00  0.4388E+01
  -0.320  0.3442E+00  0.4391E+01
  -0.310  0.3579E+00  0.4395E+01
  -0.300  0.3737E+00  0.4398E+01
  -0.290  0.3914E+00  0.4402E+01
  -0.280  0.4108E+00  0.4406E+01
  -0.270  0.4315E+00  0.4411E+01
  -0.260  0.4533E+00  0.4415E+01
  -0.250  0.4758E+00  0.4420E+01
  -0.240  0.4984E+00  0.4425E+01
  -0.230  0.5209E+00  0.4430E+01
  -0.220  0.5426E+00  0.4436E+01
  -0.210  0.5633E+00  0.4441E+01
  -0.200  0.5823E+00  0.4447E+01
  -0.190  0.5995E+00  0.4453E+01
  -0.180  0.6144E+00  0.4459E+01
  -0.170  0.6268E+00  0.4465E+01
  -0.160  0.6365E+00  0.4472E+01
  -0.150  0.6433E+00  0.4478E+01
  -0.140  0.6472E+00  0.4485E+01
  -0.130  0.6482E+00  0.4491E+01
  -0.120  0.6465E+00  0.4498E+01
  -0.110  0.6421E+00  0.4504E+01
  -0.100  0.6355E+00  0.4510E+01
  -0.090  0.6267E+00  0.4517E+01
  -0.080  0.6162E+00  0.4523E+01
  -0.070  0.6044E+00  0.4529E+01
  -0.060  0.5915E+00  0.4535E+01
  -0.050  0.5779E+00  0.4541E+01
  -0.040  0.5640E+00  0.4546E+01
  -0.030  0.5501E+00  0.4552E+01
  -0.020  0.5366E+00  0.4557E+01
  -0.010  0.5236E+00  0.4562E+01
   0.000  0.5113E+00  0.4567E+01
   0.010  0.5000E+00  0.4572E+01
   0.020  0.4898E+00  0.4577E+01
   0.030  0.4807E+00  0.4582E+01
   0.040  0.4727E+00  0.4587E+01
   0.050  0.4658E+00  0.4592E+01
   0.060  0.4601E+00  0.4596E+01
   0.070  0.4553E+00  0.4601E+01
   0.080  0.4515E+00  0.4605E+01
   0.090  0.4484E+00  0.4610E+01
   0.100  0.4460E+00  0.4614E+01
   0.110  0.4440E+00  0.4619E+01
   0.120  0.4424E+00  0.4623E+01
   0.130  0.4410E+00  0.4627E+01
   0.140  0.4397E+00  0.4632E+01
   0.150  0.4382E+00  0.4636E+01
   0.160  0.4366E+00  0.4641E+01
   0.170  0.4346E+00  0.4645E+01
   0.180  0.4321E+00  0.4649E+01
   0.190  0.4292E+00  0.4654E+01
   0.200  0.4257E+00  0.4658E+01
   0.210  0.4216E+00  0.4662E+01
   0.220  0.4169E+00  0.4666E+01
   0.230  0.4116E+00  0.4670E+01
   0.240  0.4057E+00  0.4674E+01
   0.250  0.3994E+00  0.4678E+01
   0.260  0.3926E+00  0.4682E+01
   0.270  0.3856E+00  0.4686E+01
   0.280  0.3785E+00  0.4690E+01
   0.290  0.3713E+00  0.4694E+01
   0.300  0.3642E+00  0.4697E+01
   0.310  0.3574E+00  0.4701E+01
   0.320  0.3509E+00  0.4704E+01
   0.330  0.3450E+00  0.4708E+01
   0.340  0.3397E+00  0.4711E+01
   0.350  0.3351E+00  0.4715E+01
   0.360  0.3312E+00  0.4718E+01
   0.370  0.3281E+00  0.4721E+01
   0.380  0.3257E+00  0.4724E+01
   0.390  0.3242E+00  0.4728E+01
   0.400  0.3234E+00  0.4731E+01
   0.410  0.3232E+00  0.4734E+01
   0.420  0.3236E+00  0.4737E+01
   0.430  0.3245E+00  0.4741E+01
   0.440  0.3258E+00  0.4744E+01
   0.450  0.3275E+00  0.4747E+01
   0.460  0.3293E+00  0.4750E+01
   0.470  0.3313E+00  0.4754E+01
   0.480  0.3334E+00  0.4757E+01
   0.490  0.3354E+00  0.4760E+01
   0.500  0.3372E+00  0.4764E+01
   0.510  0.3390E+00  0.4767E+01
   0.520  0.3404E+00  0.4771E+01
   0.530  0.3416E+00  0.4774E+01
   0.540  0.3424E+00  0.4777E+01
   0.550  0.3428E+00  0.4781E+01
   0.560  0.3427E+00  0.4784E+01
   0.570  0.3420E+00  0.4788E+01
   0.580  0.3408E+00  0.4791E+01
   0.590  0.3390E+00  0.4795E+01
   0.600  0.3365E+00  0.4798E+01
   0.610  0.3334E+00  0.4801E+01
   0.620  0.3296E+00  0.4805E+01
   0.630  0.3253E+00  0.4808E+01
   0.640  0.3205E+00  0.4811E+01
   0.650  0.3153E+00  0.4814E+01
   0.660  0.3098E+00  0.4817E+01
   0.670  0.3042E+00  0.4820E+01
   0.680  0.2985E+00  0.4823E+01
   0.690  0.2931E+00  0.4826E+01
   0.700  0.2879E+00  0.4829E+01
   0.710  0.2832E+00  0.4832E+01
   0.720  0.2791E+00  0.4835E+01
   0.730  0.2756E+00  0.4837E+01
   0.740  0.2730E+00  0.4840E+01
   0.750  0.2712E+00  0.4843E+01
   0.760  0.2702E+00  0.4846E+01
   0.770  0.2700E+00  0.4848E+01
   0.780  0.2707E+00  0.4851E+01
   0.790  0.2720E+00  0.4854E+01
   0.800  0.2739E+00  0.4856E+01
   0.810  0.2763E+00  0.4859E+01
   0.820  0.2791E+00  0.4862E+01
   0.830  0.2821E+00  0.4865E+01
   0.840  0.2852E+00  0.4868E+01
   0.850  0.2883E+00  0.4871E+01
   0.860  0.2913E+00  0.4873E+01
   0.870  0.2941E+00  0.4876E+01
   0.880  0.2967E+00  0.4879E+01
   0.890  0.2991E+00  0.4882E+01
   0.900  0.3011E+00  0.4885E+01
   0.910  0.3029E+00  0.4888E+01
   0.920  0.3045E+00  0.4891E+01
   0.930  0.3058E+00  0.4895E+01
   0.940  0.3071E+00  0.4898E+01
   0.950  0.3082E+00  0.4901E+01
   0.960  0.3093E+00  0.4904E+01
   0.970  0.3105E+00  0.4907E+01
   0.980  0.3118E+00  0.4910E+01
   0.990  0.3133E+00  0.4913E+01
   1.000  0.3150E+00  0.4916E+01
   1.010  0.3170E+00  0.4919E+01
   1.020  0.3193E+00  0.4923E+01
   1.030  0.3218E+00  0.4926E+01
   1.040  0.3248E+00  0.4929E+01
   1.050  0.3280E+00  0.4932E+01
   1.060  0.3316E+00  0.4936E+01
   1.070  0.3355E+00  0.4939E+01
   1.080  0.3398E+00  0.4942E+01
   1.090  0.3445E+00  0.4946E+01
   1.100  0.3496E+00  0.4949E+01
   1.110  0.3550E+00  0.4953E+01
   1.120  0.3608E+00  0.4957E+01
   1.130  0.3670E+00  0.4960E+01
   1.140  0.3736E+00  0.4964E+01
   1.150  0.3807E+00  0.4968E+01
   1.160  0.3881E+00  0.4972E+01
   1.170  0.3959E+00  0.4976E+01
   1.180  0.4040E+00  0.4980E+01
   1.190  0.4124E+00  0.4984E+01
   1.200  0.4211E+00  0.4988E+01
   1.210  0.4299E+00  0.4992E+01
   1.220  0.4387E+00  0.4997E+01
   1.230  0.4475E+00  0.5001E+01
   1.240  0.4561E+00  0.5006E+01
   1.250  0.4644E+00  0.5010E+01
   1.260  0.4722E+00  0.5015E+01
   1.270  0.4795E+00  0.5020E+01
   1.280  0.4860E+00  0.5025E+01
   1.290  0.4916E+00  0.5030E+01
   1.300  0.4963E+00  0.5035E+01
   1.310  0.5000E+00  0.5040E+01
   1.320  0.5026E+00  0.5045E+01
   1.330  0.5041E+00  0.5050E+01
   1.340  0.5045E+00  0.5055E+01
   1.350  0.5039E+00  0.5060E+01
   1.360  0.5023E+00  0.5065E+01
   1.370  0.4998E+00  0.5070E+01
   1.380  0.4965E+00  0.5075E+01
   1.390  0.4927E+00  0.5080E+01
   1.400  0.4885E+00  0.5085E+01
   1.410  0.4841E+00  0.5089E+01
   1.420  0.4795E+00  0.5094E+01
   1.430  0.4751E+00  0.5099E+01
   1.440  0.4708E+00  0.5104E+01
   1.450  0.4669E+00  0.5108E+01
   1.460  0.4634E+00  0.5113E+01
   1.470  0.4604E+00  0.5118E+01
   1.480  0.4578E+00  0.5122E+01
   1.490  0.4557E+00  0.5127E+01
   1.500  0.4541E+00  0.5131E+01
   1.510  0.4529E+00  0.5136E+01
   1.520  0.4520E+00  0.5140E+01
   1.530  0.4514E+00  0.5145E+01
   1.540  0.4510E+00  0.5149E+01
   1.550  0.4508E+00  0.5154E+01
   1.560  0.4507E+00  0.5158E+01
   1.570  0.4508E+00  0.5163E+01
   1.580  0.4509E+00  0.5167E+01
   1.590  0.4511E+00  0.5172E+01
   1.600  0.4515E+00  0.5176E+01
   1.610  0.4521E+00  0.5181E+01
   1.620  0.4528E+00  0.5185E+01
   1.630  0.4539E+00  0.5190E+01
   1.640  0.4553E+00  0.5194E+01
   1.650  0.4570E+00  0.5199E+01
   1.660  0.4590E+00  0.5204E+01
   1.670  0.4614E+00  0.5208E+01
   1.680  0.4641E+00  0.5213E+01
   1.690  0.4670E+00  0.5218E+01
   1.700  0.4701E+00  0.5222E+01
   1.710  0.4732E+00  0.5227E+01
   1.720  0.4762E+00  0.5232E+01
   1.730  0.4790E+00  0.5237E+01
   1.740  0.4815E+00  0.5241E+01
   1.750  0.4834E+00  0.5246E+01
   1.760  0.4847E+00  0.5251E+01
   1.770  0.4853E+00  0.5256E+01
   1.780  0.4851E+00  0.5261E+01
   1.790  0.4841E+00  0.5266E+01
   1.800  0.4821E+00  0.5270E+01
   1.810  0.4794E+00  0.5275E+01
   1.820  0.4758E+00  0.5280E+01
   1.830  0.4716E+00  0.5285E+01
   1.840  0.4667E+00  0.5289E+01
   1.850  0.4615E+00  0.5294E+01
   1.860  0.4561E+00  0.5299E+01
   1.870  0.4505E+00  0.5303E+01
   1.880  0.4452E+00  0.5307E+01
   1.890  0.4402E+00  0.5312E+01
   1.900  0.4357E+00  0.5316E+01
   1.910  0.4319E+00  0.5321E+01
   1.920  0.4290E+00  0.5325E+01
   1.930  0.4272E+00  0.5329E+01
   1.940  0.4264E+00  0.5333E+01
   1.950  0.4268E+00  0.5338E+01
   1.960  0.4285E+00  0.5342E+01
   1.970  0.4315E+00  0.5346E+01
   1.980  0.4357E+00  0.5351E+01
   1.990  0.4411E+00  0.5355E+01
   2.000  0.4476E+00  0.5360E+01
   2.010  0.4551E+00  0.5364E+01
   2.020  0.4636E+00  0.5369E+01
   2.030  0.4728E+00  0.5373E+01
   2.040  0.4826E+00  0.5378E+01
   2.050  0.4930E+00  0.5383E+01
   2.060  0.5036E+00  0.5388E+01
   2.070  0.5144E+00  0.5393E+01
   2.080  0.5253E+00  0.5399E+01
   2.090  0.5360E+00  0.5404E+01
   2.100  0.5465E+00  0.5409E+01
   2.110  0.5567E+00  0.5415E+01
   2.120  0.5665E+00  0.5421E+01
   2.130  0.5759E+00  0.5426E+01
   2.140  0.5848E+00  0.5432E+01
   2.150  0.5931E+00  0.5438E+01
   2.160  0.6009E+00  0.5444E+01
   2.170  0.6082E+00  0.5450E+01
   2.180  0.6149E+00  0.5456E+01
   2.190  0.6212E+00  0.5463E+01
   2.200  0.6269E+00  0.5469E+01
   2.210  0.6321E+00  0.5475E+01
   2.220  0.6368E+00  0.5482E+01
   2.230  0.6409E+00  0.5488E+01
   2.240  0.6446E+00  0.5494E+01
   2.250  0.6476E+00  0.5501E+01
   2.260  0.6501E+00  0.5507E+01
   2.270  0.6520E+00  0.5514E+01
   2.280  0.6532E+00  0.5520E+01
   2.290  0.6537E+00  0.5527E+01
   2.300  0.6536E+00  0.5534E+01
   2.310  0.6529E+00  0.5540E+01
   2.320  0.6516E+00  0.5547E+01
   2.330  0.6498E+00  0.5553E+01
   2.340  0.6475E+00  0.5560E+01
   2.350  0.6450E+00  0.5566E+01
   2.360  0.6424E+00  0.5572E+01
   2.370  0.6397E+00  0.5579E+01
   2.380  0.6373E+00  0.5585E+01
   2.390  0.6352E+00  0.5592E+01
   2.400  0.6336E+00  0.5598E+01
   2.410  0.6326E+00  0.5604E+01
   2.420  0.6325E+00  0.5611E+01
   2.430  0.6331E+00  0.5617E+01
   2.440  0.6346E+00  0.5623E+01
   2.450  0.6370E+00  0.5630E+01
   2.460  0.6402E+00  0.5636E+01
   2.470  0.6441E+00  0.5642E+01
   2.480  0.6486E+00  0.5649E+01
   2.490  0.6535E+00  0.5655E+01
   2.500  0.6586E+00  0.5662E+01
   2.510  0.6637E+00  0.5669E+01
   2.520  0.6687E+00  0.5675E+01
   2.530  0.6734E+00  0.5682E+01
   2.540  0.6774E+00  0.5689E+01
   2.550  0.6809E+00  0.5696E+01
   2.560  0.6835E+00  0.5703E+01
   2.570  0.6852E+00  0.5709E+01
   2.580  0.6859E+00  0.5716E+01
   2.590  0.6857E+00  0.5723E+01
   2.600  0.6846E+00  0.5730E+01
   2.610  0.6826E+00  0.5737E+01
   2.620  0.6798E+00  0.5744E+01
   2.630  0.6764E+00  0.5750E+01
   2.640  0.6725E+00  0.5757E+01
   2.650  0.6682E+00  0.5764E+01
   2.660  0.6638E+00  0.5770E+01
   2.670  0.6593E+00  0.5777E+01
   2.680  0.6549E+00  0.5784E+01
   2.690  0.6509E+00  0.5790E+01
   2.700  0.6472E+00  0.5797E+01
   2.710  0.6440E+00  0.5803E+01
   2.720  0.6414E+00  0.5809E+01
   2.730  0.6394E+00  0.5816E+01
   2.740  0.6381E+00  0.5822E+01
   2.750  0.6376E+00  0.5829E+01
   2.760  0.6377E+00  0.5835E+01
   2.770  0.6386E+00  0.5841E+01
   2.780  0.6401E+00  0.5848E+01
   2.790  0.6423E+00  0.5854E+01
   2.800  0.6453E+00  0.5861E+01
   2.810  0.6489E+00  0.5867E+01
   2.820  0.6531E+00  0.5874E+01
   2.830  0.6581E+00  0.5880E+01
   2.840  0.6637E+00  0.5887E+01
   2.850  0.6701E+00  0.5893E+01
   2.860  0.6772E+00  0.5900E+01
   2.870  0.6850E+00  0.5907E+01
   2.880  0.6935E+00  0.5914E+01
   2.890  0.7027E+00  0.5921E+01
   2.900  0.7127E+00  0.5928E+01
   2.910  0.7232E+00  0.5935E+01
   2.920  0.7344E+00  0.5943E+01
   2.930  0.7460E+00  0.5950E+01
   2.940  0.7579E+00  0.5958E+01
   2.950  0.7700E+00  0.5966E+01
   2.960  0.7822E+00  0.5973E+01
   2.970  0.7942E+00  0.5981E+01
   2.980  0.8059E+00  0.5989E+01
   2.990  0.8171E+00  0.5998E+01
   3.000  0.8277E+00  0.6006E+01
   3.010  0.8373E+00  0.6014E+01
   3.020  0.8460E+00  0.6023E+01
   3.030  0.8535E+00  0.6031E+01
   3.040  0.8598E+00  0.6040E+01
   3.050  0.8648E+00  0.6048E+01
   3.060  0.8684E+00  0.6057E+01
   3.070  0.8707E+00  0.6066E+01
   3.080  0.8716E+00  0.6075E+01
   3.090  0.8713E+00  0.6083E+01
   3.100  0.8699E+00  0.6092E+01
   3.110  0.8674E+00  0.6101E+01
   3.120  0.8641E+00  0.6109E+01
   3.130  0.8602E+00  0.6118E+01
   3.140  0.8558E+00  0.6126E+01
   3.150  0.8512E+00  0.6135E+01
   3.160  0.8467E+00  0.6143E+01
   3.170  0.8424E+00  0.6152E+01
   3.180  0.8385E+00  0.6160E+01
   3.190  0.8352E+00  0.6169E+01
   3.200  0.8327E+00  0.6177E+01
   3.210  0.8310E+00  0.6185E+01
   3.220  0.8302E+00  0.6193E+01
   3.230  0.8304E+00  0.6202E+01
   3.240  0.8315E+00  0.6210E+01
   3.250  0.8333E+00  0.6218E+01
   3.260  0.8359E+00  0.6227E+01
   3.270  0.8391E+00  0.6235E+01
   3.280  0.8427E+00  0.6244E+01
   3.290  0.8465E+00  0.6252E+01
   3.300  0.8504E+00  0.6261E+01
   3.310  0.8542E+00  0.6269E+01
   3.320  0.8578E+00  0.6278E+01
   3.330  0.8611E+00  0.6286E+01
   3.340  0.8639E+00  0.6295E+01
   3.350  0.8662E+00  0.6304E+01
   3.360  0.8681E+00  0.6312E+01
   3.370  0.8694E+00  0.6321E+01
   3.380  0.8703E+00  0.6330E+01
   3.390  0.8709E+00  0.6338E+01
   3.400  0.8710E+00  0.6347E+01
   3.410  0.8710E+00  0.6356E+01
   3.420  0.8708E+00  0.6365E+01
   3.430  0.8704E+00  0.6373E+01
   3.440  0.8701E+00  0.6382E+01
   3.450  0.8697E+00  0.6391E+01
   3.460  0.8694E+00  0.6399E+01
   3.470  0.8692E+00  0.6408E+01
   3.480  0.8689E+00  0.6417E+01
   3.490  0.8687E+00  0.6425E+01
   3.500  0.8685E+00  0.6434E+01
   3.510  0.8682E+00  0.6443E+01
   3.520  0.8678E+00  0.6451E+01
   3.530  0.8672E+00  0.6460E+01
   3.540  0.8665E+00  0.6469E+01
   3.550  0.8655E+00  0.6477E+01
   3.560  0.8642E+00  0.6486E+01
   3.570  0.8626E+00  0.6495E+01
   3.580  0.8608E+00  0.6503E+01
   3.590  0.8587E+00  0.6512E+01
   3.600  0.8563E+00  0.6520E+01
   3.610  0.8538E+00  0.6529E+01
   3.620  0.8511E+00  0.6538E+01
   3.630  0.8483E+00  0.6546E+01
   3.640  0.8456E+00  0.6554E+01
   3.650  0.8428E+00  0.6563E+01
   3.660  0.8401E+00  0.6571E+01
   3.670  0.8376E+00  0.6580E+01
   3.680  0.8353E+00  0.6588E+01
   3.690  0.8333E+00  0.6596E+01
   3.700  0.8315E+00  0.6605E+01
   3.710  0.8301E+00  0.6613E+01
   3.720  0.8291E+00  0.6621E+01
   3.730  0.8285E+00  0.6630E+01
   3.740  0.8283E+00  0.6638E+01
   3.750  0.8286E+00  0.6646E+01
   3.760  0.8295E+00  0.6654E+01
   3.770  0.8309E+00  0.6663E+01
   3.780  0.8329E+00  0.6671E+01
   3.790  0.8355E+00  0.6679E+01
   3.800  0.8387E+00  0.6688E+01
   3.810  0.8424E+00  0.6696E+01
   3.820  0.8467E+00  0.6705E+01
   3.830  0.8514E+00  0.6713E+01
   3.840  0.8565E+00  0.6722E+01
   3.850  0.8619E+00  0.6730E+01
   3.860  0.8674E+00  0.6739E+01
   3.870  0.8728E+00  0.6748E+01
   3.880  0.8780E+00  0.6757E+01
   3.890  0.8829E+00  0.6765E+01
   3.900  0.8871E+00  0.6774E+01
   3.910  0.8907E+00  0.6783E+01
   3.920  0.8932E+00  0.6792E+01
   3.930  0.8948E+00  0.6801E+01
   3.940  0.8951E+00  0.6810E+01
   3.950  0.8943E+00  0.6819E+01
   3.960  0.8922E+00  0.6828E+01
   3.970  0.8888E+00  0.6837E+01
   3.980  0.8844E+00  0.6846E+01
   3.990  0.8788E+00  0.6854E+01
   4.000  0.8725E+00  0.6863E+01
   4.010  0.8654E+00  0.6872E+01
   4.020  0.8580E+00  0.6880E+01
   4.030  0.8503E+00  0.6889E+01
   4.040  0.8428E+00  0.6897E+01
   4.050  0.8356E+00  0.6906E+01
   4.060  0.8290E+00  0.6914E+01
   4.070  0.8232E+00  0.6922E+01
   4.080  0.8185E+00  0.6930E+01
   4.090  0.8151E+00  0.6938E+01
   4.100  0.8129E+00  0.6947E+01
   4.110  0.8121E+00  0.6955E+01
   4.120  0.8128E+00  0.6963E+01
   4.130  0.8149E+00  0.6971E+01
   4.140  0.8183E+00  0.6979E+01
   4.150  0.8230E+00  0.6987E+01
   4.160  0.8289E+00  0.6996E+01
   4.170  0.8357E+00  0.7004E+01
   4.180  0.8434E+00  0.7012E+01
   4.190  0.8517E+00  0.7021E+01
   4.200  0.8605E+00  0.7030E+01
   4.210  0.8695E+00  0.7038E+01
   4.220  0.8788E+00  0.7047E+01
   4.230  0.8879E+00  0.7056E+01
   4.240  0.8969E+00  0.7065E+01
   4.250  0.9056E+00  0.7074E+01
   4.260  0.9137E+00  0.7083E+01
   4.270  0.9212E+00  0.7092E+01
   4.280  0.9278E+00  0.7102E+01
   4.290  0.9335E+00  0.7111E+01
   4.300  0.9381E+00  0.7120E+01
   4.310  0.9413E+00  0.7130E+01
   4.320  0.9431E+00  0.7139E+01
   4.330  0.9434E+00  0.7149E+01
   4.340  0.9418E+00  0.7158E+01
   4.350  0.9385E+00  0.7167E+01
   4.360  0.9333E+00  0.7177E+01
   4.370  0.9261E+00  0.7186E+01
   4.380  0.9171E+00  0.7195E+01
   4.390  0.9063E+00  0.7204E+01
   4.400  0.8940E+00  0.7213E+01
   4.410  0.8802E+00  0.7222E+01
   4.420  0.8653E+00  0.7231E+01
   4.430  0.8497E+00  0.7239E+01
   4.440  0.8336E+00  0.7247E+01
   4.450  0.8174E+00  0.7256E+01
   4.460  0.8015E+00  0.7264E+01
   4.470  0.7862E+00  0.7272E+01
   4.480  0.7718E+00  0.7279E+01
   4.490  0.7584E+00  0.7287E+01
   4.500  0.7464E+00  0.7294E+01
   4.510  0.7356E+00  0.7302E+01
   4.520  0.7263E+00  0.7309E+01
   4.530  0.7183E+00  0.7316E+01
   4.540  0.7115E+00  0.7323E+01
   4.550  0.7058E+00  0.7330E+01
   4.560  0.7010E+00  0.7337E+01
   4.570  0.6970E+00  0.7344E+01
   4.580  0.6936E+00  0.7351E+01
   4.590  0.6908E+00  0.7358E+01
   4.600  0.6884E+00  0.7365E+01
   4.610  0.6864E+00  0.7372E+01
   4.620  0.6850E+00  0.7379E+01
   4.630  0.6842E+00  0.7386E+01
   4.640  0.6843E+00  0.7392E+01
   4.650  0.6854E+00  0.7399E+01
   4.660  0.6879E+00  0.7406E+01
   4.670  0.6920E+00  0.7413E+01
   4.680  0.6980E+00  0.7420E+01
   4.690  0.7062E+00  0.7427E+01
   4.700  0.7167E+00  0.7434E+01
   4.710  0.7298E+00  0.7442E+01
   4.720  0.7455E+00  0.7449E+01
   4.730  0.7637E+00  0.7457E+01
   4.740  0.7844E+00  0.7464E+01
   4.750  0.8074E+00  0.7473E+01
   4.760  0.8324E+00  0.7481E+01
   4.770  0.8590E+00  0.7489E+01
   4.780  0.8867E+00  0.7498E+01
   4.790  0.9152E+00  0.7507E+01
   4.800  0.9439E+00  0.7517E+01
   4.810  0.9722E+00  0.7527E+01
   4.820  0.9997E+00  0.7537E+01
   4.830  0.1026E+01  0.7547E+01
   4.840  0.1050E+01  0.7557E+01
   4.850  0.1072E+01  0.7568E+01
   4.860  0.1092E+01  0.7579E+01
   4.870  0.1109E+01  0.7590E+01
   4.880  0.1124E+01  0.7601E+01
   4.890  0.1135E+01  0.7613E+01
   4.900  0.1143E+01  0.7624E+01
   4.910  0.1149E+01  0.7636E+01
   4.920  0.1152E+01  0.7647E+01
   4.930  0.1152E+01  0.7659E+01
   4.940  0.1150E+01  0.7670E+01
   4.950  0.1146E+01  0.7682E+01
   4.960  0.1140E+01  0.7693E+01
   4.970  0.1133E+01  0.7704E+01
   4.980  0.1125E+01  0.7716E+01
   4.990  0.1116E+01  0.7727E+01
   5.000  0.1106E+01  0.7738E+01
   5.010  0.1097E+01  0.7749E+01
   5.020  0.1088E+01  0.7760E+01
   5.030  0.1079E+01  0.7770E+01
   5.040  0.1071E+01  0.7781E+01
   5.050  0.1064E+01  0.7792E+01
   5.060  0.1058E+01  0.7802E+01
   5.070  0.1053E+01  0.7813E+01
   5.080  0.1050E+01  0.7823E+01
   5.090  0.1048E+01  0.7834E+01
   5.100  0.1047E+01  0.7844E+01
   5.110  0.1048E+01  0.7855E+01
   5.120  0.1049E+01  0.7865E+01
   5.130  0.1052E+01  0.7876E+01
   5.140  0.1055E+01  0.7886E+01
   5.150  0.1059E+01  0.7897E+01
   5.160  0.1063E+01  0.7908E+01
   5.170  0.1068E+01  0.7918E+01
   5.180  0.1073E+01  0.7929E+01
   5.190  0.1077E+01  0.7940E+01
   5.200  0.1082E+01  0.7951E+01
   5.210  0.1085E+01  0.7961E+01
   5.220  0.1089E+01  0.7972E+01
   5.230  0.1091E+01  0.7983E+01
   5.240  0.1093E+01  0.7994E+01
   5.250  0.1094E+01  0.8005E+01
   5.260  0.1094E+01  0.8016E+01
   5.270  0.1094E+01  0.8027E+01
   5.280  0.1093E+01  0.8038E+01
   5.290  0.1091E+01  0.8049E+01
   5.300  0.1088E+01  0.8060E+01
   5.310  0.1086E+01  0.8071E+01
   5.320  0.1082E+01  0.8081E+01
   5.330  0.1079E+01  0.8092E+01
   5.340  0.1076E+01  0.8103E+01
   5.350  0.1073E+01  0.8114E+01
   5.360  0.1070E+01  0.8124E+01
   5.370  0.1067E+01  0.8135E+01
   5.380  0.1065E+01  0.8146E+01
   5.390  0.1063E+01  0.8156E+01
   5.400  0.1063E+01  0.8167E+01
   5.410  0.1062E+01  0.8178E+01
   5.420  0.1063E+01  0.8188E+01
   5.430  0.1065E+01  0.8199E+01
   5.440  0.1067E+01  0.8210E+01
   5.450  0.1071E+01  0.8220E+01
   5.460  0.1076E+01  0.8231E+01
   5.470  0.1082E+01  0.8242E+01
   5.480  0.1090E+01  0.8253E+01
   5.490  0.1099E+01  0.8264E+01
   5.500  0.1109E+01  0.8275E+01
   5.510  0.1122E+01  0.8286E+01
   5.520  0.1137E+01  0.8297E+01
   5.530  0.1153E+01  0.8309E+01
   5.540  0.1172E+01  0.8321E+01
   5.550  0.1193E+01  0.8333E+01
   5.560  0.1216E+01  0.8345E+01
   5.570  0.1242E+01  0.8357E+01
   5.580  0.1269E+01  0.8370E+01
   5.590  0.1299E+01  0.8383E+01
   5.600  0.1330E+01  0.8396E+01
   5.610  0.1363E+01  0.8410E+01
   5.620  0.1397E+01  0.8424E+01
   5.630  0.1431E+01  0.8438E+01
   5.640  0.1465E+01  0.8453E+01
   5.650  0.1500E+01  0.8468E+01
   5.660  0.1533E+01  0.8483E+01
   5.670  0.1565E+01  0.8499E+01
   5.680  0.1595E+01  0.8515E+01
   5.690  0.1623E+01  0.8531E+01
   5.700  0.1649E+01  0.8547E+01
   5.710  0.1672E+01  0.8564E+01
   5.720  0.1692E+01  0.8581E+01
   5.730  0.1710E+01  0.8598E+01
   5.740  0.1724E+01  0.8615E+01
   5.750  0.1736E+01  0.8633E+01
   5.760  0.1746E+01  0.8650E+01
   5.770  0.1754E+01  0.8668E+01
   5.780  0.1759E+01  0.8685E+01
   5.790  0.1763E+01  0.8703E+01
   5.800  0.1766E+01  0.8721E+01
   5.810  0.1768E+01  0.8738E+01
   5.820  0.1770E+01  0.8756E+01
   5.830  0.1771E+01  0.8774E+01
   5.840  0.1771E+01  0.8791E+01
   5.850  0.1772E+01  0.8809E+01
   5.860  0.1773E+01  0.8827E+01
   5.870  0.1775E+01  0.8845E+01
   5.880  0.1776E+01  0.8862E+01
   5.890  0.1778E+01  0.8880E+01
   5.900  0.1781E+01  0.8898E+01
   5.910  0.1783E+01  0.8916E+01
   5.920  0.1787E+01  0.8934E+01
   5.930  0.1790E+01  0.8952E+01
   5.940  0.1793E+01  0.8969E+01
   5.950  0.1797E+01  0.8987E+01
   5.960  0.1801E+01  0.9005E+01
   5.970  0.1805E+01  0.9024E+01
   5.980  0.1809E+01  0.9042E+01
   5.990  0.1812E+01  0.9060E+01
   6.000  0.1816E+01  0.9078E+01
   6.010  0.1820E+01  0.9096E+01
   6.020  0.1824E+01  0.9114E+01
   6.030  0.1827E+01  0.9133E+01
   6.040  0.1831E+01  0.9151E+01
   6.050  0.1834E+01  0.9169E+01
   6.060  0.1837E+01  0.9188E+01
   6.070  0.1840E+01  0.9206E+01
   6.080  0.1842E+01  0.9224E+01
   6.090  0.1845E+01  0.9243E+01
   6.100  0.1847E+01  0.9261E+01
   6.110  0.1848E+01  0.9280E+01
   6.120  0.1850E+01  0.9298E+01
   6.130  0.1851E+01  0.9317E+01
   6.140  0.1851E+01  0.9335E+01
   6.150  0.1852E+01  0.9354E+01
   6.160  0.1853E+01  0.9372E+01
   6.170  0.1853E+01  0.9391E+01
   6.180  0.1854E+01  0.9409E+01
   6.190  0.1854E+01  0.9428E+01
   6.200  0.1855E+01  0.9447E+01
   6.210  0.1857E+01  0.9465E+01
   6.220  0.1858E+01  0.9484E+01
   6.230  0.1860E+01  0.9502E+01
   6.240  0.1863E+01  0.9521E+01
   6.250  0.1866E+01  0.9540E+01
   6.260  0.1869E+01  0.9558E+01
   6.270  0.1873E+01  0.9577E+01
   6.280  0.1877E+01  0.9596E+01
   6.290  0.1881E+01  0.9615E+01
   6.300  0.1885E+01  0.9633E+01
   6.310  0.1889E+01  0.9652E+01
   6.320  0.1893E+01  0.9671E+01
   6.330  0.1898E+01  0.9690E+01
   6.340  0.1903E+01  0.9709E+01
   6.350  0.1907E+01  0.9728E+01
   6.360  0.1913E+01  0.9747E+01
   6.370  0.1919E+01  0.9767E+01
   6.380  0.1925E+01  0.9786E+01
   6.390  0.1933E+01  0.9805E+01
   6.400  0.1942E+01  0.9825E+01
   6.410  0.1951E+01  0.9844E+01
   6.420  0.1963E+01  0.9864E+01
   6.430  0.1976E+01  0.9884E+01
   6.440  0.1990E+01  0.9903E+01
   6.450  0.2006E+01  0.9924E+01
   6.460  0.2024E+01  0.9944E+01
   6.470  0.2043E+01  0.9964E+01
   6.480  0.2064E+01  0.9985E+01
   6.490  0.2087E+01  0.1001E+02
   6.500  0.2111E+01  0.1003E+02
   6.510  0.2136E+01  0.1005E+02
   6.520  0.2162E+01  0.1007E+02
   6.530  0.2189E+01  0.1009E+02
   6.540  0.2217E+01  0.1011E+02
   6.550  0.2245E+01  0.1014E+02
   6.560  0.2272E+01  0.1016E+02
   6.570  0.2299E+01  0.1018E+02
   6.580  0.2325E+01  0.1021E+02
   6.590  0.2349E+01  0.1023E+02
   6.600  0.2371E+01  0.1025E+02
   6.610  0.2391E+01  0.1028E+02
   6.620  0.2409E+01  0.1030E+02
   6.630  0.2423E+01  0.1032E+02
   6.640  0.2433E+01  0.1035E+02
   6.650  0.2440E+01  0.1037E+02
   6.660  0.2443E+01  0.1040E+02
   6.670  0.2442E+01  0.1042E+02
   6.680  0.2437E+01  0.1045E+02
   6.690  0.2428E+01  0.1047E+02
   6.700  0.2415E+01  0.1050E+02
   6.710  0.2399E+01  0.1052E+02
   6.720  0.2379E+01  0.1054E+02
   6.730  0.2357E+01  0.1057E+02
   6.740  0.2332E+01  0.1059E+02
   6.750  0.2305E+01  0.1061E+02
   6.760  0.2276E+01  0.1064E+02
   6.770  0.2246E+01  0.1066E+02
   6.780  0.2215E+01  0.1068E+02
   6.790  0.2184E+01  0.1070E+02
   6.800  0.2153E+01  0.1072E+02
   6.810  0.2122E+01  0.1074E+02
   6.820  0.2092E+01  0.1077E+02
   6.830  0.2063E+01  0.1079E+02
   6.840  0.2036E+01  0.1081E+02
   6.850  0.2009E+01  0.1083E+02
   6.860  0.1984E+01  0.1085E+02
   6.870  0.1961E+01  0.1087E+02
   6.880  0.1938E+01  0.1089E+02
   6.890  0.1917E+01  0.1090E+02
   6.900  0.1897E+01  0.1092E+02
   6.910  0.1878E+01  0.1094E+02
   6.920  0.1859E+01  0.1096E+02
   6.930  0.1841E+01  0.1098E+02
   6.940  0.1824E+01  0.1100E+02
   6.950  0.1807E+01  0.1102E+02
   6.960  0.1790E+01  0.1103E+02
   6.970  0.1773E+01  0.1105E+02
   6.980  0.1756E+01  0.1107E+02
   6.990  0.1739E+01  0.1109E+02
   7.000  0.1722E+01  0.1110E+02
   7.010  0.1705E+01  0.1112E+02
   7.020  0.1688E+01  0.1114E+02
   7.030  0.1671E+01  0.1115E+02
   7.040  0.1654E+01  0.1117E+02
   7.050  0.1638E+01  0.1119E+02
   7.060  0.1622E+01  0.1120E+02
   7.070  0.1606E+01  0.1122E+02
   7.080  0.1591E+01  0.1124E+02
   7.090  0.1577E+01  0.1125E+02
   7.100  0.1563E+01  0.1127E+02
   7.110  0.1550E+01  0.1128E+02
   7.120  0.1539E+01  0.1130E+02
   7.130  0.1527E+01  0.1131E+02
   7.140  0.1517E+01  0.1133E+02
   7.150  0.1506E+01  0.1134E+02
   7.160  0.1496E+01  0.1136E+02
   7.170  0.1486E+01  0.1137E+02
   7.180  0.1475E+01  0.1139E+02
   7.190  0.1464E+01  0.1140E+02
   7.200  0.1452E+01  0.1142E+02
   7.210  0.1440E+01  0.1143E+02
   7.220  0.1426E+01  0.1145E+02
   7.230  0.1410E+01  0.1146E+02
   7.240  0.1394E+01  0.1147E+02
   7.250  0.1376E+01  0.1149E+02
   7.260  0.1358E+01  0.1150E+02
   7.270  0.1339E+01  0.1151E+02
   7.280  0.1320E+01  0.1153E+02
   7.290  0.1301E+01  0.1154E+02
   7.300  0.1283E+01  0.1155E+02
   7.310  0.1266E+01  0.1157E+02
   7.320  0.1250E+01  0.1158E+02
   7.330  0.1237E+01  0.1159E+02
   7.340  0.1226E+01  0.1160E+02
   7.350  0.1218E+01  0.1162E+02
   7.360  0.1212E+01  0.1163E+02
   7.370  0.1210E+01  0.1164E+02
   7.380  0.1211E+01  0.1165E+02
   7.390  0.1215E+01  0.1166E+02
   7.400  0.1222E+01  0.1168E+02
   7.410  0.1232E+01  0.1169E+02
   7.420  0.1244E+01  0.1170E+02
   7.430  0.1258E+01  0.1171E+02
   7.440  0.1273E+01  0.1173E+02
   7.450  0.1289E+01  0.1174E+02
   7.460  0.1305E+01  0.1175E+02
   7.470  0.1321E+01  0.1177E+02
   7.480  0.1336E+01  0.1178E+02
   7.490  0.1350E+01  0.1179E+02
   7.500  0.1362E+01  0.1181E+02
   7.510  0.1372E+01  0.1182E+02
   7.520  0.1379E+01  0.1183E+02
   7.530  0.1384E+01  0.1185E+02
   7.540  0.1387E+01  0.1186E+02
   7.550  0.1387E+01  0.1187E+02
   7.560  0.1384E+01  0.1189E+02
   7.570  0.1379E+01  0.1190E+02
   7.580  0.1372E+01  0.1192E+02
   7.590  0.1362E+01  0.1193E+02
   7.600  0.1351E+01  0.1194E+02
   7.610  0.1339E+01  0.1196E+02
   7.620  0.1326E+01  0.1197E+02
   7.630  0.1312E+01  0.1198E+02
   7.640  0.1298E+01  0.1200E+02
   7.650  0.1284E+01  0.1201E+02
   7.660  0.1271E+01  0.1202E+02
   7.670  0.1258E+01  0.1203E+02
   7.680  0.1245E+01  0.1205E+02
   7.690  0.1235E+01  0.1206E+02
   7.700  0.1225E+01  0.1207E+02
   7.710  0.1217E+01  0.1208E+02
   7.720  0.1210E+01  0.1210E+02
   7.730  0.1205E+01  0.1211E+02
   7.740  0.1202E+01  0.1212E+02
   7.750  0.1200E+01  0.1213E+02
   7.760  0.1200E+01  0.1214E+02
   7.770  0.1201E+01  0.1216E+02
   7.780  0.1203E+01  0.1217E+02
   7.790  0.1205E+01  0.1218E+02
   7.800  0.1209E+01  0.1219E+02
   7.810  0.1212E+01  0.1220E+02
   7.820  0.1216E+01  0.1222E+02
   7.830  0.1220E+01  0.1223E+02
   7.840  0.1223E+01  0.1224E+02
   7.850  0.1225E+01  0.1225E+02
   7.860  0.1228E+01  0.1226E+02
   7.870  0.1229E+01  0.1228E+02
   7.880  0.1230E+01  0.1229E+02
   7.890  0.1230E+01  0.1230E+02
   7.900  0.1230E+01  0.1231E+02
   7.910  0.1229E+01  0.1233E+02
   7.920  0.1228E+01  0.1234E+02
   7.930  0.1227E+01  0.1235E+02
   7.940  0.1226E+01  0.1236E+02
   7.950  0.1225E+01  0.1238E+02
   7.960  0.1225E+01  0.1239E+02
   7.970  0.1225E+01  0.1240E+02
   7.980  0.1225E+01  0.1241E+02
   7.990  0.1227E+01  0.1242E+02
   8.000  0.1229E+01  0.1244E+02
   8.010  0.1232E+01  0.1245E+02
   8.020  0.1236E+01  0.1246E+02
   8.030  0.1240E+01  0.1247E+02
   8.040  0.1245E+01  0.1249E+02
   8.050  0.1251E+01  0.1250E+02
   8.060  0.1258E+01  0.1251E+02
   8.070  0.1265E+01  0.1252E+02
   8.080  0.1272E+01  0.1254E+02
   8.090  0.1280E+01  0.1255E+02
   8.100  0.1287E+01  0.1256E+02
   8.110  0.1294E+01  0.1258E+02
   8.120  0.1301E+01  0.1259E+02
   8.130  0.1306E+01  0.1260E+02
   8.140  0.1311E+01  0.1261E+02
   8.150  0.1314E+01  0.1263E+02
   8.160  0.1316E+01  0.1264E+02
   8.170  0.1316E+01  0.1265E+02
   8.180  0.1314E+01  0.1267E+02
   8.190  0.1310E+01  0.1268E+02
   8.200  0.1304E+01  0.1269E+02
   8.210  0.1296E+01  0.1271E+02
   8.220  0.1286E+01  0.1272E+02
   8.230  0.1274E+01  0.1273E+02
   8.240  0.1261E+01  0.1274E+02
   8.250  0.1246E+01  0.1276E+02
   8.260  0.1230E+01  0.1277E+02
   8.270  0.1214E+01  0.1278E+02
   8.280  0.1197E+01  0.1279E+02
   8.290  0.1181E+01  0.1281E+02
   8.300  0.1165E+01  0.1282E+02
   8.310  0.1149E+01  0.1283E+02
   8.320  0.1135E+01  0.1284E+02
   8.330  0.1123E+01  0.1285E+02
   8.340  0.1112E+01  0.1286E+02
   8.350  0.1104E+01  0.1287E+02
   8.360  0.1098E+01  0.1288E+02
   8.370  0.1095E+01  0.1290E+02
   8.380  0.1094E+01  0.1291E+02
   8.390  0.1097E+01  0.1292E+02
   8.400  0.1103E+01  0.1293E+02
   8.410  0.1112E+01  0.1294E+02
   8.420  0.1124E+01  0.1295E+02
   8.430  0.1139E+01  0.1296E+02
   8.440  0.1157E+01  0.1297E+02
   8.450  0.1177E+01  0.1299E+02
   8.460  0.1199E+01  0.1300E+02
   8.470  0.1222E+01  0.1301E+02
   8.480  0.1247E+01  0.1302E+02
   8.490  0.1273E+01  0.1303E+02
   8.500  0.1298E+01  0.1305E+02
   8.510  0.1324E+01  0.1306E+02
   8.520  0.1350E+01  0.1307E+02
   8.530  0.1374E+01  0.1309E+02
   8.540  0.1398E+01  0.1310E+02
   8.550  0.1421E+01  0.1312E+02
   8.560  0.1443E+01  0.1313E+02
   8.570  0.1463E+01  0.1315E+02
   8.580  0.1483E+01  0.1316E+02
   8.590  0.1500E+01  0.1318E+02
   8.600  0.1517E+01  0.1319E+02
   8.610  0.1533E+01  0.1321E+02
   8.620  0.1547E+01  0.1322E+02
   8.630  0.1560E+01  0.1324E+02
   8.640  0.1572E+01  0.1325E+02
   8.650  0.1583E+01  0.1327E+02
   8.660  0.1592E+01  0.1328E+02
   8.670  0.1600E+01  0.1330E+02
   8.680  0.1606E+01  0.1332E+02
   8.690  0.1610E+01  0.1333E+02
   8.700  0.1612E+01  0.1335E+02
   8.710  0.1612E+01  0.1336E+02
   8.720  0.1609E+01  0.1338E+02
   8.730  0.1604E+01  0.1340E+02
   8.740  0.1596E+01  0.1341E+02
   8.750  0.1585E+01  0.1343E+02
   8.760  0.1573E+01  0.1344E+02
   8.770  0.1558E+01  0.1346E+02
   8.780  0.1541E+01  0.1348E+02
   8.790  0.1522E+01  0.1349E+02
   8.800  0.1502E+01  0.1351E+02
   8.810  0.1482E+01  0.1352E+02
   8.820  0.1460E+01  0.1353E+02
   8.830  0.1439E+01  0.1355E+02
   8.840  0.1417E+01  0.1356E+02
   8.850  0.1397E+01  0.1358E+02
   8.860  0.1377E+01  0.1359E+02
   8.870  0.1359E+01  0.1360E+02
   8.880  0.1342E+01  0.1362E+02
   8.890  0.1327E+01  0.1363E+02
   8.900  0.1315E+01  0.1364E+02
   8.910  0.1304E+01  0.1366E+02
   8.920  0.1297E+01  0.1367E+02
   8.930  0.1291E+01  0.1368E+02
   8.940  0.1288E+01  0.1370E+02
   8.950  0.1288E+01  0.1371E+02
   8.960  0.1290E+01  0.1372E+02
   8.970  0.1293E+01  0.1374E+02
   8.980  0.1299E+01  0.1375E+02
   8.990  0.1305E+01  0.1376E+02
   9.000  0.1313E+01  0.1377E+02
   9.010  0.1322E+01  0.1379E+02
   9.020  0.1330E+01  0.1380E+02
   9.030  0.1339E+01  0.1381E+02
   9.040  0.1347E+01  0.1383E+02
   9.050  0.1354E+01  0.1384E+02
   9.060  0.1359E+01  0.1385E+02
   9.070  0.1364E+01  0.1387E+02
   9.080  0.1366E+01  0.1388E+02
   9.090  0.1367E+01  0.1390E+02
   9.100  0.1367E+01  0.1391E+02
   9.110  0.1365E+01  0.1392E+02
   9.120  0.1361E+01  0.1394E+02
   9.130  0.1356E+01  0.1395E+02
   9.140  0.1349E+01  0.1396E+02
   9.150  0.1341E+01  0.1398E+02
   9.160  0.1333E+01  0.1399E+02
   9.170  0.1323E+01  0.1400E+02
   9.180  0.1312E+01  0.1402E+02
   9.190  0.1301E+01  0.1403E+02
   9.200  0.1289E+01  0.1404E+02
   9.210  0.1276E+01  0.1406E+02
   9.220  0.1262E+01  0.1407E+02
   9.230  0.1247E+01  0.1408E+02
   9.240  0.1232E+01  0.1409E+02
   9.250  0.1215E+01  0.1410E+02
   9.260  0.1198E+01  0.1412E+02
   9.270  0.1180E+01  0.1413E+02
   9.280  0.1161E+01  0.1414E+02
   9.290  0.1142E+01  0.1415E+02
   9.300  0.1123E+01  0.1416E+02
   9.310  0.1104E+01  0.1417E+02
   9.320  0.1086E+01  0.1418E+02
   9.330  0.1068E+01  0.1420E+02
   9.340  0.1052E+01  0.1421E+02
   9.350  0.1036E+01  0.1422E+02
   9.360  0.1023E+01  0.1423E+02
   9.370  0.1011E+01  0.1424E+02
   9.380  0.1001E+01  0.1425E+02
   9.390  0.9942E+00  0.1426E+02
   9.400  0.9894E+00  0.1427E+02
   9.410  0.9870E+00  0.1428E+02
   9.420  0.9872E+00  0.1429E+02
   9.430  0.9900E+00  0.1430E+02
   9.440  0.9952E+00  0.1431E+02
   9.450  0.1003E+01  0.1432E+02
   9.460  0.1013E+01  0.1433E+02
   9.470  0.1025E+01  0.1434E+02
   9.480  0.1039E+01  0.1435E+02
   9.490  0.1054E+01  0.1436E+02
   9.500  0.1071E+01  0.1437E+02
   9.510  0.1089E+01  0.1438E+02
   9.520  0.1108E+01  0.1439E+02
   9.530  0.1127E+01  0.1440E+02
   9.540  0.1146E+01  0.1441E+02
   9.550  0.1165E+01  0.1442E+02
   9.560  0.1182E+01  0.1444E+02
   9.570  0.1198E+01  0.1445E+02
   9.580  0.1213E+01  0.1446E+02
   9.590  0.1226E+01  0.1447E+02
   9.600  0.1236E+01  0.1449E+02
   9.610  0.1244E+01  0.1450E+02
   9.620  0.1249E+01  0.1451E+02
   9.630  0.1252E+01  0.1452E+02
   9.640  0.1252E+01  0.1454E+02
   9.650  0.1249E+01  0.1455E+02
   9.660  0.1244E+01  0.1456E+02
   9.670  0.1236E+01  0.1457E+02
   9.680  0.1226E+01  0.1458E+02
   9.690  0.1213E+01  0.1460E+02
   9.700  0.1198E+01  0.1461E+02
   9.710  0.1182E+01  0.1462E+02
   9.720  0.1164E+01  0.1463E+02
   9.730  0.1144E+01  0.1464E+02
   9.740  0.1123E+01  0.1465E+02
   9.750  0.1101E+01  0.1467E+02
   9.760  0.1078E+01  0.1468E+02
   9.770  0.1055E+01  0.1469E+02
   9.780  0.1032E+01  0.1470E+02
   9.790  0.1008E+01  0.1471E+02
   9.800  0.9854E+00  0.1472E+02
   9.810  0.9633E+00  0.1473E+02
   9.820  0.9422E+00  0.1474E+02
   9.830  0.9225E+00  0.1475E+02
   9.840  0.9045E+00  0.1475E+02
   9.850  0.8885E+00  0.1476E+02
   9.860  0.8747E+00  0.1477E+02
   9.870  0.8634E+00  0.1478E+02
   9.880  0.8545E+00  0.1479E+02
   9.890  0.8484E+00  0.1480E+02
   9.900  0.8449E+00  0.1481E+02
   9.910  0.8442E+00  0.1482E+02
   9.920  0.8461E+00  0.1482E+02
   9.930  0.8505E+00  0.1483E+02
   9.940  0.8573E+00  0.1484E+02
   9.950  0.8663E+00  0.1485E+02
   9.960  0.8772E+00  0.1486E+02
   9.970  0.8898E+00  0.1487E+02
   9.980  0.9038E+00  0.1488E+02
   9.990  0.9188E+00  0.1489E+02
  10.000  0.9347E+00  0.1489E+02
