#  E (eV)   dos(E)     Int dos(E) EFermi =   -1.805 eV
 -10.000  0.3963E+00  0.3963E-02
  -9.990  0.3818E+00  0.7781E-02
  -9.980  0.3687E+00  0.1147E-01
  -9.970  0.3572E+00  0.1504E-01
  -9.960  0.3476E+00  0.1852E-01
  -9.950  0.3403E+00  0.2192E-01
  -9.940  0.3353E+00  0.2527E-01
  -9.930  0.3328E+00  0.2860E-01
  -9.920  0.3329E+00  0.3193E-01
  -9.910  0.3356E+00  0.3528E-01
  -9.900  0.3409E+00  0.3869E-01
  -9.890  0.3488E+00  0.4218E-01
  -9.880  0.3590E+00  0.4577E-01
  -9.870  0.3713E+00  0.4948E-01
  -9.860  0.3855E+00  0.5334E-01
  -9.850  0.4012E+00  0.5735E-01
  -9.840  0.4180E+00  0.6153E-01
  -9.830  0.4355E+00  0.6589E-01
  -9.820  0.4532E+00  0.7042E-01
  -9.810  0.4706E+00  0.7512E-01
  -9.800  0.4870E+00  0.7999E-01
  -9.790  0.5021E+00  0.8502E-01
  -9.780  0.5154E+00  0.9017E-01
  -9.770  0.5263E+00  0.9543E-01
  -9.760  0.5345E+00  0.1008E+00
  -9.750  0.5398E+00  0.1062E+00
  -9.740  0.5420E+00  0.1116E+00
  -9.730  0.5410E+00  0.1170E+00
  -9.720  0.5368E+00  0.1224E+00
  -9.710  0.5297E+00  0.1277E+00
  -9.700  0.5200E+00  0.1329E+00
  -9.690  0.5080E+00  0.1380E+00
  -9.680  0.4944E+00  0.1429E+00
  -9.670  0.4796E+00  0.1477E+00
  -9.660  0.4643E+00  0.1523E+00
  -9.650  0.4491E+00  0.1568E+00
  -9.640  0.4347E+00  0.1612E+00
  -9.630  0.4217E+00  0.1654E+00
  -9.620  0.4106E+00  0.1695E+00
  -9.610  0.4018E+00  0.1735E+00
  -9.600  0.3959E+00  0.1775E+00
  -9.590  0.3929E+00  0.1814E+00
  -9.580  0.3931E+00  0.1853E+00
  -9.570  0.3966E+00  0.1893E+00
  -9.560  0.4032E+00  0.1933E+00
  -9.550  0.4128E+00  0.1975E+00
  -9.540  0.4251E+00  0.2017E+00
  -9.530  0.4399E+00  0.2061E+00
  -9.520  0.4567E+00  0.2107E+00
  -9.510  0.4751E+00  0.2154E+00
  -9.500  0.4948E+00  0.2204E+00
  -9.490  0.5154E+00  0.2255E+00
  -9.480  0.5364E+00  0.2309E+00
  -9.470  0.5576E+00  0.2365E+00
  -9.460  0.5787E+00  0.2423E+00
  -9.450  0.5993E+00  0.2482E+00
  -9.440  0.6193E+00  0.2544E+00
  -9.430  0.6386E+00  0.2608E+00
  -9.420  0.6569E+00  0.2674E+00
  -9.410  0.6742E+00  0.2741E+00
  -9.400  0.6904E+00  0.2810E+00
  -9.390  0.7054E+00  0.2881E+00
  -9.380  0.7191E+00  0.2953E+00
  -9.370  0.7315E+00  0.3026E+00
  -9.360  0.7423E+00  0.3100E+00
  -9.350  0.7517E+00  0.3175E+00
  -9.340  0.7593E+00  0.3251E+00
  -9.330  0.7652E+00  0.3328E+00
  -9.320  0.7694E+00  0.3405E+00
  -9.310  0.7716E+00  0.3482E+00
  -9.300  0.7720E+00  0.3559E+00
  -9.290  0.7706E+00  0.3636E+00
  -9.280  0.7676E+00  0.3713E+00
  -9.270  0.7630E+00  0.3789E+00
  -9.260  0.7571E+00  0.3865E+00
  -9.250  0.7503E+00  0.3940E+00
  -9.240  0.7428E+00  0.4014E+00
  -9.230  0.7350E+00  0.4088E+00
  -9.220  0.7272E+00  0.4161E+00
  -9.210  0.7200E+00  0.4233E+00
  -9.200  0.7136E+00  0.4304E+00
  -9.190  0.7084E+00  0.4375E+00
  -9.180  0.7046E+00  0.4445E+00
  -9.170  0.7024E+00  0.4515E+00
  -9.160  0.7020E+00  0.4586E+00
  -9.150  0.7033E+00  0.4656E+00
  -9.140  0.7064E+00  0.4727E+00
  -9.130  0.7110E+00  0.4798E+00
  -9.120  0.7169E+00  0.4869E+00
  -9.110  0.7239E+00  0.4942E+00
  -9.100  0.7316E+00  0.5015E+00
  -9.090  0.7397E+00  0.5089E+00
  -9.080  0.7480E+00  0.5164E+00
  -9.070  0.7560E+00  0.5239E+00
  -9.060  0.7635E+00  0.5316E+00
  -9.050  0.7705E+00  0.5393E+00
  -9.040  0.7767E+00  0.5470E+00
  -9.030  0.7821E+00  0.5549E+00
  -9.020  0.7867E+00  0.5627E+00
  -9.010  0.7908E+00  0.5706E+00
  -9.000  0.7944E+00  0.5786E+00
  -8.990  0.7977E+00  0.5866E+00
  -8.980  0.8010E+00  0.5946E+00
  -8.970  0.8044E+00  0.6026E+00
  -8.960  0.8082E+00  0.6107E+00
  -8.950  0.8124E+00  0.6188E+00
  -8.940  0.8172E+00  0.6270E+00
  -8.930  0.8224E+00  0.6352E+00
  -8.920  0.8281E+00  0.6435E+00
  -8.910  0.8339E+00  0.6518E+00
  -8.900  0.8398E+00  0.6602E+00
  -8.890  0.8453E+00  0.6687E+00
  -8.880  0.8501E+00  0.6772E+00
  -8.870  0.8540E+00  0.6857E+00
  -8.860  0.8566E+00  0.6943E+00
  -8.850  0.8577E+00  0.7029E+00
  -8.840  0.8569E+00  0.7114E+00
  -8.830  0.8543E+00  0.7200E+00
  -8.820  0.8498E+00  0.7285E+00
  -8.810  0.8435E+00  0.7369E+00
  -8.800  0.8355E+00  0.7453E+00
  -8.790  0.8262E+00  0.7535E+00
  -8.780  0.8160E+00  0.7617E+00
  -8.770  0.8052E+00  0.7697E+00
  -8.760  0.7945E+00  0.7777E+00
  -8.750  0.7842E+00  0.7855E+00
  -8.740  0.7749E+00  0.7933E+00
  -8.730  0.7671E+00  0.8010E+00
  -8.720  0.7613E+00  0.8086E+00
  -8.710  0.7577E+00  0.8161E+00
  -8.700  0.7567E+00  0.8237E+00
  -8.690  0.7586E+00  0.8313E+00
  -8.680  0.7632E+00  0.8389E+00
  -8.670  0.7708E+00  0.8466E+00
  -8.660  0.7811E+00  0.8544E+00
  -8.650  0.7940E+00  0.8624E+00
  -8.640  0.8091E+00  0.8705E+00
  -8.630  0.8261E+00  0.8787E+00
  -8.620  0.8446E+00  0.8872E+00
  -8.610  0.8642E+00  0.8958E+00
  -8.600  0.8843E+00  0.9047E+00
  -8.590  0.9045E+00  0.9137E+00
  -8.580  0.9243E+00  0.9230E+00
  -8.570  0.9433E+00  0.9324E+00
  -8.560  0.9610E+00  0.9420E+00
  -8.550  0.9772E+00  0.9518E+00
  -8.540  0.9917E+00  0.9617E+00
  -8.530  0.1004E+01  0.9717E+00
  -8.520  0.1015E+01  0.9819E+00
  -8.510  0.1023E+01  0.9921E+00
  -8.500  0.1029E+01  0.1002E+01
  -8.490  0.1034E+01  0.1013E+01
  -8.480  0.1037E+01  0.1023E+01
  -8.470  0.1038E+01  0.1033E+01
  -8.460  0.1039E+01  0.1044E+01
  -8.450  0.1039E+01  0.1054E+01
  -8.440  0.1039E+01  0.1065E+01
  -8.430  0.1038E+01  0.1075E+01
  -8.420  0.1038E+01  0.1085E+01
  -8.410  0.1039E+01  0.1096E+01
  -8.400  0.1040E+01  0.1106E+01
  -8.390  0.1043E+01  0.1117E+01
  -8.380  0.1046E+01  0.1127E+01
  -8.370  0.1051E+01  0.1138E+01
  -8.360  0.1056E+01  0.1148E+01
  -8.350  0.1062E+01  0.1159E+01
  -8.340  0.1069E+01  0.1169E+01
  -8.330  0.1077E+01  0.1180E+01
  -8.320  0.1084E+01  0.1191E+01
  -8.310  0.1092E+01  0.1202E+01
  -8.300  0.1098E+01  0.1213E+01
  -8.290  0.1104E+01  0.1224E+01
  -8.280  0.1109E+01  0.1235E+01
  -8.270  0.1113E+01  0.1246E+01
  -8.260  0.1115E+01  0.1257E+01
  -8.250  0.1115E+01  0.1269E+01
  -8.240  0.1112E+01  0.1280E+01
  -8.230  0.1108E+01  0.1291E+01
  -8.220  0.1102E+01  0.1302E+01
  -8.210  0.1093E+01  0.1313E+01
  -8.200  0.1082E+01  0.1324E+01
  -8.190  0.1070E+01  0.1334E+01
  -8.180  0.1057E+01  0.1345E+01
  -8.170  0.1042E+01  0.1355E+01
  -8.160  0.1026E+01  0.1365E+01
  -8.150  0.1011E+01  0.1376E+01
  -8.140  0.9948E+00  0.1386E+01
  -8.130  0.9795E+00  0.1395E+01
  -8.120  0.9650E+00  0.1405E+01
  -8.110  0.9515E+00  0.1414E+01
  -8.100  0.9395E+00  0.1424E+01
  -8.090  0.9290E+00  0.1433E+01
  -8.080  0.9201E+00  0.1442E+01
  -8.070  0.9130E+00  0.1452E+01
  -8.060  0.9077E+00  0.1461E+01
  -8.050  0.9039E+00  0.1470E+01
  -8.040  0.9016E+00  0.1479E+01
  -8.030  0.9006E+00  0.1488E+01
  -8.020  0.9007E+00  0.1497E+01
  -8.010  0.9015E+00  0.1506E+01
  -8.000  0.9028E+00  0.1515E+01
  -7.990  0.9043E+00  0.1524E+01
  -7.980  0.9056E+00  0.1533E+01
  -7.970  0.9066E+00  0.1542E+01
  -7.960  0.9069E+00  0.1551E+01
  -7.950  0.9064E+00  0.1560E+01
  -7.940  0.9048E+00  0.1569E+01
  -7.930  0.9019E+00  0.1578E+01
  -7.920  0.8978E+00  0.1587E+01
  -7.910  0.8922E+00  0.1596E+01
  -7.900  0.8854E+00  0.1605E+01
  -7.890  0.8772E+00  0.1614E+01
  -7.880  0.8679E+00  0.1622E+01
  -7.870  0.8576E+00  0.1631E+01
  -7.860  0.8466E+00  0.1639E+01
  -7.850  0.8351E+00  0.1648E+01
  -7.840  0.8233E+00  0.1656E+01
  -7.830  0.8117E+00  0.1664E+01
  -7.820  0.8005E+00  0.1672E+01
  -7.810  0.7900E+00  0.1680E+01
  -7.800  0.7805E+00  0.1688E+01
  -7.790  0.7723E+00  0.1695E+01
  -7.780  0.7656E+00  0.1703E+01
  -7.770  0.7606E+00  0.1711E+01
  -7.760  0.7574E+00  0.1718E+01
  -7.750  0.7559E+00  0.1726E+01
  -7.740  0.7562E+00  0.1733E+01
  -7.730  0.7583E+00  0.1741E+01
  -7.720  0.7618E+00  0.1749E+01
  -7.710  0.7667E+00  0.1756E+01
  -7.700  0.7726E+00  0.1764E+01
  -7.690  0.7793E+00  0.1772E+01
  -7.680  0.7864E+00  0.1780E+01
  -7.670  0.7935E+00  0.1788E+01
  -7.660  0.8003E+00  0.1796E+01
  -7.650  0.8065E+00  0.1804E+01
  -7.640  0.8115E+00  0.1812E+01
  -7.630  0.8152E+00  0.1820E+01
  -7.620  0.8172E+00  0.1828E+01
  -7.610  0.8174E+00  0.1836E+01
  -7.600  0.8155E+00  0.1844E+01
  -7.590  0.8115E+00  0.1853E+01
  -7.580  0.8054E+00  0.1861E+01
  -7.570  0.7971E+00  0.1869E+01
  -7.560  0.7870E+00  0.1876E+01
  -7.550  0.7752E+00  0.1884E+01
  -7.540  0.7620E+00  0.1892E+01
  -7.530  0.7478E+00  0.1899E+01
  -7.520  0.7329E+00  0.1907E+01
  -7.510  0.7178E+00  0.1914E+01
  -7.500  0.7029E+00  0.1921E+01
  -7.490  0.6887E+00  0.1928E+01
  -7.480  0.6754E+00  0.1934E+01
  -7.470  0.6633E+00  0.1941E+01
  -7.460  0.6529E+00  0.1948E+01
  -7.450  0.6441E+00  0.1954E+01
  -7.440  0.6373E+00  0.1960E+01
  -7.430  0.6323E+00  0.1967E+01
  -7.420  0.6292E+00  0.1973E+01
  -7.410  0.6279E+00  0.1979E+01
  -7.400  0.6283E+00  0.1986E+01
  -7.390  0.6302E+00  0.1992E+01
  -7.380  0.6334E+00  0.1998E+01
  -7.370  0.6378E+00  0.2005E+01
  -7.360  0.6432E+00  0.2011E+01
  -7.350  0.6495E+00  0.2018E+01
  -7.340  0.6564E+00  0.2024E+01
  -7.330  0.6638E+00  0.2031E+01
  -7.320  0.6717E+00  0.2037E+01
  -7.310  0.6799E+00  0.2044E+01
  -7.300  0.6883E+00  0.2051E+01
  -7.290  0.6969E+00  0.2058E+01
  -7.280  0.7056E+00  0.2065E+01
  -7.270  0.7143E+00  0.2072E+01
  -7.260  0.7230E+00  0.2080E+01
  -7.250  0.7314E+00  0.2087E+01
  -7.240  0.7395E+00  0.2094E+01
  -7.230  0.7473E+00  0.2102E+01
  -7.220  0.7544E+00  0.2109E+01
  -7.210  0.7609E+00  0.2117E+01
  -7.200  0.7665E+00  0.2125E+01
  -7.190  0.7713E+00  0.2132E+01
  -7.180  0.7749E+00  0.2140E+01
  -7.170  0.7774E+00  0.2148E+01
  -7.160  0.7787E+00  0.2156E+01
  -7.150  0.7787E+00  0.2163E+01
  -7.140  0.7774E+00  0.2171E+01
  -7.130  0.7747E+00  0.2179E+01
  -7.120  0.7707E+00  0.2187E+01
  -7.110  0.7653E+00  0.2194E+01
  -7.100  0.7586E+00  0.2202E+01
  -7.090  0.7505E+00  0.2209E+01
  -7.080  0.7412E+00  0.2217E+01
  -7.070  0.7306E+00  0.2224E+01
  -7.060  0.7188E+00  0.2231E+01
  -7.050  0.7059E+00  0.2238E+01
  -7.040  0.6918E+00  0.2245E+01
  -7.030  0.6769E+00  0.2252E+01
  -7.020  0.6611E+00  0.2259E+01
  -7.010  0.6446E+00  0.2265E+01
  -7.000  0.6276E+00  0.2271E+01
  -6.990  0.6103E+00  0.2277E+01
  -6.980  0.5929E+00  0.2283E+01
  -6.970  0.5758E+00  0.2289E+01
  -6.960  0.5592E+00  0.2295E+01
  -6.950  0.5434E+00  0.2300E+01
  -6.940  0.5287E+00  0.2305E+01
  -6.930  0.5155E+00  0.2311E+01
  -6.920  0.5040E+00  0.2316E+01
  -6.910  0.4946E+00  0.2321E+01
  -6.900  0.4875E+00  0.2325E+01
  -6.890  0.4830E+00  0.2330E+01
  -6.880  0.4813E+00  0.2335E+01
  -6.870  0.4825E+00  0.2340E+01
  -6.860  0.4868E+00  0.2345E+01
  -6.850  0.4943E+00  0.2350E+01
  -6.840  0.5050E+00  0.2355E+01
  -6.830  0.5187E+00  0.2360E+01
  -6.820  0.5353E+00  0.2365E+01
  -6.810  0.5546E+00  0.2371E+01
  -6.800  0.5764E+00  0.2377E+01
  -6.790  0.6001E+00  0.2383E+01
  -6.780  0.6254E+00  0.2389E+01
  -6.770  0.6516E+00  0.2395E+01
  -6.760  0.6783E+00  0.2402E+01
  -6.750  0.7046E+00  0.2409E+01
  -6.740  0.7300E+00  0.2417E+01
  -6.730  0.7537E+00  0.2424E+01
  -6.720  0.7750E+00  0.2432E+01
  -6.710  0.7935E+00  0.2440E+01
  -6.700  0.8084E+00  0.2448E+01
  -6.690  0.8194E+00  0.2456E+01
  -6.680  0.8260E+00  0.2464E+01
  -6.670  0.8281E+00  0.2473E+01
  -6.660  0.8256E+00  0.2481E+01
  -6.650  0.8185E+00  0.2489E+01
  -6.640  0.8071E+00  0.2497E+01
  -6.630  0.7917E+00  0.2505E+01
  -6.620  0.7727E+00  0.2513E+01
  -6.610  0.7506E+00  0.2520E+01
  -6.600  0.7263E+00  0.2527E+01
  -6.590  0.7001E+00  0.2534E+01
  -6.580  0.6730E+00  0.2541E+01
  -6.570  0.6456E+00  0.2548E+01
  -6.560  0.6185E+00  0.2554E+01
  -6.550  0.5924E+00  0.2560E+01
  -6.540  0.5677E+00  0.2565E+01
  -6.530  0.5451E+00  0.2571E+01
  -6.520  0.5247E+00  0.2576E+01
  -6.510  0.5071E+00  0.2581E+01
  -6.500  0.4922E+00  0.2586E+01
  -6.490  0.4803E+00  0.2591E+01
  -6.480  0.4713E+00  0.2596E+01
  -6.470  0.4652E+00  0.2600E+01
  -6.460  0.4619E+00  0.2605E+01
  -6.450  0.4613E+00  0.2610E+01
  -6.440  0.4630E+00  0.2614E+01
  -6.430  0.4670E+00  0.2619E+01
  -6.420  0.4729E+00  0.2624E+01
  -6.410  0.4804E+00  0.2628E+01
  -6.400  0.4894E+00  0.2633E+01
  -6.390  0.4995E+00  0.2638E+01
  -6.380  0.5104E+00  0.2643E+01
  -6.370  0.5220E+00  0.2649E+01
  -6.360  0.5339E+00  0.2654E+01
  -6.350  0.5461E+00  0.2659E+01
  -6.340  0.5583E+00  0.2665E+01
  -6.330  0.5704E+00  0.2671E+01
  -6.320  0.5822E+00  0.2676E+01
  -6.310  0.5937E+00  0.2682E+01
  -6.300  0.6048E+00  0.2688E+01
  -6.290  0.6154E+00  0.2695E+01
  -6.280  0.6255E+00  0.2701E+01
  -6.270  0.6349E+00  0.2707E+01
  -6.260  0.6437E+00  0.2714E+01
  -6.250  0.6517E+00  0.2720E+01
  -6.240  0.6589E+00  0.2727E+01
  -6.230  0.6652E+00  0.2733E+01
  -6.220  0.6705E+00  0.2740E+01
  -6.210  0.6746E+00  0.2747E+01
  -6.200  0.6775E+00  0.2754E+01
  -6.190  0.6790E+00  0.2760E+01
  -6.180  0.6792E+00  0.2767E+01
  -6.170  0.6778E+00  0.2774E+01
  -6.160  0.6750E+00  0.2781E+01
  -6.150  0.6708E+00  0.2787E+01
  -6.140  0.6651E+00  0.2794E+01
  -6.130  0.6583E+00  0.2801E+01
  -6.120  0.6504E+00  0.2807E+01
  -6.110  0.6416E+00  0.2814E+01
  -6.100  0.6323E+00  0.2820E+01
  -6.090  0.6227E+00  0.2826E+01
  -6.080  0.6130E+00  0.2832E+01
  -6.070  0.6036E+00  0.2838E+01
  -6.060  0.5948E+00  0.2844E+01
  -6.050  0.5867E+00  0.2850E+01
  -6.040  0.5794E+00  0.2856E+01
  -6.030  0.5732E+00  0.2862E+01
  -6.020  0.5680E+00  0.2867E+01
  -6.010  0.5638E+00  0.2873E+01
  -6.000  0.5605E+00  0.2879E+01
  -5.990  0.5579E+00  0.2884E+01
  -5.980  0.5559E+00  0.2890E+01
  -5.970  0.5543E+00  0.2895E+01
  -5.960  0.5527E+00  0.2901E+01
  -5.950  0.5510E+00  0.2906E+01
  -5.940  0.5489E+00  0.2912E+01
  -5.930  0.5462E+00  0.2917E+01
  -5.920  0.5427E+00  0.2923E+01
  -5.910  0.5384E+00  0.2928E+01
  -5.900  0.5333E+00  0.2933E+01
  -5.890  0.5273E+00  0.2939E+01
  -5.880  0.5206E+00  0.2944E+01
  -5.870  0.5134E+00  0.2949E+01
  -5.860  0.5058E+00  0.2954E+01
  -5.850  0.4981E+00  0.2959E+01
  -5.840  0.4907E+00  0.2964E+01
  -5.830  0.4840E+00  0.2969E+01
  -5.820  0.4782E+00  0.2974E+01
  -5.810  0.4738E+00  0.2978E+01
  -5.800  0.4711E+00  0.2983E+01
  -5.790  0.4705E+00  0.2988E+01
  -5.780  0.4721E+00  0.2992E+01
  -5.770  0.4763E+00  0.2997E+01
  -5.760  0.4831E+00  0.3002E+01
  -5.750  0.4927E+00  0.3007E+01
  -5.740  0.5049E+00  0.3012E+01
  -5.730  0.5195E+00  0.3017E+01
  -5.720  0.5365E+00  0.3023E+01
  -5.710  0.5553E+00  0.3028E+01
  -5.700  0.5757E+00  0.3034E+01
  -5.690  0.5969E+00  0.3040E+01
  -5.680  0.6185E+00  0.3046E+01
  -5.670  0.6397E+00  0.3052E+01
  -5.660  0.6600E+00  0.3059E+01
  -5.650  0.6786E+00  0.3066E+01
  -5.640  0.6949E+00  0.3073E+01
  -5.630  0.7083E+00  0.3080E+01
  -5.620  0.7184E+00  0.3087E+01
  -5.610  0.7246E+00  0.3094E+01
  -5.600  0.7269E+00  0.3102E+01
  -5.590  0.7250E+00  0.3109E+01
  -5.580  0.7189E+00  0.3116E+01
  -5.570  0.7088E+00  0.3123E+01
  -5.560  0.6952E+00  0.3130E+01
  -5.550  0.6783E+00  0.3137E+01
  -5.540  0.6587E+00  0.3143E+01
  -5.530  0.6372E+00  0.3150E+01
  -5.520  0.6143E+00  0.3156E+01
  -5.510  0.5908E+00  0.3162E+01
  -5.500  0.5675E+00  0.3168E+01
  -5.490  0.5449E+00  0.3173E+01
  -5.480  0.5238E+00  0.3178E+01
  -5.470  0.5046E+00  0.3183E+01
  -5.460  0.4877E+00  0.3188E+01
  -5.450  0.4735E+00  0.3193E+01
  -5.440  0.4621E+00  0.3197E+01
  -5.430  0.4536E+00  0.3202E+01
  -5.420  0.4479E+00  0.3207E+01
  -5.410  0.4449E+00  0.3211E+01
  -5.400  0.4444E+00  0.3215E+01
  -5.390  0.4459E+00  0.3220E+01
  -5.380  0.4493E+00  0.3224E+01
  -5.370  0.4540E+00  0.3229E+01
  -5.360  0.4598E+00  0.3233E+01
  -5.350  0.4663E+00  0.3238E+01
  -5.340  0.4732E+00  0.3243E+01
  -5.330  0.4801E+00  0.3248E+01
  -5.320  0.4868E+00  0.3253E+01
  -5.310  0.4933E+00  0.3257E+01
  -5.300  0.4993E+00  0.3262E+01
  -5.290  0.5049E+00  0.3268E+01
  -5.280  0.5101E+00  0.3273E+01
  -5.270  0.5149E+00  0.3278E+01
  -5.260  0.5194E+00  0.3283E+01
  -5.250  0.5238E+00  0.3288E+01
  -5.240  0.5282E+00  0.3293E+01
  -5.230  0.5327E+00  0.3299E+01
  -5.220  0.5377E+00  0.3304E+01
  -5.210  0.5430E+00  0.3310E+01
  -5.200  0.5490E+00  0.3315E+01
  -5.190  0.5555E+00  0.3321E+01
  -5.180  0.5628E+00  0.3326E+01
  -5.170  0.5706E+00  0.3332E+01
  -5.160  0.5790E+00  0.3338E+01
  -5.150  0.5878E+00  0.3344E+01
  -5.140  0.5968E+00  0.3350E+01
  -5.130  0.6059E+00  0.3356E+01
  -5.120  0.6147E+00  0.3362E+01
  -5.110  0.6231E+00  0.3368E+01
  -5.100  0.6306E+00  0.3374E+01
  -5.090  0.6371E+00  0.3381E+01
  -5.080  0.6423E+00  0.3387E+01
  -5.070  0.6459E+00  0.3394E+01
  -5.060  0.6476E+00  0.3400E+01
  -5.050  0.6473E+00  0.3407E+01
  -5.040  0.6448E+00  0.3413E+01
  -5.030  0.6400E+00  0.3419E+01
  -5.020  0.6330E+00  0.3426E+01
  -5.010  0.6237E+00  0.3432E+01
  -5.000  0.6122E+00  0.3438E+01
  -4.990  0.5987E+00  0.3444E+01
  -4.980  0.5833E+00  0.3450E+01
  -4.970  0.5663E+00  0.3456E+01
  -4.960  0.5481E+00  0.3461E+01
  -4.950  0.5288E+00  0.3466E+01
  -4.940  0.5088E+00  0.3471E+01
  -4.930  0.4884E+00  0.3476E+01
  -4.920  0.4680E+00  0.3481E+01
  -4.910  0.4479E+00  0.3486E+01
  -4.900  0.4283E+00  0.3490E+01
  -4.890  0.4095E+00  0.3494E+01
  -4.880  0.3917E+00  0.3498E+01
  -4.870  0.3750E+00  0.3502E+01
  -4.860  0.3595E+00  0.3505E+01
  -4.850  0.3454E+00  0.3509E+01
  -4.840  0.3326E+00  0.3512E+01
  -4.830  0.3212E+00  0.3515E+01
  -4.820  0.3111E+00  0.3518E+01
  -4.810  0.3024E+00  0.3521E+01
  -4.800  0.2949E+00  0.3524E+01
  -4.790  0.2887E+00  0.3527E+01
  -4.780  0.2837E+00  0.3530E+01
  -4.770  0.2798E+00  0.3533E+01
  -4.760  0.2772E+00  0.3536E+01
  -4.750  0.2758E+00  0.3538E+01
  -4.740  0.2756E+00  0.3541E+01
  -4.730  0.2767E+00  0.3544E+01
  -4.720  0.2792E+00  0.3547E+01
  -4.710  0.2830E+00  0.3549E+01
  -4.700  0.2883E+00  0.3552E+01
  -4.690  0.2951E+00  0.3555E+01
  -4.680  0.3035E+00  0.3558E+01
  -4.670  0.3135E+00  0.3561E+01
  -4.660  0.3250E+00  0.3565E+01
  -4.650  0.3380E+00  0.3568E+01
  -4.640  0.3524E+00  0.3572E+01
  -4.630  0.3680E+00  0.3575E+01
  -4.620  0.3845E+00  0.3579E+01
  -4.610  0.4019E+00  0.3583E+01
  -4.600  0.4197E+00  0.3587E+01
  -4.590  0.4376E+00  0.3592E+01
  -4.580  0.4552E+00  0.3596E+01
  -4.570  0.4722E+00  0.3601E+01
  -4.560  0.4883E+00  0.3606E+01
  -4.550  0.5030E+00  0.3611E+01
  -4.540  0.5160E+00  0.3616E+01
  -4.530  0.5272E+00  0.3621E+01
  -4.520  0.5363E+00  0.3627E+01
  -4.510  0.5432E+00  0.3632E+01
  -4.500  0.5478E+00  0.3638E+01
  -4.490  0.5503E+00  0.3643E+01
  -4.480  0.5506E+00  0.3649E+01
  -4.470  0.5490E+00  0.3654E+01
  -4.460  0.5458E+00  0.3660E+01
  -4.450  0.5410E+00  0.3665E+01
  -4.440  0.5351E+00  0.3670E+01
  -4.430  0.5284E+00  0.3676E+01
  -4.420  0.5210E+00  0.3681E+01
  -4.410  0.5133E+00  0.3686E+01
  -4.400  0.5054E+00  0.3691E+01
  -4.390  0.4976E+00  0.3696E+01
  -4.380  0.4901E+00  0.3701E+01
  -4.370  0.4828E+00  0.3706E+01
  -4.360  0.4760E+00  0.3710E+01
  -4.350  0.4694E+00  0.3715E+01
  -4.340  0.4633E+00  0.3720E+01
  -4.330  0.4574E+00  0.3724E+01
  -4.320  0.4517E+00  0.3729E+01
  -4.310  0.4462E+00  0.3733E+01
  -4.300  0.4407E+00  0.3738E+01
  -4.290  0.4352E+00  0.3742E+01
  -4.280  0.4295E+00  0.3746E+01
  -4.270  0.4237E+00  0.3751E+01
  -4.260  0.4178E+00  0.3755E+01
  -4.250  0.4119E+00  0.3759E+01
  -4.240  0.4059E+00  0.3763E+01
  -4.230  0.4000E+00  0.3767E+01
  -4.220  0.3945E+00  0.3771E+01
  -4.210  0.3895E+00  0.3775E+01
  -4.200  0.3853E+00  0.3779E+01
  -4.190  0.3823E+00  0.3782E+01
  -4.180  0.3808E+00  0.3786E+01
  -4.170  0.3811E+00  0.3790E+01
  -4.160  0.3834E+00  0.3794E+01
  -4.150  0.3882E+00  0.3798E+01
  -4.140  0.3957E+00  0.3802E+01
  -4.130  0.4058E+00  0.3806E+01
  -4.120  0.4188E+00  0.3810E+01
  -4.110  0.4346E+00  0.3814E+01
  -4.100  0.4529E+00  0.3819E+01
  -4.090  0.4733E+00  0.3824E+01
  -4.080  0.4956E+00  0.3829E+01
  -4.070  0.5189E+00  0.3834E+01
  -4.060  0.5428E+00  0.3839E+01
  -4.050  0.5663E+00  0.3845E+01
  -4.040  0.5886E+00  0.3851E+01
  -4.030  0.6090E+00  0.3857E+01
  -4.020  0.6265E+00  0.3863E+01
  -4.010  0.6405E+00  0.3870E+01
  -4.000  0.6502E+00  0.3876E+01
  -3.990  0.6551E+00  0.3883E+01
  -3.980  0.6550E+00  0.3889E+01
  -3.970  0.6495E+00  0.3896E+01
  -3.960  0.6387E+00  0.3902E+01
  -3.950  0.6229E+00  0.3908E+01
  -3.940  0.6023E+00  0.3914E+01
  -3.930  0.5775E+00  0.3920E+01
  -3.920  0.5492E+00  0.3926E+01
  -3.910  0.5181E+00  0.3931E+01
  -3.900  0.4849E+00  0.3936E+01
  -3.890  0.4506E+00  0.3940E+01
  -3.880  0.4159E+00  0.3944E+01
  -3.870  0.3816E+00  0.3948E+01
  -3.860  0.3483E+00  0.3952E+01
  -3.850  0.3166E+00  0.3955E+01
  -3.840  0.2870E+00  0.3958E+01
  -3.830  0.2599E+00  0.3960E+01
  -3.820  0.2356E+00  0.3963E+01
  -3.810  0.2141E+00  0.3965E+01
  -3.800  0.1955E+00  0.3967E+01
  -3.790  0.1799E+00  0.3968E+01
  -3.780  0.1671E+00  0.3970E+01
  -3.770  0.1571E+00  0.3972E+01
  -3.760  0.1496E+00  0.3973E+01
  -3.750  0.1445E+00  0.3975E+01
  -3.740  0.1416E+00  0.3976E+01
  -3.730  0.1406E+00  0.3977E+01
  -3.720  0.1414E+00  0.3979E+01
  -3.710  0.1437E+00  0.3980E+01
  -3.700  0.1474E+00  0.3982E+01
  -3.690  0.1523E+00  0.3983E+01
  -3.680  0.1582E+00  0.3985E+01
  -3.670  0.1650E+00  0.3986E+01
  -3.660  0.1726E+00  0.3988E+01
  -3.650  0.1808E+00  0.3990E+01
  -3.640  0.1896E+00  0.3992E+01
  -3.630  0.1988E+00  0.3994E+01
  -3.620  0.2084E+00  0.3996E+01
  -3.610  0.2183E+00  0.3998E+01
  -3.600  0.2285E+00  0.4000E+01
  -3.590  0.2390E+00  0.4003E+01
  -3.580  0.2495E+00  0.4005E+01
  -3.570  0.2602E+00  0.4008E+01
  -3.560  0.2708E+00  0.4011E+01
  -3.550  0.2813E+00  0.4013E+01
  -3.540  0.2915E+00  0.4016E+01
  -3.530  0.3014E+00  0.4019E+01
  -3.520  0.3106E+00  0.4023E+01
  -3.510  0.3191E+00  0.4026E+01
  -3.500  0.3266E+00  0.4029E+01
  -3.490  0.3330E+00  0.4032E+01
  -3.480  0.3380E+00  0.4036E+01
  -3.470  0.3415E+00  0.4039E+01
  -3.460  0.3433E+00  0.4043E+01
  -3.450  0.3433E+00  0.4046E+01
  -3.440  0.3414E+00  0.4049E+01
  -3.430  0.3376E+00  0.4053E+01
  -3.420  0.3318E+00  0.4056E+01
  -3.410  0.3242E+00  0.4059E+01
  -3.400  0.3147E+00  0.4062E+01
  -3.390  0.3036E+00  0.4065E+01
  -3.380  0.2911E+00  0.4068E+01
  -3.370  0.2773E+00  0.4071E+01
  -3.360  0.2626E+00  0.4074E+01
  -3.350  0.2471E+00  0.4076E+01
  -3.340  0.2312E+00  0.4079E+01
  -3.330  0.2150E+00  0.4081E+01
  -3.320  0.1990E+00  0.4083E+01
  -3.310  0.1834E+00  0.4085E+01
  -3.300  0.1683E+00  0.4086E+01
  -3.290  0.1540E+00  0.4088E+01
  -3.280  0.1408E+00  0.4089E+01
  -3.270  0.1287E+00  0.4090E+01
  -3.260  0.1180E+00  0.4092E+01
  -3.250  0.1086E+00  0.4093E+01
  -3.240  0.1008E+00  0.4094E+01
  -3.230  0.9460E-01  0.4095E+01
  -3.220  0.8992E-01  0.4096E+01
  -3.210  0.8680E-01  0.4096E+01
  -3.200  0.8517E-01  0.4097E+01
  -3.190  0.8496E-01  0.4098E+01
  -3.180  0.8607E-01  0.4099E+01
  -3.170  0.8834E-01  0.4100E+01
  -3.160  0.9163E-01  0.4101E+01
  -3.150  0.9576E-01  0.4102E+01
  -3.140  0.1006E+00  0.4103E+01
  -3.130  0.1058E+00  0.4104E+01
  -3.120  0.1114E+00  0.4105E+01
  -3.110  0.1171E+00  0.4106E+01
  -3.100  0.1228E+00  0.4107E+01
  -3.090  0.1284E+00  0.4109E+01
  -3.080  0.1337E+00  0.4110E+01
  -3.070  0.1388E+00  0.4111E+01
  -3.060  0.1435E+00  0.4113E+01
  -3.050  0.1478E+00  0.4114E+01
  -3.040  0.1519E+00  0.4116E+01
  -3.030  0.1556E+00  0.4117E+01
  -3.020  0.1591E+00  0.4119E+01
  -3.010  0.1625E+00  0.4121E+01
  -3.000  0.1656E+00  0.4122E+01
  -2.990  0.1686E+00  0.4124E+01
  -2.980  0.1715E+00  0.4126E+01
  -2.970  0.1743E+00  0.4127E+01
  -2.960  0.1769E+00  0.4129E+01
  -2.950  0.1792E+00  0.4131E+01
  -2.940  0.1811E+00  0.4133E+01
  -2.930  0.1827E+00  0.4135E+01
  -2.920  0.1836E+00  0.4136E+01
  -2.910  0.1839E+00  0.4138E+01
  -2.900  0.1835E+00  0.4140E+01
  -2.890  0.1822E+00  0.4142E+01
  -2.880  0.1801E+00  0.4144E+01
  -2.870  0.1770E+00  0.4145E+01
  -2.860  0.1731E+00  0.4147E+01
  -2.850  0.1683E+00  0.4149E+01
  -2.840  0.1628E+00  0.4151E+01
  -2.830  0.1567E+00  0.4152E+01
  -2.820  0.1501E+00  0.4154E+01
  -2.810  0.1432E+00  0.4155E+01
  -2.800  0.1361E+00  0.4156E+01
  -2.790  0.1291E+00  0.4158E+01
  -2.780  0.1222E+00  0.4159E+01
  -2.770  0.1156E+00  0.4160E+01
  -2.760  0.1093E+00  0.4161E+01
  -2.750  0.1036E+00  0.4162E+01
  -2.740  0.9831E-01  0.4163E+01
  -2.730  0.9355E-01  0.4164E+01
  -2.720  0.8929E-01  0.4165E+01
  -2.710  0.8547E-01  0.4166E+01
  -2.700  0.8204E-01  0.4167E+01
  -2.690  0.7891E-01  0.4167E+01
  -2.680  0.7601E-01  0.4168E+01
  -2.670  0.7325E-01  0.4169E+01
  -2.660  0.7057E-01  0.4170E+01
  -2.650  0.6791E-01  0.4170E+01
  -2.640  0.6524E-01  0.4171E+01
  -2.630  0.6254E-01  0.4172E+01
  -2.620  0.5981E-01  0.4172E+01
  -2.610  0.5710E-01  0.4173E+01
  -2.600  0.5445E-01  0.4173E+01
  -2.590  0.5194E-01  0.4174E+01
  -2.580  0.4966E-01  0.4174E+01
  -2.570  0.4769E-01  0.4175E+01
  -2.560  0.4615E-01  0.4175E+01
  -2.550  0.4512E-01  0.4176E+01
  -2.540  0.4471E-01  0.4176E+01
  -2.530  0.4498E-01  0.4177E+01
  -2.520  0.4600E-01  0.4177E+01
  -2.510  0.4779E-01  0.4178E+01
  -2.500  0.5037E-01  0.4178E+01
  -2.490  0.5372E-01  0.4179E+01
  -2.480  0.5778E-01  0.4179E+01
  -2.470  0.6247E-01  0.4180E+01
  -2.460  0.6767E-01  0.4180E+01
  -2.450  0.7324E-01  0.4181E+01
  -2.440  0.7902E-01  0.4182E+01
  -2.430  0.8483E-01  0.4183E+01
  -2.420  0.9048E-01  0.4184E+01
  -2.410  0.9576E-01  0.4185E+01
  -2.400  0.1005E+00  0.4186E+01
  -2.390  0.1045E+00  0.4187E+01
  -2.380  0.1077E+00  0.4188E+01
  -2.370  0.1098E+00  0.4189E+01
  -2.360  0.1109E+00  0.4190E+01
  -2.350  0.1108E+00  0.4191E+01
  -2.340  0.1096E+00  0.4192E+01
  -2.330  0.1072E+00  0.4193E+01
  -2.320  0.1038E+00  0.4194E+01
  -2.310  0.9946E-01  0.4195E+01
  -2.300  0.9425E-01  0.4196E+01
  -2.290  0.8837E-01  0.4197E+01
  -2.280  0.8197E-01  0.4198E+01
  -2.270  0.7522E-01  0.4199E+01
  -2.260  0.6828E-01  0.4199E+01
  -2.250  0.6132E-01  0.4200E+01
  -2.240  0.5448E-01  0.4201E+01
  -2.230  0.4788E-01  0.4201E+01
  -2.220  0.4163E-01  0.4201E+01
  -2.210  0.3581E-01  0.4202E+01
  -2.200  0.3047E-01  0.4202E+01
  -2.190  0.2566E-01  0.4202E+01
  -2.180  0.2138E-01  0.4203E+01
  -2.170  0.1763E-01  0.4203E+01
  -2.160  0.1439E-01  0.4203E+01
  -2.150  0.1164E-01  0.4203E+01
  -2.140  0.9332E-02  0.4203E+01
  -2.130  0.7437E-02  0.4203E+01
  -2.120  0.5908E-02  0.4203E+01
  -2.110  0.4706E-02  0.4203E+01
  -2.100  0.3793E-02  0.4203E+01
  -2.090  0.3134E-02  0.4203E+01
  -2.080  0.2702E-02  0.4203E+01
  -2.070  0.2475E-02  0.4203E+01
  -2.060  0.2436E-02  0.4203E+01
  -2.050  0.2573E-02  0.4204E+01
  -2.040  0.2883E-02  0.4204E+01
  -2.030  0.3362E-02  0.4204E+01
  -2.020  0.4013E-02  0.4204E+01
  -2.010  0.4841E-02  0.4204E+01
  -2.000  0.5849E-02  0.4204E+01
  -1.990  0.7043E-02  0.4204E+01
  -1.980  0.8425E-02  0.4204E+01
  -1.970  0.9992E-02  0.4204E+01
  -1.960  0.1174E-01  0.4204E+01
  -1.950  0.1365E-01  0.4204E+01
  -1.940  0.1571E-01  0.4204E+01
  -1.930  0.1790E-01  0.4205E+01
  -1.920  0.2017E-01  0.4205E+01
  -1.910  0.2248E-01  0.4205E+01
  -1.900  0.2480E-01  0.4205E+01
  -1.890  0.2705E-01  0.4205E+01
  -1.880  0.2920E-01  0.4206E+01
  -1.870  0.3118E-01  0.4206E+01
  -1.860  0.3293E-01  0.4206E+01
  -1.850  0.3441E-01  0.4207E+01
  -1.840  0.3557E-01  0.4207E+01
  -1.830  0.3637E-01  0.4207E+01
  -1.820  0.3680E-01  0.4208E+01
  -1.810  0.3682E-01  0.4208E+01
  -1.800  0.3645E-01  0.4209E+01
  -1.790  0.3570E-01  0.4209E+01
  -1.780  0.3459E-01  0.4209E+01
  -1.770  0.3315E-01  0.4210E+01
  -1.760  0.3143E-01  0.4210E+01
  -1.750  0.2948E-01  0.4210E+01
  -1.740  0.2735E-01  0.4211E+01
  -1.730  0.2510E-01  0.4211E+01
  -1.720  0.2280E-01  0.4211E+01
  -1.710  0.2048E-01  0.4211E+01
  -1.700  0.1820E-01  0.4211E+01
  -1.690  0.1601E-01  0.4212E+01
  -1.680  0.1393E-01  0.4212E+01
  -1.670  0.1200E-01  0.4212E+01
  -1.660  0.1024E-01  0.4212E+01
  -1.650  0.8653E-02  0.4212E+01
  -1.640  0.7260E-02  0.4212E+01
  -1.630  0.6058E-02  0.4212E+01
  -1.620  0.5050E-02  0.4212E+01
  -1.610  0.4231E-02  0.4212E+01
  -1.600  0.3600E-02  0.4212E+01
  -1.590  0.3157E-02  0.4212E+01
  -1.580  0.2900E-02  0.4212E+01
  -1.570  0.2837E-02  0.4212E+01
  -1.560  0.2975E-02  0.4212E+01
  -1.550  0.3330E-02  0.4212E+01
  -1.540  0.3923E-02  0.4212E+01
  -1.530  0.4779E-02  0.4212E+01
  -1.520  0.5930E-02  0.4213E+01
  -1.510  0.7412E-02  0.4213E+01
  -1.500  0.9265E-02  0.4213E+01
  -1.490  0.1153E-01  0.4213E+01
  -1.480  0.1424E-01  0.4213E+01
  -1.470  0.1744E-01  0.4213E+01
  -1.460  0.2116E-01  0.4213E+01
  -1.450  0.2540E-01  0.4214E+01
  -1.440  0.3019E-01  0.4214E+01
  -1.430  0.3549E-01  0.4214E+01
  -1.420  0.4129E-01  0.4215E+01
  -1.410  0.4752E-01  0.4215E+01
  -1.400  0.5410E-01  0.4216E+01
  -1.390  0.6094E-01  0.4216E+01
  -1.380  0.6791E-01  0.4217E+01
  -1.370  0.7487E-01  0.4218E+01
  -1.360  0.8166E-01  0.4219E+01
  -1.350  0.8812E-01  0.4219E+01
  -1.340  0.9408E-01  0.4220E+01
  -1.330  0.9939E-01  0.4221E+01
  -1.320  0.1039E+00  0.4222E+01
  -1.310  0.1075E+00  0.4223E+01
  -1.300  0.1100E+00  0.4225E+01
  -1.290  0.1115E+00  0.4226E+01
  -1.280  0.1119E+00  0.4227E+01
  -1.270  0.1111E+00  0.4228E+01
  -1.260  0.1094E+00  0.4229E+01
  -1.250  0.1067E+00  0.4230E+01
  -1.240  0.1032E+00  0.4231E+01
  -1.230  0.9903E-01  0.4232E+01
  -1.220  0.9441E-01  0.4233E+01
  -1.210  0.8949E-01  0.4234E+01
  -1.200  0.8448E-01  0.4235E+01
  -1.190  0.7955E-01  0.4236E+01
  -1.180  0.7486E-01  0.4236E+01
  -1.170  0.7057E-01  0.4237E+01
  -1.160  0.6679E-01  0.4238E+01
  -1.150  0.6361E-01  0.4238E+01
  -1.140  0.6107E-01  0.4239E+01
  -1.130  0.5919E-01  0.4240E+01
  -1.120  0.5796E-01  0.4240E+01
  -1.110  0.5734E-01  0.4241E+01
  -1.100  0.5726E-01  0.4241E+01
  -1.090  0.5763E-01  0.4242E+01
  -1.080  0.5837E-01  0.4242E+01
  -1.070  0.5939E-01  0.4243E+01
  -1.060  0.6058E-01  0.4244E+01
  -1.050  0.6188E-01  0.4244E+01
  -1.040  0.6322E-01  0.4245E+01
  -1.030  0.6458E-01  0.4246E+01
  -1.020  0.6595E-01  0.4246E+01
  -1.010  0.6734E-01  0.4247E+01
  -1.000  0.6881E-01  0.4248E+01
  -0.990  0.7043E-01  0.4248E+01
  -0.980  0.7229E-01  0.4249E+01
  -0.970  0.7451E-01  0.4250E+01
  -0.960  0.7721E-01  0.4250E+01
  -0.950  0.8051E-01  0.4251E+01
  -0.940  0.8452E-01  0.4252E+01
  -0.930  0.8935E-01  0.4253E+01
  -0.920  0.9507E-01  0.4254E+01
  -0.910  0.1017E+00  0.4255E+01
  -0.900  0.1093E+00  0.4256E+01
  -0.890  0.1178E+00  0.4257E+01
  -0.880  0.1271E+00  0.4259E+01
  -0.870  0.1371E+00  0.4260E+01
  -0.860  0.1477E+00  0.4261E+01
  -0.850  0.1587E+00  0.4263E+01
  -0.840  0.1698E+00  0.4265E+01
  -0.830  0.1808E+00  0.4266E+01
  -0.820  0.1915E+00  0.4268E+01
  -0.810  0.2017E+00  0.4270E+01
  -0.800  0.2111E+00  0.4273E+01
  -0.790  0.2195E+00  0.4275E+01
  -0.780  0.2267E+00  0.4277E+01
  -0.770  0.2326E+00  0.4279E+01
  -0.760  0.2370E+00  0.4282E+01
  -0.750  0.2400E+00  0.4284E+01
  -0.740  0.2414E+00  0.4287E+01
  -0.730  0.2412E+00  0.4289E+01
  -0.720  0.2396E+00  0.4291E+01
  -0.710  0.2366E+00  0.4294E+01
  -0.700  0.2323E+00  0.4296E+01
  -0.690  0.2268E+00  0.4298E+01
  -0.680  0.2203E+00  0.4300E+01
  -0.670  0.2130E+00  0.4303E+01
  -0.660  0.2051E+00  0.4305E+01
  -0.650  0.1967E+00  0.4307E+01
  -0.640  0.1880E+00  0.4309E+01
  -0.630  0.1792E+00  0.4310E+01
  -0.620  0.1706E+00  0.4312E+01
  -0.610  0.1621E+00  0.4314E+01
  -0.600  0.1540E+00  0.4315E+01
  -0.590  0.1464E+00  0.4317E+01
  -0.580  0.1395E+00  0.4318E+01
  -0.570  0.1333E+00  0.4319E+01
  -0.560  0.1280E+00  0.4321E+01
  -0.550  0.1237E+00  0.4322E+01
  -0.540  0.1204E+00  0.4323E+01
  -0.530  0.1184E+00  0.4324E+01
  -0.520  0.1178E+00  0.4325E+01
  -0.510  0.1187E+00  0.4327E+01
  -0.500  0.1212E+00  0.4328E+01
  -0.490  0.1256E+00  0.4329E+01
  -0.480  0.1320E+00  0.4330E+01
  -0.470  0.1406E+00  0.4332E+01
  -0.460  0.1515E+00  0.4333E+01
  -0.450  0.1648E+00  0.4335E+01
  -0.440  0.1807E+00  0.4337E+01
  -0.430  0.1991E+00  0.4339E+01
  -0.420  0.2199E+00  0.4341E+01
  -0.410  0.2431E+00  0.4343E+01
  -0.400  0.2685E+00  0.4346E+01
  -0.390  0.2957E+00  0.4349E+01
  -0.380  0.3245E+00  0.4352E+01
  -0.370  0.3544E+00  0.4356E+01
  -0.360  0.3849E+00  0.4360E+01
  -0.350  0.4155E+00  0.4364E+01
  -0.340  0.4457E+00  0.4368E+01
  -0.330  0.4749E+00  0.4373E+01
  -0.320  0.5026E+00  0.4378E+01
  -0.310  0.5283E+00  0.4383E+01
  -0.300  0.5517E+00  0.4389E+01
  -0.290  0.5724E+00  0.4395E+01
  -0.280  0.5901E+00  0.4400E+01
  -0.270  0.6048E+00  0.4407E+01
  -0.260  0.6164E+00  0.4413E+01
  -0.250  0.6249E+00  0.4419E+01
  -0.240  0.6305E+00  0.4425E+01
  -0.230  0.6334E+00  0.4432E+01
  -0.220  0.6337E+00  0.4438E+01
  -0.210  0.6319E+00  0.4444E+01
  -0.200  0.6282E+00  0.4451E+01
  -0.190  0.6229E+00  0.4457E+01
  -0.180  0.6163E+00  0.4463E+01
  -0.170  0.6086E+00  0.4469E+01
  -0.160  0.6002E+00  0.4475E+01
  -0.150  0.5912E+00  0.4481E+01
  -0.140  0.5818E+00  0.4487E+01
  -0.130  0.5722E+00  0.4492E+01
  -0.120  0.5625E+00  0.4498E+01
  -0.110  0.5529E+00  0.4504E+01
  -0.100  0.5433E+00  0.4509E+01
  -0.090  0.5339E+00  0.4514E+01
  -0.080  0.5247E+00  0.4520E+01
  -0.070  0.5158E+00  0.4525E+01
  -0.060  0.5072E+00  0.4530E+01
  -0.050  0.4990E+00  0.4535E+01
  -0.040  0.4911E+00  0.4540E+01
  -0.030  0.4836E+00  0.4545E+01
  -0.020  0.4763E+00  0.4549E+01
  -0.010  0.4694E+00  0.4554E+01
   0.000  0.4627E+00  0.4559E+01
   0.010  0.4563E+00  0.4563E+01
   0.020  0.4500E+00  0.4568E+01
   0.030  0.4440E+00  0.4572E+01
   0.040  0.4381E+00  0.4577E+01
   0.050  0.4325E+00  0.4581E+01
   0.060  0.4271E+00  0.4585E+01
   0.070  0.4221E+00  0.4589E+01
   0.080  0.4176E+00  0.4594E+01
   0.090  0.4138E+00  0.4598E+01
   0.100  0.4107E+00  0.4602E+01
   0.110  0.4086E+00  0.4606E+01
   0.120  0.4076E+00  0.4610E+01
   0.130  0.4077E+00  0.4614E+01
   0.140  0.4091E+00  0.4618E+01
   0.150  0.4118E+00  0.4622E+01
   0.160  0.4158E+00  0.4626E+01
   0.170  0.4209E+00  0.4631E+01
   0.180  0.4270E+00  0.4635E+01
   0.190  0.4339E+00  0.4639E+01
   0.200  0.4412E+00  0.4644E+01
   0.210  0.4486E+00  0.4648E+01
   0.220  0.4558E+00  0.4653E+01
   0.230  0.4624E+00  0.4657E+01
   0.240  0.4681E+00  0.4662E+01
   0.250  0.4725E+00  0.4667E+01
   0.260  0.4754E+00  0.4671E+01
   0.270  0.4765E+00  0.4676E+01
   0.280  0.4756E+00  0.4681E+01
   0.290  0.4728E+00  0.4686E+01
   0.300  0.4679E+00  0.4690E+01
   0.310  0.4611E+00  0.4695E+01
   0.320  0.4525E+00  0.4700E+01
   0.330  0.4423E+00  0.4704E+01
   0.340  0.4308E+00  0.4708E+01
   0.350  0.4183E+00  0.4712E+01
   0.360  0.4051E+00  0.4717E+01
   0.370  0.3916E+00  0.4720E+01
   0.380  0.3781E+00  0.4724E+01
   0.390  0.3649E+00  0.4728E+01
   0.400  0.3524E+00  0.4731E+01
   0.410  0.3406E+00  0.4735E+01
   0.420  0.3300E+00  0.4738E+01
   0.430  0.3205E+00  0.4741E+01
   0.440  0.3123E+00  0.4744E+01
   0.450  0.3053E+00  0.4747E+01
   0.460  0.2997E+00  0.4750E+01
   0.470  0.2953E+00  0.4753E+01
   0.480  0.2921E+00  0.4756E+01
   0.490  0.2898E+00  0.4759E+01
   0.500  0.2884E+00  0.4762E+01
   0.510  0.2876E+00  0.4765E+01
   0.520  0.2872E+00  0.4768E+01
   0.530  0.2871E+00  0.4771E+01
   0.540  0.2872E+00  0.4774E+01
   0.550  0.2871E+00  0.4776E+01
   0.560  0.2868E+00  0.4779E+01
   0.570  0.2861E+00  0.4782E+01
   0.580  0.2850E+00  0.4785E+01
   0.590  0.2833E+00  0.4788E+01
   0.600  0.2811E+00  0.4791E+01
   0.610  0.2783E+00  0.4793E+01
   0.620  0.2749E+00  0.4796E+01
   0.630  0.2709E+00  0.4799E+01
   0.640  0.2666E+00  0.4802E+01
   0.650  0.2620E+00  0.4804E+01
   0.660  0.2572E+00  0.4807E+01
   0.670  0.2524E+00  0.4809E+01
   0.680  0.2479E+00  0.4812E+01
   0.690  0.2438E+00  0.4814E+01
   0.700  0.2403E+00  0.4817E+01
   0.710  0.2378E+00  0.4819E+01
   0.720  0.2363E+00  0.4821E+01
   0.730  0.2362E+00  0.4824E+01
   0.740  0.2375E+00  0.4826E+01
   0.750  0.2405E+00  0.4829E+01
   0.760  0.2452E+00  0.4831E+01
   0.770  0.2518E+00  0.4833E+01
   0.780  0.2601E+00  0.4836E+01
   0.790  0.2700E+00  0.4839E+01
   0.800  0.2815E+00  0.4842E+01
   0.810  0.2943E+00  0.4845E+01
   0.820  0.3081E+00  0.4848E+01
   0.830  0.3226E+00  0.4851E+01
   0.840  0.3373E+00  0.4854E+01
   0.850  0.3518E+00  0.4858E+01
   0.860  0.3657E+00  0.4861E+01
   0.870  0.3786E+00  0.4865E+01
   0.880  0.3900E+00  0.4869E+01
   0.890  0.3995E+00  0.4873E+01
   0.900  0.4070E+00  0.4877E+01
   0.910  0.4121E+00  0.4881E+01
   0.920  0.4146E+00  0.4885E+01
   0.930  0.4146E+00  0.4890E+01
   0.940  0.4121E+00  0.4894E+01
   0.950  0.4072E+00  0.4898E+01
   0.960  0.4001E+00  0.4902E+01
   0.970  0.3912E+00  0.4906E+01
   0.980  0.3807E+00  0.4909E+01
   0.990  0.3693E+00  0.4913E+01
   1.000  0.3572E+00  0.4917E+01
   1.010  0.3450E+00  0.4920E+01
   1.020  0.3332E+00  0.4924E+01
   1.030  0.3221E+00  0.4927E+01
   1.040  0.3123E+00  0.4930E+01
   1.050  0.3039E+00  0.4933E+01
   1.060  0.2974E+00  0.4936E+01
   1.070  0.2929E+00  0.4939E+01
   1.080  0.2905E+00  0.4942E+01
   1.090  0.2903E+00  0.4945E+01
   1.100  0.2923E+00  0.4948E+01
   1.110  0.2962E+00  0.4951E+01
   1.120  0.3021E+00  0.4954E+01
   1.130  0.3096E+00  0.4957E+01
   1.140  0.3186E+00  0.4960E+01
   1.150  0.3287E+00  0.4963E+01
   1.160  0.3397E+00  0.4967E+01
   1.170  0.3513E+00  0.4970E+01
   1.180  0.3633E+00  0.4974E+01
   1.190  0.3754E+00  0.4977E+01
   1.200  0.3874E+00  0.4981E+01
   1.210  0.3992E+00  0.4985E+01
   1.220  0.4106E+00  0.4989E+01
   1.230  0.4214E+00  0.4994E+01
   1.240  0.4317E+00  0.4998E+01
   1.250  0.4411E+00  0.5002E+01
   1.260  0.4498E+00  0.5007E+01
   1.270  0.4576E+00  0.5011E+01
   1.280  0.4645E+00  0.5016E+01
   1.290  0.4705E+00  0.5021E+01
   1.300  0.4753E+00  0.5025E+01
   1.310  0.4792E+00  0.5030E+01
   1.320  0.4819E+00  0.5035E+01
   1.330  0.4835E+00  0.5040E+01
   1.340  0.4840E+00  0.5045E+01
   1.350  0.4834E+00  0.5050E+01
   1.360  0.4817E+00  0.5054E+01
   1.370  0.4791E+00  0.5059E+01
   1.380  0.4757E+00  0.5064E+01
   1.390  0.4716E+00  0.5069E+01
   1.400  0.4670E+00  0.5073E+01
   1.410  0.4622E+00  0.5078E+01
   1.420  0.4574E+00  0.5083E+01
   1.430  0.4528E+00  0.5087E+01
   1.440  0.4488E+00  0.5092E+01
   1.450  0.4455E+00  0.5096E+01
   1.460  0.4432E+00  0.5100E+01
   1.470  0.4422E+00  0.5105E+01
   1.480  0.4426E+00  0.5109E+01
   1.490  0.4444E+00  0.5114E+01
   1.500  0.4478E+00  0.5118E+01
   1.510  0.4527E+00  0.5123E+01
   1.520  0.4591E+00  0.5127E+01
   1.530  0.4668E+00  0.5132E+01
   1.540  0.4756E+00  0.5137E+01
   1.550  0.4853E+00  0.5142E+01
   1.560  0.4955E+00  0.5147E+01
   1.570  0.5060E+00  0.5152E+01
   1.580  0.5163E+00  0.5157E+01
   1.590  0.5262E+00  0.5162E+01
   1.600  0.5354E+00  0.5167E+01
   1.610  0.5435E+00  0.5173E+01
   1.620  0.5503E+00  0.5178E+01
   1.630  0.5557E+00  0.5184E+01
   1.640  0.5594E+00  0.5190E+01
   1.650  0.5614E+00  0.5195E+01
   1.660  0.5616E+00  0.5201E+01
   1.670  0.5600E+00  0.5206E+01
   1.680  0.5567E+00  0.5212E+01
   1.690  0.5518E+00  0.5217E+01
   1.700  0.5453E+00  0.5223E+01
   1.710  0.5376E+00  0.5228E+01
   1.720  0.5286E+00  0.5234E+01
   1.730  0.5186E+00  0.5239E+01
   1.740  0.5077E+00  0.5244E+01
   1.750  0.4962E+00  0.5249E+01
   1.760  0.4842E+00  0.5254E+01
   1.770  0.4719E+00  0.5258E+01
   1.780  0.4594E+00  0.5263E+01
   1.790  0.4468E+00  0.5267E+01
   1.800  0.4344E+00  0.5272E+01
   1.810  0.4223E+00  0.5276E+01
   1.820  0.4106E+00  0.5280E+01
   1.830  0.3994E+00  0.5284E+01
   1.840  0.3889E+00  0.5288E+01
   1.850  0.3793E+00  0.5292E+01
   1.860  0.3706E+00  0.5295E+01
   1.870  0.3629E+00  0.5299E+01
   1.880  0.3564E+00  0.5303E+01
   1.890  0.3512E+00  0.5306E+01
   1.900  0.3473E+00  0.5310E+01
   1.910  0.3449E+00  0.5313E+01
   1.920  0.3439E+00  0.5317E+01
   1.930  0.3446E+00  0.5320E+01
   1.940  0.3469E+00  0.5323E+01
   1.950  0.3509E+00  0.5327E+01
   1.960  0.3565E+00  0.5331E+01
   1.970  0.3639E+00  0.5334E+01
   1.980  0.3730E+00  0.5338E+01
   1.990  0.3837E+00  0.5342E+01
   2.000  0.3962E+00  0.5346E+01
   2.010  0.4102E+00  0.5350E+01
   2.020  0.4258E+00  0.5354E+01
   2.030  0.4428E+00  0.5358E+01
   2.040  0.4611E+00  0.5363E+01
   2.050  0.4804E+00  0.5368E+01
   2.060  0.5005E+00  0.5373E+01
   2.070  0.5213E+00  0.5378E+01
   2.080  0.5423E+00  0.5384E+01
   2.090  0.5633E+00  0.5389E+01
   2.100  0.5838E+00  0.5395E+01
   2.110  0.6036E+00  0.5401E+01
   2.120  0.6222E+00  0.5407E+01
   2.130  0.6393E+00  0.5414E+01
   2.140  0.6547E+00  0.5420E+01
   2.150  0.6679E+00  0.5427E+01
   2.160  0.6789E+00  0.5434E+01
   2.170  0.6874E+00  0.5441E+01
   2.180  0.6934E+00  0.5447E+01
   2.190  0.6969E+00  0.5454E+01
   2.200  0.6981E+00  0.5461E+01
   2.210  0.6970E+00  0.5468E+01
   2.220  0.6941E+00  0.5475E+01
   2.230  0.6895E+00  0.5482E+01
   2.240  0.6837E+00  0.5489E+01
   2.250  0.6770E+00  0.5496E+01
   2.260  0.6700E+00  0.5503E+01
   2.270  0.6629E+00  0.5509E+01
   2.280  0.6562E+00  0.5516E+01
   2.290  0.6501E+00  0.5522E+01
   2.300  0.6451E+00  0.5529E+01
   2.310  0.6412E+00  0.5535E+01
   2.320  0.6386E+00  0.5541E+01
   2.330  0.6374E+00  0.5548E+01
   2.340  0.6375E+00  0.5554E+01
   2.350  0.6390E+00  0.5561E+01
   2.360  0.6415E+00  0.5567E+01
   2.370  0.6451E+00  0.5573E+01
   2.380  0.6494E+00  0.5580E+01
   2.390  0.6542E+00  0.5587E+01
   2.400  0.6593E+00  0.5593E+01
   2.410  0.6645E+00  0.5600E+01
   2.420  0.6696E+00  0.5606E+01
   2.430  0.6743E+00  0.5613E+01
   2.440  0.6785E+00  0.5620E+01
   2.450  0.6821E+00  0.5627E+01
   2.460  0.6850E+00  0.5634E+01
   2.470  0.6871E+00  0.5641E+01
   2.480  0.6883E+00  0.5647E+01
   2.490  0.6886E+00  0.5654E+01
   2.500  0.6879E+00  0.5661E+01
   2.510  0.6863E+00  0.5668E+01
   2.520  0.6836E+00  0.5675E+01
   2.530  0.6800E+00  0.5682E+01
   2.540  0.6753E+00  0.5688E+01
   2.550  0.6696E+00  0.5695E+01
   2.560  0.6628E+00  0.5702E+01
   2.570  0.6551E+00  0.5708E+01
   2.580  0.6465E+00  0.5715E+01
   2.590  0.6372E+00  0.5721E+01
   2.600  0.6271E+00  0.5727E+01
   2.610  0.6166E+00  0.5734E+01
   2.620  0.6058E+00  0.5740E+01
   2.630  0.5951E+00  0.5746E+01
   2.640  0.5847E+00  0.5751E+01
   2.650  0.5750E+00  0.5757E+01
   2.660  0.5663E+00  0.5763E+01
   2.670  0.5590E+00  0.5768E+01
   2.680  0.5535E+00  0.5774E+01
   2.690  0.5499E+00  0.5779E+01
   2.700  0.5486E+00  0.5785E+01
   2.710  0.5497E+00  0.5790E+01
   2.720  0.5533E+00  0.5796E+01
   2.730  0.5593E+00  0.5802E+01
   2.740  0.5677E+00  0.5807E+01
   2.750  0.5783E+00  0.5813E+01
   2.760  0.5908E+00  0.5819E+01
   2.770  0.6048E+00  0.5825E+01
   2.780  0.6200E+00  0.5831E+01
   2.790  0.6359E+00  0.5838E+01
   2.800  0.6521E+00  0.5844E+01
   2.810  0.6683E+00  0.5851E+01
   2.820  0.6841E+00  0.5858E+01
   2.830  0.6993E+00  0.5865E+01
   2.840  0.7136E+00  0.5872E+01
   2.850  0.7271E+00  0.5879E+01
   2.860  0.7396E+00  0.5886E+01
   2.870  0.7513E+00  0.5894E+01
   2.880  0.7623E+00  0.5902E+01
   2.890  0.7727E+00  0.5909E+01
   2.900  0.7828E+00  0.5917E+01
   2.910  0.7927E+00  0.5925E+01
   2.920  0.8026E+00  0.5933E+01
   2.930  0.8127E+00  0.5941E+01
   2.940  0.8231E+00  0.5949E+01
   2.950  0.8337E+00  0.5958E+01
   2.960  0.8445E+00  0.5966E+01
   2.970  0.8555E+00  0.5975E+01
   2.980  0.8663E+00  0.5983E+01
   2.990  0.8768E+00  0.5992E+01
   3.000  0.8866E+00  0.6001E+01
   3.010  0.8956E+00  0.6010E+01
   3.020  0.9033E+00  0.6019E+01
   3.030  0.9096E+00  0.6028E+01
   3.040  0.9142E+00  0.6037E+01
   3.050  0.9168E+00  0.6046E+01
   3.060  0.9173E+00  0.6056E+01
   3.070  0.9158E+00  0.6065E+01
   3.080  0.9120E+00  0.6074E+01
   3.090  0.9063E+00  0.6083E+01
   3.100  0.8986E+00  0.6092E+01
   3.110  0.8892E+00  0.6101E+01
   3.120  0.8783E+00  0.6110E+01
   3.130  0.8663E+00  0.6118E+01
   3.140  0.8534E+00  0.6127E+01
   3.150  0.8401E+00  0.6135E+01
   3.160  0.8266E+00  0.6143E+01
   3.170  0.8135E+00  0.6152E+01
   3.180  0.8010E+00  0.6160E+01
   3.190  0.7894E+00  0.6167E+01
   3.200  0.7792E+00  0.6175E+01
   3.210  0.7706E+00  0.6183E+01
   3.220  0.7638E+00  0.6191E+01
   3.230  0.7591E+00  0.6198E+01
   3.240  0.7565E+00  0.6206E+01
   3.250  0.7561E+00  0.6213E+01
   3.260  0.7580E+00  0.6221E+01
   3.270  0.7622E+00  0.6229E+01
   3.280  0.7685E+00  0.6236E+01
   3.290  0.7767E+00  0.6244E+01
   3.300  0.7866E+00  0.6252E+01
   3.310  0.7980E+00  0.6260E+01
   3.320  0.8104E+00  0.6268E+01
   3.330  0.8237E+00  0.6276E+01
   3.340  0.8372E+00  0.6285E+01
   3.350  0.8507E+00  0.6293E+01
   3.360  0.8638E+00  0.6302E+01
   3.370  0.8760E+00  0.6310E+01
   3.380  0.8869E+00  0.6319E+01
   3.390  0.8964E+00  0.6328E+01
   3.400  0.9040E+00  0.6337E+01
   3.410  0.9097E+00  0.6346E+01
   3.420  0.9133E+00  0.6356E+01
   3.430  0.9146E+00  0.6365E+01
   3.440  0.9138E+00  0.6374E+01
   3.450  0.9108E+00  0.6383E+01
   3.460  0.9060E+00  0.6392E+01
   3.470  0.8994E+00  0.6401E+01
   3.480  0.8913E+00  0.6410E+01
   3.490  0.8821E+00  0.6419E+01
   3.500  0.8720E+00  0.6427E+01
   3.510  0.8615E+00  0.6436E+01
   3.520  0.8509E+00  0.6445E+01
   3.530  0.8404E+00  0.6453E+01
   3.540  0.8306E+00  0.6461E+01
   3.550  0.8215E+00  0.6470E+01
   3.560  0.8136E+00  0.6478E+01
   3.570  0.8068E+00  0.6486E+01
   3.580  0.8014E+00  0.6494E+01
   3.590  0.7974E+00  0.6502E+01
   3.600  0.7948E+00  0.6510E+01
   3.610  0.7935E+00  0.6518E+01
   3.620  0.7935E+00  0.6526E+01
   3.630  0.7946E+00  0.6533E+01
   3.640  0.7968E+00  0.6541E+01
   3.650  0.7999E+00  0.6549E+01
   3.660  0.8037E+00  0.6557E+01
   3.670  0.8083E+00  0.6566E+01
   3.680  0.8135E+00  0.6574E+01
   3.690  0.8193E+00  0.6582E+01
   3.700  0.8257E+00  0.6590E+01
   3.710  0.8328E+00  0.6598E+01
   3.720  0.8407E+00  0.6607E+01
   3.730  0.8493E+00  0.6615E+01
   3.740  0.8588E+00  0.6624E+01
   3.750  0.8691E+00  0.6633E+01
   3.760  0.8803E+00  0.6641E+01
   3.770  0.8923E+00  0.6650E+01
   3.780  0.9050E+00  0.6659E+01
   3.790  0.9183E+00  0.6669E+01
   3.800  0.9320E+00  0.6678E+01
   3.810  0.9457E+00  0.6687E+01
   3.820  0.9592E+00  0.6697E+01
   3.830  0.9721E+00  0.6707E+01
   3.840  0.9840E+00  0.6717E+01
   3.850  0.9946E+00  0.6726E+01
   3.860  0.1003E+01  0.6737E+01
   3.870  0.1010E+01  0.6747E+01
   3.880  0.1014E+01  0.6757E+01
   3.890  0.1016E+01  0.6767E+01
   3.900  0.1014E+01  0.6777E+01
   3.910  0.1010E+01  0.6787E+01
   3.920  0.1002E+01  0.6797E+01
   3.930  0.9916E+00  0.6807E+01
   3.940  0.9778E+00  0.6817E+01
   3.950  0.9612E+00  0.6826E+01
   3.960  0.9421E+00  0.6836E+01
   3.970  0.9207E+00  0.6845E+01
   3.980  0.8974E+00  0.6854E+01
   3.990  0.8726E+00  0.6863E+01
   4.000  0.8468E+00  0.6871E+01
   4.010  0.8205E+00  0.6879E+01
   4.020  0.7940E+00  0.6887E+01
   4.030  0.7678E+00  0.6895E+01
   4.040  0.7424E+00  0.6903E+01
   4.050  0.7182E+00  0.6910E+01
   4.060  0.6956E+00  0.6917E+01
   4.070  0.6749E+00  0.6923E+01
   4.080  0.6564E+00  0.6930E+01
   4.090  0.6406E+00  0.6936E+01
   4.100  0.6276E+00  0.6943E+01
   4.110  0.6178E+00  0.6949E+01
   4.120  0.6115E+00  0.6955E+01
   4.130  0.6088E+00  0.6961E+01
   4.140  0.6100E+00  0.6967E+01
   4.150  0.6153E+00  0.6973E+01
   4.160  0.6247E+00  0.6980E+01
   4.170  0.6383E+00  0.6986E+01
   4.180  0.6560E+00  0.6992E+01
   4.190  0.6779E+00  0.6999E+01
   4.200  0.7036E+00  0.7006E+01
   4.210  0.7328E+00  0.7014E+01
   4.220  0.7651E+00  0.7021E+01
   4.230  0.8000E+00  0.7029E+01
   4.240  0.8368E+00  0.7038E+01
   4.250  0.8748E+00  0.7046E+01
   4.260  0.9132E+00  0.7056E+01
   4.270  0.9512E+00  0.7065E+01
   4.280  0.9880E+00  0.7075E+01
   4.290  0.1023E+01  0.7085E+01
   4.300  0.1054E+01  0.7096E+01
   4.310  0.1082E+01  0.7107E+01
   4.320  0.1106E+01  0.7118E+01
   4.330  0.1125E+01  0.7129E+01
   4.340  0.1138E+01  0.7140E+01
   4.350  0.1146E+01  0.7152E+01
   4.360  0.1149E+01  0.7163E+01
   4.370  0.1146E+01  0.7175E+01
   4.380  0.1137E+01  0.7186E+01
   4.390  0.1123E+01  0.7197E+01
   4.400  0.1105E+01  0.7208E+01
   4.410  0.1082E+01  0.7219E+01
   4.420  0.1056E+01  0.7230E+01
   4.430  0.1026E+01  0.7240E+01
   4.440  0.9939E+00  0.7250E+01
   4.450  0.9599E+00  0.7259E+01
   4.460  0.9246E+00  0.7269E+01
   4.470  0.8886E+00  0.7278E+01
   4.480  0.8524E+00  0.7286E+01
   4.490  0.8165E+00  0.7294E+01
   4.500  0.7814E+00  0.7302E+01
   4.510  0.7476E+00  0.7310E+01
   4.520  0.7155E+00  0.7317E+01
   4.530  0.6855E+00  0.7324E+01
   4.540  0.6579E+00  0.7330E+01
   4.550  0.6330E+00  0.7336E+01
   4.560  0.6113E+00  0.7343E+01
   4.570  0.5928E+00  0.7349E+01
   4.580  0.5780E+00  0.7354E+01
   4.590  0.5669E+00  0.7360E+01
   4.600  0.5597E+00  0.7366E+01
   4.610  0.5564E+00  0.7371E+01
   4.620  0.5572E+00  0.7377E+01
   4.630  0.5619E+00  0.7382E+01
   4.640  0.5704E+00  0.7388E+01
   4.650  0.5826E+00  0.7394E+01
   4.660  0.5981E+00  0.7400E+01
   4.670  0.6166E+00  0.7406E+01
   4.680  0.6378E+00  0.7412E+01
   4.690  0.6612E+00  0.7419E+01
   4.700  0.6864E+00  0.7426E+01
   4.710  0.7129E+00  0.7433E+01
   4.720  0.7402E+00  0.7440E+01
   4.730  0.7679E+00  0.7448E+01
   4.740  0.7954E+00  0.7456E+01
   4.750  0.8225E+00  0.7464E+01
   4.760  0.8486E+00  0.7473E+01
   4.770  0.8736E+00  0.7481E+01
   4.780  0.8972E+00  0.7490E+01
   4.790  0.9192E+00  0.7500E+01
   4.800  0.9396E+00  0.7509E+01
   4.810  0.9583E+00  0.7519E+01
   4.820  0.9754E+00  0.7528E+01
   4.830  0.9909E+00  0.7538E+01
   4.840  0.1005E+01  0.7548E+01
   4.850  0.1018E+01  0.7558E+01
   4.860  0.1030E+01  0.7569E+01
   4.870  0.1041E+01  0.7579E+01
   4.880  0.1052E+01  0.7590E+01
   4.890  0.1062E+01  0.7600E+01
   4.900  0.1072E+01  0.7611E+01
   4.910  0.1082E+01  0.7622E+01
   4.920  0.1091E+01  0.7633E+01
   4.930  0.1100E+01  0.7644E+01
   4.940  0.1109E+01  0.7655E+01
   4.950  0.1117E+01  0.7666E+01
   4.960  0.1125E+01  0.7677E+01
   4.970  0.1132E+01  0.7689E+01
   4.980  0.1138E+01  0.7700E+01
   4.990  0.1143E+01  0.7711E+01
   5.000  0.1147E+01  0.7723E+01
   5.010  0.1150E+01  0.7734E+01
   5.020  0.1151E+01  0.7746E+01
   5.030  0.1152E+01  0.7757E+01
   5.040  0.1152E+01  0.7769E+01
   5.050  0.1150E+01  0.7780E+01
   5.060  0.1148E+01  0.7792E+01
   5.070  0.1145E+01  0.7803E+01
   5.080  0.1142E+01  0.7815E+01
   5.090  0.1138E+01  0.7826E+01
   5.100  0.1134E+01  0.7838E+01
   5.110  0.1129E+01  0.7849E+01
   5.120  0.1125E+01  0.7860E+01
   5.130  0.1120E+01  0.7871E+01
   5.140  0.1115E+01  0.7882E+01
   5.150  0.1111E+01  0.7894E+01
   5.160  0.1106E+01  0.7905E+01
   5.170  0.1102E+01  0.7916E+01
   5.180  0.1097E+01  0.7927E+01
   5.190  0.1093E+01  0.7937E+01
   5.200  0.1090E+01  0.7948E+01
   5.210  0.1086E+01  0.7959E+01
   5.220  0.1083E+01  0.7970E+01
   5.230  0.1081E+01  0.7981E+01
   5.240  0.1079E+01  0.7992E+01
   5.250  0.1079E+01  0.8002E+01
   5.260  0.1078E+01  0.8013E+01
   5.270  0.1079E+01  0.8024E+01
   5.280  0.1081E+01  0.8035E+01
   5.290  0.1083E+01  0.8046E+01
   5.300  0.1086E+01  0.8057E+01
   5.310  0.1089E+01  0.8067E+01
   5.320  0.1092E+01  0.8078E+01
   5.330  0.1095E+01  0.8089E+01
   5.340  0.1097E+01  0.8100E+01
   5.350  0.1099E+01  0.8111E+01
   5.360  0.1099E+01  0.8122E+01
   5.370  0.1098E+01  0.8133E+01
   5.380  0.1095E+01  0.8144E+01
   5.390  0.1091E+01  0.8155E+01
   5.400  0.1084E+01  0.8166E+01
   5.410  0.1076E+01  0.8177E+01
   5.420  0.1067E+01  0.8187E+01
   5.430  0.1057E+01  0.8198E+01
   5.440  0.1046E+01  0.8208E+01
   5.450  0.1034E+01  0.8219E+01
   5.460  0.1024E+01  0.8229E+01
   5.470  0.1015E+01  0.8239E+01
   5.480  0.1007E+01  0.8249E+01
   5.490  0.1002E+01  0.8259E+01
   5.500  0.1001E+01  0.8269E+01
   5.510  0.1004E+01  0.8279E+01
   5.520  0.1011E+01  0.8289E+01
   5.530  0.1023E+01  0.8300E+01
   5.540  0.1040E+01  0.8310E+01
   5.550  0.1062E+01  0.8321E+01
   5.560  0.1090E+01  0.8332E+01
   5.570  0.1123E+01  0.8343E+01
   5.580  0.1160E+01  0.8354E+01
   5.590  0.1203E+01  0.8366E+01
   5.600  0.1249E+01  0.8379E+01
   5.610  0.1298E+01  0.8392E+01
   5.620  0.1350E+01  0.8405E+01
   5.630  0.1404E+01  0.8419E+01
   5.640  0.1458E+01  0.8434E+01
   5.650  0.1513E+01  0.8449E+01
   5.660  0.1567E+01  0.8465E+01
   5.670  0.1619E+01  0.8481E+01
   5.680  0.1668E+01  0.8498E+01
   5.690  0.1714E+01  0.8515E+01
   5.700  0.1755E+01  0.8532E+01
   5.710  0.1792E+01  0.8550E+01
   5.720  0.1823E+01  0.8568E+01
   5.730  0.1849E+01  0.8587E+01
   5.740  0.1868E+01  0.8606E+01
   5.750  0.1881E+01  0.8624E+01
   5.760  0.1888E+01  0.8643E+01
   5.770  0.1890E+01  0.8662E+01
   5.780  0.1886E+01  0.8681E+01
   5.790  0.1877E+01  0.8700E+01
   5.800  0.1863E+01  0.8718E+01
   5.810  0.1847E+01  0.8737E+01
   5.820  0.1828E+01  0.8755E+01
   5.830  0.1807E+01  0.8773E+01
   5.840  0.1786E+01  0.8791E+01
   5.850  0.1766E+01  0.8809E+01
   5.860  0.1746E+01  0.8826E+01
   5.870  0.1729E+01  0.8844E+01
   5.880  0.1715E+01  0.8861E+01
   5.890  0.1705E+01  0.8878E+01
   5.900  0.1698E+01  0.8895E+01
   5.910  0.1696E+01  0.8912E+01
   5.920  0.1698E+01  0.8929E+01
   5.930  0.1705E+01  0.8946E+01
   5.940  0.1716E+01  0.8963E+01
   5.950  0.1730E+01  0.8980E+01
   5.960  0.1748E+01  0.8998E+01
   5.970  0.1769E+01  0.9015E+01
   5.980  0.1791E+01  0.9033E+01
   5.990  0.1814E+01  0.9051E+01
   6.000  0.1837E+01  0.9070E+01
   6.010  0.1860E+01  0.9088E+01
   6.020  0.1881E+01  0.9107E+01
   6.030  0.1899E+01  0.9126E+01
   6.040  0.1915E+01  0.9145E+01
   6.050  0.1926E+01  0.9165E+01
   6.060  0.1934E+01  0.9184E+01
   6.070  0.1937E+01  0.9203E+01
   6.080  0.1936E+01  0.9223E+01
   6.090  0.1930E+01  0.9242E+01
   6.100  0.1920E+01  0.9261E+01
   6.110  0.1907E+01  0.9280E+01
   6.120  0.1890E+01  0.9299E+01
   6.130  0.1871E+01  0.9318E+01
   6.140  0.1850E+01  0.9336E+01
   6.150  0.1829E+01  0.9355E+01
   6.160  0.1808E+01  0.9373E+01
   6.170  0.1788E+01  0.9391E+01
   6.180  0.1770E+01  0.9408E+01
   6.190  0.1755E+01  0.9426E+01
   6.200  0.1744E+01  0.9443E+01
   6.210  0.1736E+01  0.9461E+01
   6.220  0.1733E+01  0.9478E+01
   6.230  0.1733E+01  0.9495E+01
   6.240  0.1738E+01  0.9513E+01
   6.250  0.1746E+01  0.9530E+01
   6.260  0.1758E+01  0.9548E+01
   6.270  0.1772E+01  0.9565E+01
   6.280  0.1788E+01  0.9583E+01
   6.290  0.1806E+01  0.9601E+01
   6.300  0.1824E+01  0.9620E+01
   6.310  0.1842E+01  0.9638E+01
   6.320  0.1860E+01  0.9657E+01
   6.330  0.1877E+01  0.9675E+01
   6.340  0.1892E+01  0.9694E+01
   6.350  0.1906E+01  0.9713E+01
   6.360  0.1918E+01  0.9733E+01
   6.370  0.1929E+01  0.9752E+01
   6.380  0.1939E+01  0.9771E+01
   6.390  0.1948E+01  0.9791E+01
   6.400  0.1956E+01  0.9810E+01
   6.410  0.1964E+01  0.9830E+01
   6.420  0.1973E+01  0.9850E+01
   6.430  0.1983E+01  0.9869E+01
   6.440  0.1995E+01  0.9889E+01
   6.450  0.2009E+01  0.9910E+01
   6.460  0.2026E+01  0.9930E+01
   6.470  0.2045E+01  0.9950E+01
   6.480  0.2068E+01  0.9971E+01
   6.490  0.2094E+01  0.9992E+01
   6.500  0.2124E+01  0.1001E+02
   6.510  0.2156E+01  0.1003E+02
   6.520  0.2191E+01  0.1006E+02
   6.530  0.2228E+01  0.1008E+02
   6.540  0.2267E+01  0.1010E+02
   6.550  0.2307E+01  0.1012E+02
   6.560  0.2346E+01  0.1015E+02
   6.570  0.2385E+01  0.1017E+02
   6.580  0.2421E+01  0.1020E+02
   6.590  0.2455E+01  0.1022E+02
   6.600  0.2485E+01  0.1025E+02
   6.610  0.2510E+01  0.1027E+02
   6.620  0.2531E+01  0.1030E+02
   6.630  0.2545E+01  0.1032E+02
   6.640  0.2553E+01  0.1035E+02
   6.650  0.2555E+01  0.1037E+02
   6.660  0.2551E+01  0.1040E+02
   6.670  0.2540E+01  0.1042E+02
   6.680  0.2524E+01  0.1045E+02
   6.690  0.2502E+01  0.1047E+02
   6.700  0.2476E+01  0.1050E+02
   6.710  0.2446E+01  0.1052E+02
   6.720  0.2412E+01  0.1055E+02
   6.730  0.2377E+01  0.1057E+02
   6.740  0.2340E+01  0.1059E+02
   6.750  0.2302E+01  0.1062E+02
   6.760  0.2264E+01  0.1064E+02
   6.770  0.2227E+01  0.1066E+02
   6.780  0.2191E+01  0.1068E+02
   6.790  0.2157E+01  0.1071E+02
   6.800  0.2125E+01  0.1073E+02
   6.810  0.2095E+01  0.1075E+02
   6.820  0.2066E+01  0.1077E+02
   6.830  0.2040E+01  0.1079E+02
   6.840  0.2015E+01  0.1081E+02
   6.850  0.1992E+01  0.1083E+02
   6.860  0.1970E+01  0.1085E+02
   6.870  0.1948E+01  0.1087E+02
   6.880  0.1927E+01  0.1089E+02
   6.890  0.1906E+01  0.1091E+02
   6.900  0.1884E+01  0.1093E+02
   6.910  0.1862E+01  0.1094E+02
   6.920  0.1838E+01  0.1096E+02
   6.930  0.1814E+01  0.1098E+02
   6.940  0.1788E+01  0.1100E+02
   6.950  0.1761E+01  0.1102E+02
   6.960  0.1734E+01  0.1103E+02
   6.970  0.1705E+01  0.1105E+02
   6.980  0.1676E+01  0.1107E+02
   6.990  0.1647E+01  0.1108E+02
   7.000  0.1619E+01  0.1110E+02
   7.010  0.1591E+01  0.1112E+02
   7.020  0.1564E+01  0.1113E+02
   7.030  0.1539E+01  0.1115E+02
   7.040  0.1515E+01  0.1116E+02
   7.050  0.1495E+01  0.1118E+02
   7.060  0.1476E+01  0.1119E+02
   7.070  0.1461E+01  0.1121E+02
   7.080  0.1449E+01  0.1122E+02
   7.090  0.1439E+01  0.1123E+02
   7.100  0.1433E+01  0.1125E+02
   7.110  0.1429E+01  0.1126E+02
   7.120  0.1428E+01  0.1128E+02
   7.130  0.1429E+01  0.1129E+02
   7.140  0.1433E+01  0.1131E+02
   7.150  0.1438E+01  0.1132E+02
   7.160  0.1444E+01  0.1134E+02
   7.170  0.1451E+01  0.1135E+02
   7.180  0.1459E+01  0.1136E+02
   7.190  0.1467E+01  0.1138E+02
   7.200  0.1474E+01  0.1139E+02
   7.210  0.1481E+01  0.1141E+02
   7.220  0.1488E+01  0.1142E+02
   7.230  0.1493E+01  0.1144E+02
   7.240  0.1497E+01  0.1145E+02
   7.250  0.1500E+01  0.1147E+02
   7.260  0.1501E+01  0.1148E+02
   7.270  0.1500E+01  0.1150E+02
   7.280  0.1498E+01  0.1151E+02
   7.290  0.1493E+01  0.1153E+02
   7.300  0.1486E+01  0.1154E+02
   7.310  0.1477E+01  0.1156E+02
   7.320  0.1466E+01  0.1157E+02
   7.330  0.1452E+01  0.1159E+02
   7.340  0.1437E+01  0.1160E+02
   7.350  0.1420E+01  0.1162E+02
   7.360  0.1401E+01  0.1163E+02
   7.370  0.1381E+01  0.1164E+02
   7.380  0.1361E+01  0.1166E+02
   7.390  0.1341E+01  0.1167E+02
   7.400  0.1321E+01  0.1168E+02
   7.410  0.1301E+01  0.1170E+02
   7.420  0.1284E+01  0.1171E+02
   7.430  0.1268E+01  0.1172E+02
   7.440  0.1254E+01  0.1173E+02
   7.450  0.1242E+01  0.1175E+02
   7.460  0.1234E+01  0.1176E+02
   7.470  0.1228E+01  0.1177E+02
   7.480  0.1225E+01  0.1178E+02
   7.490  0.1224E+01  0.1180E+02
   7.500  0.1226E+01  0.1181E+02
   7.510  0.1229E+01  0.1182E+02
   7.520  0.1234E+01  0.1183E+02
   7.530  0.1240E+01  0.1185E+02
   7.540  0.1246E+01  0.1186E+02
   7.550  0.1253E+01  0.1187E+02
   7.560  0.1259E+01  0.1188E+02
   7.570  0.1265E+01  0.1190E+02
   7.580  0.1270E+01  0.1191E+02
   7.590  0.1274E+01  0.1192E+02
   7.600  0.1277E+01  0.1193E+02
   7.610  0.1279E+01  0.1195E+02
   7.620  0.1281E+01  0.1196E+02
   7.630  0.1281E+01  0.1197E+02
   7.640  0.1281E+01  0.1199E+02
   7.650  0.1280E+01  0.1200E+02
   7.660  0.1279E+01  0.1201E+02
   7.670  0.1278E+01  0.1202E+02
   7.680  0.1277E+01  0.1204E+02
   7.690  0.1276E+01  0.1205E+02
   7.700  0.1275E+01  0.1206E+02
   7.710  0.1273E+01  0.1207E+02
   7.720  0.1272E+01  0.1209E+02
   7.730  0.1271E+01  0.1210E+02
   7.740  0.1269E+01  0.1211E+02
   7.750  0.1267E+01  0.1213E+02
   7.760  0.1264E+01  0.1214E+02
   7.770  0.1261E+01  0.1215E+02
   7.780  0.1257E+01  0.1216E+02
   7.790  0.1253E+01  0.1218E+02
   7.800  0.1248E+01  0.1219E+02
   7.810  0.1243E+01  0.1220E+02
   7.820  0.1237E+01  0.1221E+02
   7.830  0.1231E+01  0.1223E+02
   7.840  0.1225E+01  0.1224E+02
   7.850  0.1219E+01  0.1225E+02
   7.860  0.1213E+01  0.1226E+02
   7.870  0.1207E+01  0.1227E+02
   7.880  0.1202E+01  0.1229E+02
   7.890  0.1197E+01  0.1230E+02
   7.900  0.1192E+01  0.1231E+02
   7.910  0.1187E+01  0.1232E+02
   7.920  0.1183E+01  0.1233E+02
   7.930  0.1179E+01  0.1235E+02
   7.940  0.1176E+01  0.1236E+02
   7.950  0.1172E+01  0.1237E+02
   7.960  0.1169E+01  0.1238E+02
   7.970  0.1166E+01  0.1239E+02
   7.980  0.1164E+01  0.1240E+02
   7.990  0.1162E+01  0.1242E+02
   8.000  0.1160E+01  0.1243E+02
   8.010  0.1160E+01  0.1244E+02
   8.020  0.1161E+01  0.1245E+02
   8.030  0.1162E+01  0.1246E+02
   8.040  0.1165E+01  0.1247E+02
   8.050  0.1170E+01  0.1249E+02
   8.060  0.1175E+01  0.1250E+02
   8.070  0.1182E+01  0.1251E+02
   8.080  0.1190E+01  0.1252E+02
   8.090  0.1199E+01  0.1253E+02
   8.100  0.1209E+01  0.1254E+02
   8.110  0.1219E+01  0.1256E+02
   8.120  0.1229E+01  0.1257E+02
   8.130  0.1239E+01  0.1258E+02
   8.140  0.1248E+01  0.1259E+02
   8.150  0.1257E+01  0.1261E+02
   8.160  0.1265E+01  0.1262E+02
   8.170  0.1271E+01  0.1263E+02
   8.180  0.1277E+01  0.1264E+02
   8.190  0.1281E+01  0.1266E+02
   8.200  0.1284E+01  0.1267E+02
   8.210  0.1286E+01  0.1268E+02
   8.220  0.1287E+01  0.1270E+02
   8.230  0.1288E+01  0.1271E+02
   8.240  0.1288E+01  0.1272E+02
   8.250  0.1288E+01  0.1273E+02
   8.260  0.1288E+01  0.1275E+02
   8.270  0.1288E+01  0.1276E+02
   8.280  0.1289E+01  0.1277E+02
   8.290  0.1291E+01  0.1279E+02
   8.300  0.1294E+01  0.1280E+02
   8.310  0.1298E+01  0.1281E+02
   8.320  0.1302E+01  0.1283E+02
   8.330  0.1308E+01  0.1284E+02
   8.340  0.1314E+01  0.1285E+02
   8.350  0.1321E+01  0.1286E+02
   8.360  0.1328E+01  0.1288E+02
   8.370  0.1335E+01  0.1289E+02
   8.380  0.1342E+01  0.1290E+02
   8.390  0.1348E+01  0.1292E+02
   8.400  0.1354E+01  0.1293E+02
   8.410  0.1358E+01  0.1295E+02
   8.420  0.1361E+01  0.1296E+02
   8.430  0.1362E+01  0.1297E+02
   8.440  0.1362E+01  0.1299E+02
   8.450  0.1361E+01  0.1300E+02
   8.460  0.1358E+01  0.1301E+02
   8.470  0.1355E+01  0.1303E+02
   8.480  0.1350E+01  0.1304E+02
   8.490  0.1346E+01  0.1305E+02
   8.500  0.1342E+01  0.1307E+02
   8.510  0.1338E+01  0.1308E+02
   8.520  0.1336E+01  0.1309E+02
   8.530  0.1336E+01  0.1311E+02
   8.540  0.1337E+01  0.1312E+02
   8.550  0.1341E+01  0.1313E+02
   8.560  0.1347E+01  0.1315E+02
   8.570  0.1356E+01  0.1316E+02
   8.580  0.1366E+01  0.1317E+02
   8.590  0.1379E+01  0.1319E+02
   8.600  0.1392E+01  0.1320E+02
   8.610  0.1407E+01  0.1322E+02
   8.620  0.1423E+01  0.1323E+02
   8.630  0.1438E+01  0.1325E+02
   8.640  0.1452E+01  0.1326E+02
   8.650  0.1465E+01  0.1327E+02
   8.660  0.1476E+01  0.1329E+02
   8.670  0.1485E+01  0.1330E+02
   8.680  0.1491E+01  0.1332E+02
   8.690  0.1494E+01  0.1333E+02
   8.700  0.1494E+01  0.1335E+02
   8.710  0.1490E+01  0.1336E+02
   8.720  0.1484E+01  0.1338E+02
   8.730  0.1474E+01  0.1339E+02
   8.740  0.1461E+01  0.1341E+02
   8.750  0.1445E+01  0.1342E+02
   8.760  0.1427E+01  0.1344E+02
   8.770  0.1407E+01  0.1345E+02
   8.780  0.1384E+01  0.1346E+02
   8.790  0.1360E+01  0.1348E+02
   8.800  0.1335E+01  0.1349E+02
   8.810  0.1309E+01  0.1350E+02
   8.820  0.1282E+01  0.1352E+02
   8.830  0.1255E+01  0.1353E+02
   8.840  0.1229E+01  0.1354E+02
   8.850  0.1203E+01  0.1355E+02
   8.860  0.1178E+01  0.1357E+02
   8.870  0.1155E+01  0.1358E+02
   8.880  0.1135E+01  0.1359E+02
   8.890  0.1119E+01  0.1360E+02
   8.900  0.1106E+01  0.1361E+02
   8.910  0.1099E+01  0.1362E+02
   8.920  0.1096E+01  0.1363E+02
   8.930  0.1100E+01  0.1364E+02
   8.940  0.1111E+01  0.1366E+02
   8.950  0.1129E+01  0.1367E+02
   8.960  0.1153E+01  0.1368E+02
   8.970  0.1184E+01  0.1369E+02
   8.980  0.1222E+01  0.1370E+02
   8.990  0.1265E+01  0.1371E+02
   9.000  0.1313E+01  0.1373E+02
   9.010  0.1364E+01  0.1374E+02
   9.020  0.1418E+01  0.1376E+02
   9.030  0.1473E+01  0.1377E+02
   9.040  0.1527E+01  0.1379E+02
   9.050  0.1579E+01  0.1380E+02
   9.060  0.1628E+01  0.1382E+02
   9.070  0.1672E+01  0.1383E+02
   9.080  0.1709E+01  0.1385E+02
   9.090  0.1740E+01  0.1387E+02
   9.100  0.1763E+01  0.1389E+02
   9.110  0.1779E+01  0.1390E+02
   9.120  0.1785E+01  0.1392E+02
   9.130  0.1784E+01  0.1394E+02
   9.140  0.1774E+01  0.1396E+02
   9.150  0.1756E+01  0.1398E+02
   9.160  0.1732E+01  0.1399E+02
   9.170  0.1701E+01  0.1401E+02
   9.180  0.1664E+01  0.1403E+02
   9.190  0.1623E+01  0.1404E+02
   9.200  0.1577E+01  0.1406E+02
   9.210  0.1529E+01  0.1407E+02
   9.220  0.1478E+01  0.1409E+02
   9.230  0.1426E+01  0.1410E+02
   9.240  0.1373E+01  0.1412E+02
   9.250  0.1320E+01  0.1413E+02
   9.260  0.1267E+01  0.1414E+02
   9.270  0.1215E+01  0.1415E+02
   9.280  0.1165E+01  0.1417E+02
   9.290  0.1117E+01  0.1418E+02
   9.300  0.1071E+01  0.1419E+02
   9.310  0.1029E+01  0.1420E+02
   9.320  0.9898E+00  0.1421E+02
   9.330  0.9550E+00  0.1422E+02
   9.340  0.9245E+00  0.1423E+02
   9.350  0.8987E+00  0.1424E+02
   9.360  0.8780E+00  0.1424E+02
   9.370  0.8624E+00  0.1425E+02
   9.380  0.8521E+00  0.1426E+02
   9.390  0.8471E+00  0.1427E+02
   9.400  0.8473E+00  0.1428E+02
   9.410  0.8525E+00  0.1429E+02
   9.420  0.8623E+00  0.1430E+02
   9.430  0.8764E+00  0.1430E+02
   9.440  0.8942E+00  0.1431E+02
   9.450  0.9149E+00  0.1432E+02
   9.460  0.9380E+00  0.1433E+02
   9.470  0.9625E+00  0.1434E+02
   9.480  0.9876E+00  0.1435E+02
   9.490  0.1013E+01  0.1436E+02
   9.500  0.1036E+01  0.1437E+02
   9.510  0.1058E+01  0.1438E+02
   9.520  0.1078E+01  0.1439E+02
   9.530  0.1094E+01  0.1440E+02
   9.540  0.1107E+01  0.1442E+02
   9.550  0.1115E+01  0.1443E+02
   9.560  0.1120E+01  0.1444E+02
   9.570  0.1120E+01  0.1445E+02
   9.580  0.1116E+01  0.1446E+02
   9.590  0.1108E+01  0.1447E+02
   9.600  0.1096E+01  0.1448E+02
   9.610  0.1082E+01  0.1449E+02
   9.620  0.1065E+01  0.1450E+02
   9.630  0.1047E+01  0.1451E+02
   9.640  0.1028E+01  0.1452E+02
   9.650  0.1008E+01  0.1453E+02
   9.660  0.9892E+00  0.1454E+02
   9.670  0.9712E+00  0.1455E+02
   9.680  0.9547E+00  0.1456E+02
   9.690  0.9402E+00  0.1457E+02
   9.700  0.9281E+00  0.1458E+02
   9.710  0.9184E+00  0.1459E+02
   9.720  0.9115E+00  0.1460E+02
   9.730  0.9074E+00  0.1461E+02
   9.740  0.9060E+00  0.1462E+02
   9.750  0.9072E+00  0.1463E+02
   9.760  0.9110E+00  0.1464E+02
   9.770  0.9170E+00  0.1465E+02
   9.780  0.9252E+00  0.1466E+02
   9.790  0.9352E+00  0.1466E+02
   9.800  0.9467E+00  0.1467E+02
   9.810  0.9596E+00  0.1468E+02
   9.820  0.9733E+00  0.1469E+02
   9.830  0.9877E+00  0.1470E+02
   9.840  0.1002E+01  0.1471E+02
   9.850  0.1017E+01  0.1472E+02
   9.860  0.1031E+01  0.1473E+02
   9.870  0.1045E+01  0.1474E+02
   9.880  0.1058E+01  0.1476E+02
   9.890  0.1070E+01  0.1477E+02
   9.900  0.1081E+01  0.1478E+02
   9.910  0.1091E+01  0.1479E+02
   9.920  0.1100E+01  0.1480E+02
   9.930  0.1108E+01  0.1481E+02
   9.940  0.1115E+01  0.1482E+02
   9.950  0.1122E+01  0.1483E+02
   9.960  0.1128E+01  0.1484E+02
   9.970  0.1133E+01  0.1485E+02
   9.980  0.1139E+01  0.1487E+02
   9.990  0.1145E+01  0.1488E+02
  10.000  0.1151E+01  0.1489E+02
