#  E (eV)   dos(E)     Int dos(E) EFermi =   -1.763 eV
 -10.000  0.6737E+00  0.6737E-02
  -9.990  0.6965E+00  0.1370E-01
  -9.980  0.7143E+00  0.2085E-01
  -9.970  0.7267E+00  0.2811E-01
  -9.960  0.7336E+00  0.3545E-01
  -9.950  0.7352E+00  0.4280E-01
  -9.940  0.7317E+00  0.5012E-01
  -9.930  0.7235E+00  0.5735E-01
  -9.920  0.7111E+00  0.6446E-01
  -9.910  0.6952E+00  0.7141E-01
  -9.900  0.6766E+00  0.7818E-01
  -9.890  0.6560E+00  0.8474E-01
  -9.880  0.6342E+00  0.9108E-01
  -9.870  0.6120E+00  0.9720E-01
  -9.860  0.5900E+00  0.1031E+00
  -9.850  0.5687E+00  0.1088E+00
  -9.840  0.5488E+00  0.1143E+00
  -9.830  0.5305E+00  0.1196E+00
  -9.820  0.5141E+00  0.1247E+00
  -9.810  0.4997E+00  0.1297E+00
  -9.800  0.4873E+00  0.1346E+00
  -9.790  0.4768E+00  0.1394E+00
  -9.780  0.4680E+00  0.1440E+00
  -9.770  0.4606E+00  0.1487E+00
  -9.760  0.4544E+00  0.1532E+00
  -9.750  0.4491E+00  0.1577E+00
  -9.740  0.4442E+00  0.1621E+00
  -9.730  0.4395E+00  0.1665E+00
  -9.720  0.4347E+00  0.1709E+00
  -9.710  0.4296E+00  0.1752E+00
  -9.700  0.4237E+00  0.1794E+00
  -9.690  0.4171E+00  0.1836E+00
  -9.680  0.4095E+00  0.1877E+00
  -9.670  0.4009E+00  0.1917E+00
  -9.660  0.3913E+00  0.1956E+00
  -9.650  0.3807E+00  0.1994E+00
  -9.640  0.3694E+00  0.2031E+00
  -9.630  0.3575E+00  0.2067E+00
  -9.620  0.3454E+00  0.2101E+00
  -9.610  0.3334E+00  0.2135E+00
  -9.600  0.3219E+00  0.2167E+00
  -9.590  0.3115E+00  0.2198E+00
  -9.580  0.3027E+00  0.2228E+00
  -9.570  0.2960E+00  0.2258E+00
  -9.560  0.2919E+00  0.2287E+00
  -9.550  0.2910E+00  0.2316E+00
  -9.540  0.2937E+00  0.2345E+00
  -9.530  0.3005E+00  0.2375E+00
  -9.520  0.3117E+00  0.2407E+00
  -9.510  0.3274E+00  0.2439E+00
  -9.500  0.3478E+00  0.2474E+00
  -9.490  0.3728E+00  0.2511E+00
  -9.480  0.4022E+00  0.2552E+00
  -9.470  0.4356E+00  0.2595E+00
  -9.460  0.4726E+00  0.2642E+00
  -9.450  0.5125E+00  0.2694E+00
  -9.440  0.5547E+00  0.2749E+00
  -9.430  0.5983E+00  0.2809E+00
  -9.420  0.6424E+00  0.2873E+00
  -9.410  0.6860E+00  0.2942E+00
  -9.400  0.7283E+00  0.3015E+00
  -9.390  0.7683E+00  0.3092E+00
  -9.380  0.8050E+00  0.3172E+00
  -9.370  0.8377E+00  0.3256E+00
  -9.360  0.8657E+00  0.3342E+00
  -9.350  0.8884E+00  0.3431E+00
  -9.340  0.9053E+00  0.3522E+00
  -9.330  0.9162E+00  0.3613E+00
  -9.320  0.9209E+00  0.3705E+00
  -9.310  0.9195E+00  0.3797E+00
  -9.300  0.9122E+00  0.3889E+00
  -9.290  0.8994E+00  0.3979E+00
  -9.280  0.8816E+00  0.4067E+00
  -9.270  0.8594E+00  0.4153E+00
  -9.260  0.8336E+00  0.4236E+00
  -9.250  0.8050E+00  0.4317E+00
  -9.240  0.7746E+00  0.4394E+00
  -9.230  0.7432E+00  0.4468E+00
  -9.220  0.7120E+00  0.4540E+00
  -9.210  0.6819E+00  0.4608E+00
  -9.200  0.6538E+00  0.4673E+00
  -9.190  0.6287E+00  0.4736E+00
  -9.180  0.6075E+00  0.4797E+00
  -9.170  0.5908E+00  0.4856E+00
  -9.160  0.5795E+00  0.4914E+00
  -9.150  0.5740E+00  0.4971E+00
  -9.140  0.5748E+00  0.5029E+00
  -9.130  0.5819E+00  0.5087E+00
  -9.120  0.5954E+00  0.5146E+00
  -9.110  0.6152E+00  0.5208E+00
  -9.100  0.6408E+00  0.5272E+00
  -9.090  0.6716E+00  0.5339E+00
  -9.080  0.7067E+00  0.5410E+00
  -9.070  0.7452E+00  0.5484E+00
  -9.060  0.7860E+00  0.5563E+00
  -9.050  0.8277E+00  0.5646E+00
  -9.040  0.8690E+00  0.5733E+00
  -9.030  0.9086E+00  0.5823E+00
  -9.020  0.9451E+00  0.5918E+00
  -9.010  0.9774E+00  0.6016E+00
  -9.000  0.1004E+01  0.6116E+00
  -8.990  0.1025E+01  0.6219E+00
  -8.980  0.1039E+01  0.6323E+00
  -8.970  0.1046E+01  0.6427E+00
  -8.960  0.1046E+01  0.6532E+00
  -8.950  0.1039E+01  0.6636E+00
  -8.940  0.1025E+01  0.6738E+00
  -8.930  0.1006E+01  0.6839E+00
  -8.920  0.9815E+00  0.6937E+00
  -8.910  0.9533E+00  0.7032E+00
  -8.900  0.9223E+00  0.7124E+00
  -8.890  0.8895E+00  0.7213E+00
  -8.880  0.8560E+00  0.7299E+00
  -8.870  0.8228E+00  0.7381E+00
  -8.860  0.7907E+00  0.7460E+00
  -8.850  0.7604E+00  0.7536E+00
  -8.840  0.7325E+00  0.7610E+00
  -8.830  0.7074E+00  0.7680E+00
  -8.820  0.6854E+00  0.7749E+00
  -8.810  0.6666E+00  0.7816E+00
  -8.800  0.6510E+00  0.7881E+00
  -8.790  0.6386E+00  0.7945E+00
  -8.780  0.6293E+00  0.8007E+00
  -8.770  0.6229E+00  0.8070E+00
  -8.760  0.6193E+00  0.8132E+00
  -8.750  0.6184E+00  0.8194E+00
  -8.740  0.6201E+00  0.8256E+00
  -8.730  0.6241E+00  0.8318E+00
  -8.720  0.6306E+00  0.8381E+00
  -8.710  0.6394E+00  0.8445E+00
  -8.700  0.6504E+00  0.8510E+00
  -8.690  0.6637E+00  0.8576E+00
  -8.680  0.6792E+00  0.8644E+00
  -8.670  0.6968E+00  0.8714E+00
  -8.660  0.7166E+00  0.8786E+00
  -8.650  0.7384E+00  0.8859E+00
  -8.640  0.7621E+00  0.8936E+00
  -8.630  0.7877E+00  0.9014E+00
  -8.620  0.8150E+00  0.9096E+00
  -8.610  0.8437E+00  0.9180E+00
  -8.600  0.8736E+00  0.9268E+00
  -8.590  0.9044E+00  0.9358E+00
  -8.580  0.9358E+00  0.9452E+00
  -8.570  0.9673E+00  0.9548E+00
  -8.560  0.9986E+00  0.9648E+00
  -8.550  0.1029E+01  0.9751E+00
  -8.540  0.1058E+01  0.9857E+00
  -8.530  0.1085E+01  0.9966E+00
  -8.520  0.1110E+01  0.1008E+01
  -8.510  0.1132E+01  0.1019E+01
  -8.500  0.1151E+01  0.1030E+01
  -8.490  0.1165E+01  0.1042E+01
  -8.480  0.1175E+01  0.1054E+01
  -8.470  0.1181E+01  0.1066E+01
  -8.460  0.1182E+01  0.1078E+01
  -8.450  0.1179E+01  0.1089E+01
  -8.440  0.1171E+01  0.1101E+01
  -8.430  0.1159E+01  0.1113E+01
  -8.420  0.1143E+01  0.1124E+01
  -8.410  0.1124E+01  0.1135E+01
  -8.400  0.1102E+01  0.1146E+01
  -8.390  0.1078E+01  0.1157E+01
  -8.380  0.1053E+01  0.1168E+01
  -8.370  0.1027E+01  0.1178E+01
  -8.360  0.1002E+01  0.1188E+01
  -8.350  0.9771E+00  0.1198E+01
  -8.340  0.9540E+00  0.1207E+01
  -8.330  0.9333E+00  0.1217E+01
  -8.320  0.9156E+00  0.1226E+01
  -8.310  0.9015E+00  0.1235E+01
  -8.300  0.8914E+00  0.1244E+01
  -8.290  0.8859E+00  0.1253E+01
  -8.280  0.8851E+00  0.1261E+01
  -8.270  0.8894E+00  0.1270E+01
  -8.260  0.8987E+00  0.1279E+01
  -8.250  0.9130E+00  0.1288E+01
  -8.240  0.9321E+00  0.1298E+01
  -8.230  0.9557E+00  0.1307E+01
  -8.220  0.9833E+00  0.1317E+01
  -8.210  0.1014E+01  0.1327E+01
  -8.200  0.1048E+01  0.1338E+01
  -8.190  0.1083E+01  0.1349E+01
  -8.180  0.1118E+01  0.1360E+01
  -8.170  0.1154E+01  0.1371E+01
  -8.160  0.1188E+01  0.1383E+01
  -8.150  0.1220E+01  0.1395E+01
  -8.140  0.1248E+01  0.1408E+01
  -8.130  0.1272E+01  0.1421E+01
  -8.120  0.1291E+01  0.1433E+01
  -8.110  0.1304E+01  0.1446E+01
  -8.100  0.1311E+01  0.1460E+01
  -8.090  0.1311E+01  0.1473E+01
  -8.080  0.1305E+01  0.1486E+01
  -8.070  0.1291E+01  0.1499E+01
  -8.060  0.1270E+01  0.1511E+01
  -8.050  0.1243E+01  0.1524E+01
  -8.040  0.1209E+01  0.1536E+01
  -8.030  0.1170E+01  0.1548E+01
  -8.020  0.1127E+01  0.1559E+01
  -8.010  0.1079E+01  0.1570E+01
  -8.000  0.1028E+01  0.1580E+01
  -7.990  0.9758E+00  0.1590E+01
  -7.980  0.9223E+00  0.1599E+01
  -7.970  0.8690E+00  0.1608E+01
  -7.960  0.8169E+00  0.1616E+01
  -7.950  0.7671E+00  0.1623E+01
  -7.940  0.7207E+00  0.1631E+01
  -7.930  0.6786E+00  0.1637E+01
  -7.920  0.6414E+00  0.1644E+01
  -7.910  0.6099E+00  0.1650E+01
  -7.900  0.5845E+00  0.1656E+01
  -7.890  0.5655E+00  0.1661E+01
  -7.880  0.5528E+00  0.1667E+01
  -7.870  0.5464E+00  0.1672E+01
  -7.860  0.5459E+00  0.1678E+01
  -7.850  0.5507E+00  0.1683E+01
  -7.840  0.5600E+00  0.1689E+01
  -7.830  0.5731E+00  0.1695E+01
  -7.820  0.5890E+00  0.1701E+01
  -7.810  0.6067E+00  0.1707E+01
  -7.800  0.6251E+00  0.1713E+01
  -7.790  0.6434E+00  0.1719E+01
  -7.780  0.6607E+00  0.1726E+01
  -7.770  0.6764E+00  0.1733E+01
  -7.760  0.6898E+00  0.1740E+01
  -7.750  0.7006E+00  0.1747E+01
  -7.740  0.7089E+00  0.1754E+01
  -7.730  0.7145E+00  0.1761E+01
  -7.720  0.7179E+00  0.1768E+01
  -7.710  0.7193E+00  0.1775E+01
  -7.700  0.7195E+00  0.1782E+01
  -7.690  0.7189E+00  0.1790E+01
  -7.680  0.7183E+00  0.1797E+01
  -7.670  0.7182E+00  0.1804E+01
  -7.660  0.7192E+00  0.1811E+01
  -7.650  0.7219E+00  0.1818E+01
  -7.640  0.7264E+00  0.1826E+01
  -7.630  0.7330E+00  0.1833E+01
  -7.620  0.7418E+00  0.1840E+01
  -7.610  0.7526E+00  0.1848E+01
  -7.600  0.7651E+00  0.1856E+01
  -7.590  0.7791E+00  0.1863E+01
  -7.580  0.7941E+00  0.1871E+01
  -7.570  0.8097E+00  0.1879E+01
  -7.560  0.8255E+00  0.1888E+01
  -7.550  0.8410E+00  0.1896E+01
  -7.540  0.8559E+00  0.1905E+01
  -7.530  0.8699E+00  0.1913E+01
  -7.520  0.8828E+00  0.1922E+01
  -7.510  0.8945E+00  0.1931E+01
  -7.500  0.9049E+00  0.1940E+01
  -7.490  0.9141E+00  0.1949E+01
  -7.480  0.9221E+00  0.1959E+01
  -7.470  0.9289E+00  0.1968E+01
  -7.460  0.9345E+00  0.1977E+01
  -7.450  0.9391E+00  0.1987E+01
  -7.440  0.9426E+00  0.1996E+01
  -7.430  0.9448E+00  0.2005E+01
  -7.420  0.9457E+00  0.2015E+01
  -7.410  0.9449E+00  0.2024E+01
  -7.400  0.9421E+00  0.2034E+01
  -7.390  0.9372E+00  0.2043E+01
  -7.380  0.9297E+00  0.2052E+01
  -7.370  0.9194E+00  0.2062E+01
  -7.360  0.9059E+00  0.2071E+01
  -7.350  0.8891E+00  0.2080E+01
  -7.340  0.8689E+00  0.2088E+01
  -7.330  0.8453E+00  0.2097E+01
  -7.320  0.8183E+00  0.2105E+01
  -7.310  0.7883E+00  0.2113E+01
  -7.300  0.7556E+00  0.2120E+01
  -7.290  0.7205E+00  0.2128E+01
  -7.280  0.6838E+00  0.2134E+01
  -7.270  0.6459E+00  0.2141E+01
  -7.260  0.6076E+00  0.2147E+01
  -7.250  0.5694E+00  0.2153E+01
  -7.240  0.5321E+00  0.2158E+01
  -7.230  0.4961E+00  0.2163E+01
  -7.220  0.4622E+00  0.2168E+01
  -7.210  0.4308E+00  0.2172E+01
  -7.200  0.4024E+00  0.2176E+01
  -7.190  0.3773E+00  0.2180E+01
  -7.180  0.3559E+00  0.2183E+01
  -7.170  0.3385E+00  0.2187E+01
  -7.160  0.3253E+00  0.2190E+01
  -7.150  0.3165E+00  0.2193E+01
  -7.140  0.3122E+00  0.2196E+01
  -7.130  0.3126E+00  0.2199E+01
  -7.120  0.3178E+00  0.2202E+01
  -7.110  0.3278E+00  0.2206E+01
  -7.100  0.3426E+00  0.2209E+01
  -7.090  0.3622E+00  0.2213E+01
  -7.080  0.3864E+00  0.2217E+01
  -7.070  0.4150E+00  0.2221E+01
  -7.060  0.4478E+00  0.2225E+01
  -7.050  0.4843E+00  0.2230E+01
  -7.040  0.5241E+00  0.2235E+01
  -7.030  0.5666E+00  0.2241E+01
  -7.020  0.6111E+00  0.2247E+01
  -7.010  0.6570E+00  0.2254E+01
  -7.000  0.7036E+00  0.2261E+01
  -6.990  0.7500E+00  0.2268E+01
  -6.980  0.7954E+00  0.2276E+01
  -6.970  0.8392E+00  0.2285E+01
  -6.960  0.8805E+00  0.2293E+01
  -6.950  0.9188E+00  0.2303E+01
  -6.940  0.9533E+00  0.2312E+01
  -6.930  0.9837E+00  0.2322E+01
  -6.920  0.1009E+01  0.2332E+01
  -6.910  0.1030E+01  0.2342E+01
  -6.900  0.1045E+01  0.2353E+01
  -6.890  0.1055E+01  0.2363E+01
  -6.880  0.1060E+01  0.2374E+01
  -6.870  0.1058E+01  0.2385E+01
  -6.860  0.1051E+01  0.2395E+01
  -6.850  0.1038E+01  0.2405E+01
  -6.840  0.1020E+01  0.2416E+01
  -6.830  0.9966E+00  0.2426E+01
  -6.820  0.9681E+00  0.2435E+01
  -6.810  0.9350E+00  0.2445E+01
  -6.800  0.8977E+00  0.2454E+01
  -6.790  0.8568E+00  0.2462E+01
  -6.780  0.8130E+00  0.2470E+01
  -6.770  0.7669E+00  0.2478E+01
  -6.760  0.7193E+00  0.2485E+01
  -6.750  0.6711E+00  0.2492E+01
  -6.740  0.6231E+00  0.2498E+01
  -6.730  0.5761E+00  0.2504E+01
  -6.720  0.5310E+00  0.2509E+01
  -6.710  0.4884E+00  0.2514E+01
  -6.700  0.4492E+00  0.2519E+01
  -6.690  0.4139E+00  0.2523E+01
  -6.680  0.3828E+00  0.2526E+01
  -6.670  0.3564E+00  0.2530E+01
  -6.660  0.3347E+00  0.2533E+01
  -6.650  0.3178E+00  0.2537E+01
  -6.640  0.3057E+00  0.2540E+01
  -6.630  0.2980E+00  0.2543E+01
  -6.620  0.2945E+00  0.2546E+01
  -6.610  0.2947E+00  0.2549E+01
  -6.600  0.2984E+00  0.2551E+01
  -6.590  0.3048E+00  0.2555E+01
  -6.580  0.3138E+00  0.2558E+01
  -6.570  0.3247E+00  0.2561E+01
  -6.560  0.3374E+00  0.2564E+01
  -6.550  0.3514E+00  0.2568E+01
  -6.540  0.3665E+00  0.2571E+01
  -6.530  0.3826E+00  0.2575E+01
  -6.520  0.3996E+00  0.2579E+01
  -6.510  0.4174E+00  0.2583E+01
  -6.500  0.4361E+00  0.2588E+01
  -6.490  0.4556E+00  0.2592E+01
  -6.480  0.4761E+00  0.2597E+01
  -6.470  0.4974E+00  0.2602E+01
  -6.460  0.5196E+00  0.2607E+01
  -6.450  0.5426E+00  0.2613E+01
  -6.440  0.5663E+00  0.2618E+01
  -6.430  0.5905E+00  0.2624E+01
  -6.420  0.6150E+00  0.2630E+01
  -6.410  0.6394E+00  0.2637E+01
  -6.400  0.6636E+00  0.2643E+01
  -6.390  0.6872E+00  0.2650E+01
  -6.380  0.7097E+00  0.2657E+01
  -6.370  0.7311E+00  0.2665E+01
  -6.360  0.7509E+00  0.2672E+01
  -6.350  0.7689E+00  0.2680E+01
  -6.340  0.7849E+00  0.2688E+01
  -6.330  0.7988E+00  0.2696E+01
  -6.320  0.8106E+00  0.2704E+01
  -6.310  0.8201E+00  0.2712E+01
  -6.300  0.8273E+00  0.2720E+01
  -6.290  0.8323E+00  0.2729E+01
  -6.280  0.8352E+00  0.2737E+01
  -6.270  0.8359E+00  0.2745E+01
  -6.260  0.8345E+00  0.2754E+01
  -6.250  0.8311E+00  0.2762E+01
  -6.240  0.8256E+00  0.2770E+01
  -6.230  0.8181E+00  0.2779E+01
  -6.220  0.8086E+00  0.2787E+01
  -6.210  0.7970E+00  0.2795E+01
  -6.200  0.7835E+00  0.2802E+01
  -6.190  0.7679E+00  0.2810E+01
  -6.180  0.7505E+00  0.2818E+01
  -6.170  0.7312E+00  0.2825E+01
  -6.160  0.7104E+00  0.2832E+01
  -6.150  0.6882E+00  0.2839E+01
  -6.140  0.6650E+00  0.2846E+01
  -6.130  0.6410E+00  0.2852E+01
  -6.120  0.6168E+00  0.2858E+01
  -6.110  0.5926E+00  0.2864E+01
  -6.100  0.5690E+00  0.2870E+01
  -6.090  0.5463E+00  0.2875E+01
  -6.080  0.5251E+00  0.2880E+01
  -6.070  0.5055E+00  0.2885E+01
  -6.060  0.4879E+00  0.2890E+01
  -6.050  0.4726E+00  0.2895E+01
  -6.040  0.4596E+00  0.2900E+01
  -6.030  0.4490E+00  0.2904E+01
  -6.020  0.4407E+00  0.2909E+01
  -6.010  0.4348E+00  0.2913E+01
  -6.000  0.4310E+00  0.2917E+01
  -5.990  0.4292E+00  0.2922E+01
  -5.980  0.4293E+00  0.2926E+01
  -5.970  0.4309E+00  0.2930E+01
  -5.960  0.4339E+00  0.2934E+01
  -5.950  0.4382E+00  0.2939E+01
  -5.940  0.4437E+00  0.2943E+01
  -5.930  0.4502E+00  0.2948E+01
  -5.920  0.4577E+00  0.2952E+01
  -5.910  0.4661E+00  0.2957E+01
  -5.900  0.4755E+00  0.2962E+01
  -5.890  0.4857E+00  0.2967E+01
  -5.880  0.4969E+00  0.2972E+01
  -5.870  0.5090E+00  0.2977E+01
  -5.860  0.5219E+00  0.2982E+01
  -5.850  0.5354E+00  0.2987E+01
  -5.840  0.5496E+00  0.2993E+01
  -5.830  0.5641E+00  0.2998E+01
  -5.820  0.5788E+00  0.3004E+01
  -5.810  0.5934E+00  0.3010E+01
  -5.800  0.6075E+00  0.3016E+01
  -5.790  0.6207E+00  0.3022E+01
  -5.780  0.6328E+00  0.3029E+01
  -5.770  0.6432E+00  0.3035E+01
  -5.760  0.6517E+00  0.3042E+01
  -5.750  0.6578E+00  0.3048E+01
  -5.740  0.6612E+00  0.3055E+01
  -5.730  0.6618E+00  0.3062E+01
  -5.720  0.6593E+00  0.3068E+01
  -5.710  0.6535E+00  0.3075E+01
  -5.700  0.6446E+00  0.3081E+01
  -5.690  0.6325E+00  0.3087E+01
  -5.680  0.6175E+00  0.3094E+01
  -5.670  0.5998E+00  0.3100E+01
  -5.660  0.5798E+00  0.3105E+01
  -5.650  0.5579E+00  0.3111E+01
  -5.640  0.5346E+00  0.3116E+01
  -5.630  0.5105E+00  0.3121E+01
  -5.620  0.4861E+00  0.3126E+01
  -5.610  0.4621E+00  0.3131E+01
  -5.600  0.4390E+00  0.3135E+01
  -5.590  0.4174E+00  0.3139E+01
  -5.580  0.3980E+00  0.3143E+01
  -5.570  0.3812E+00  0.3147E+01
  -5.560  0.3676E+00  0.3151E+01
  -5.550  0.3575E+00  0.3155E+01
  -5.540  0.3514E+00  0.3158E+01
  -5.530  0.3496E+00  0.3162E+01
  -5.520  0.3522E+00  0.3165E+01
  -5.510  0.3594E+00  0.3169E+01
  -5.500  0.3711E+00  0.3172E+01
  -5.490  0.3872E+00  0.3176E+01
  -5.480  0.4076E+00  0.3180E+01
  -5.470  0.4318E+00  0.3185E+01
  -5.460  0.4595E+00  0.3189E+01
  -5.450  0.4900E+00  0.3194E+01
  -5.440  0.5228E+00  0.3199E+01
  -5.430  0.5570E+00  0.3205E+01
  -5.420  0.5920E+00  0.3211E+01
  -5.410  0.6269E+00  0.3217E+01
  -5.400  0.6609E+00  0.3224E+01
  -5.390  0.6932E+00  0.3231E+01
  -5.380  0.7230E+00  0.3238E+01
  -5.370  0.7497E+00  0.3245E+01
  -5.360  0.7726E+00  0.3253E+01
  -5.350  0.7914E+00  0.3261E+01
  -5.340  0.8055E+00  0.3269E+01
  -5.330  0.8150E+00  0.3277E+01
  -5.320  0.8196E+00  0.3285E+01
  -5.310  0.8197E+00  0.3294E+01
  -5.300  0.8154E+00  0.3302E+01
  -5.290  0.8071E+00  0.3310E+01
  -5.280  0.7954E+00  0.3318E+01
  -5.270  0.7808E+00  0.3326E+01
  -5.260  0.7642E+00  0.3333E+01
  -5.250  0.7460E+00  0.3341E+01
  -5.240  0.7271E+00  0.3348E+01
  -5.230  0.7079E+00  0.3355E+01
  -5.220  0.6892E+00  0.3362E+01
  -5.210  0.6713E+00  0.3369E+01
  -5.200  0.6545E+00  0.3375E+01
  -5.190  0.6391E+00  0.3382E+01
  -5.180  0.6250E+00  0.3388E+01
  -5.170  0.6123E+00  0.3394E+01
  -5.160  0.6008E+00  0.3400E+01
  -5.150  0.5903E+00  0.3406E+01
  -5.140  0.5803E+00  0.3412E+01
  -5.130  0.5705E+00  0.3417E+01
  -5.120  0.5607E+00  0.3423E+01
  -5.110  0.5504E+00  0.3428E+01
  -5.100  0.5394E+00  0.3434E+01
  -5.090  0.5276E+00  0.3439E+01
  -5.080  0.5148E+00  0.3444E+01
  -5.070  0.5010E+00  0.3449E+01
  -5.060  0.4863E+00  0.3454E+01
  -5.050  0.4709E+00  0.3459E+01
  -5.040  0.4550E+00  0.3463E+01
  -5.030  0.4391E+00  0.3468E+01
  -5.020  0.4233E+00  0.3472E+01
  -5.010  0.4081E+00  0.3476E+01
  -5.000  0.3939E+00  0.3480E+01
  -4.990  0.3809E+00  0.3484E+01
  -4.980  0.3693E+00  0.3488E+01
  -4.970  0.3595E+00  0.3491E+01
  -4.960  0.3513E+00  0.3495E+01
  -4.950  0.3449E+00  0.3498E+01
  -4.940  0.3401E+00  0.3502E+01
  -4.930  0.3367E+00  0.3505E+01
  -4.920  0.3345E+00  0.3508E+01
  -4.910  0.3331E+00  0.3512E+01
  -4.900  0.3320E+00  0.3515E+01
  -4.890  0.3310E+00  0.3518E+01
  -4.880  0.3295E+00  0.3521E+01
  -4.870  0.3274E+00  0.3525E+01
  -4.860  0.3241E+00  0.3528E+01
  -4.850  0.3195E+00  0.3531E+01
  -4.840  0.3135E+00  0.3534E+01
  -4.830  0.3059E+00  0.3537E+01
  -4.820  0.2970E+00  0.3540E+01
  -4.810  0.2868E+00  0.3543E+01
  -4.800  0.2756E+00  0.3546E+01
  -4.790  0.2638E+00  0.3549E+01
  -4.780  0.2519E+00  0.3551E+01
  -4.770  0.2404E+00  0.3554E+01
  -4.760  0.2298E+00  0.3556E+01
  -4.750  0.2206E+00  0.3558E+01
  -4.740  0.2136E+00  0.3560E+01
  -4.730  0.2092E+00  0.3562E+01
  -4.720  0.2079E+00  0.3564E+01
  -4.710  0.2100E+00  0.3566E+01
  -4.700  0.2160E+00  0.3569E+01
  -4.690  0.2260E+00  0.3571E+01
  -4.680  0.2402E+00  0.3573E+01
  -4.670  0.2584E+00  0.3576E+01
  -4.660  0.2806E+00  0.3579E+01
  -4.650  0.3065E+00  0.3582E+01
  -4.640  0.3356E+00  0.3585E+01
  -4.630  0.3674E+00  0.3589E+01
  -4.620  0.4014E+00  0.3593E+01
  -4.610  0.4367E+00  0.3597E+01
  -4.600  0.4727E+00  0.3602E+01
  -4.590  0.5085E+00  0.3607E+01
  -4.580  0.5434E+00  0.3612E+01
  -4.570  0.5767E+00  0.3618E+01
  -4.560  0.6075E+00  0.3624E+01
  -4.550  0.6353E+00  0.3631E+01
  -4.540  0.6596E+00  0.3637E+01
  -4.530  0.6801E+00  0.3644E+01
  -4.520  0.6964E+00  0.3651E+01
  -4.510  0.7084E+00  0.3658E+01
  -4.500  0.7163E+00  0.3665E+01
  -4.490  0.7201E+00  0.3672E+01
  -4.480  0.7202E+00  0.3680E+01
  -4.470  0.7170E+00  0.3687E+01
  -4.460  0.7109E+00  0.3694E+01
  -4.450  0.7025E+00  0.3701E+01
  -4.440  0.6922E+00  0.3708E+01
  -4.430  0.6808E+00  0.3715E+01
  -4.420  0.6685E+00  0.3721E+01
  -4.410  0.6560E+00  0.3728E+01
  -4.400  0.6437E+00  0.3734E+01
  -4.390  0.6318E+00  0.3741E+01
  -4.380  0.6206E+00  0.3747E+01
  -4.370  0.6103E+00  0.3753E+01
  -4.360  0.6010E+00  0.3759E+01
  -4.350  0.5925E+00  0.3765E+01
  -4.340  0.5849E+00  0.3771E+01
  -4.330  0.5779E+00  0.3777E+01
  -4.320  0.5713E+00  0.3782E+01
  -4.310  0.5649E+00  0.3788E+01
  -4.300  0.5584E+00  0.3793E+01
  -4.290  0.5514E+00  0.3799E+01
  -4.280  0.5437E+00  0.3804E+01
  -4.270  0.5350E+00  0.3810E+01
  -4.260  0.5250E+00  0.3815E+01
  -4.250  0.5135E+00  0.3820E+01
  -4.240  0.5004E+00  0.3825E+01
  -4.230  0.4857E+00  0.3830E+01
  -4.220  0.4692E+00  0.3835E+01
  -4.210  0.4512E+00  0.3839E+01
  -4.200  0.4316E+00  0.3844E+01
  -4.190  0.4108E+00  0.3848E+01
  -4.180  0.3890E+00  0.3852E+01
  -4.170  0.3665E+00  0.3855E+01
  -4.160  0.3437E+00  0.3859E+01
  -4.150  0.3210E+00  0.3862E+01
  -4.140  0.2988E+00  0.3865E+01
  -4.130  0.2775E+00  0.3868E+01
  -4.120  0.2575E+00  0.3870E+01
  -4.110  0.2390E+00  0.3873E+01
  -4.100  0.2224E+00  0.3875E+01
  -4.090  0.2078E+00  0.3877E+01
  -4.080  0.1955E+00  0.3879E+01
  -4.070  0.1854E+00  0.3881E+01
  -4.060  0.1778E+00  0.3882E+01
  -4.050  0.1724E+00  0.3884E+01
  -4.040  0.1692E+00  0.3886E+01
  -4.030  0.1681E+00  0.3888E+01
  -4.020  0.1690E+00  0.3889E+01
  -4.010  0.1718E+00  0.3891E+01
  -4.000  0.1762E+00  0.3893E+01
  -3.990  0.1823E+00  0.3895E+01
  -3.980  0.1898E+00  0.3896E+01
  -3.970  0.1989E+00  0.3898E+01
  -3.960  0.2095E+00  0.3901E+01
  -3.950  0.2216E+00  0.3903E+01
  -3.940  0.2353E+00  0.3905E+01
  -3.930  0.2507E+00  0.3908E+01
  -3.920  0.2678E+00  0.3910E+01
  -3.910  0.2868E+00  0.3913E+01
  -3.900  0.3077E+00  0.3916E+01
  -3.890  0.3306E+00  0.3920E+01
  -3.880  0.3553E+00  0.3923E+01
  -3.870  0.3818E+00  0.3927E+01
  -3.860  0.4097E+00  0.3931E+01
  -3.850  0.4389E+00  0.3935E+01
  -3.840  0.4690E+00  0.3940E+01
  -3.830  0.4993E+00  0.3945E+01
  -3.820  0.5294E+00  0.3950E+01
  -3.810  0.5587E+00  0.3956E+01
  -3.800  0.5864E+00  0.3962E+01
  -3.790  0.6118E+00  0.3968E+01
  -3.780  0.6344E+00  0.3974E+01
  -3.770  0.6533E+00  0.3981E+01
  -3.760  0.6680E+00  0.3987E+01
  -3.750  0.6780E+00  0.3994E+01
  -3.740  0.6828E+00  0.4001E+01
  -3.730  0.6823E+00  0.4008E+01
  -3.720  0.6762E+00  0.4015E+01
  -3.710  0.6646E+00  0.4021E+01
  -3.700  0.6477E+00  0.4028E+01
  -3.690  0.6258E+00  0.4034E+01
  -3.680  0.5993E+00  0.4040E+01
  -3.670  0.5689E+00  0.4046E+01
  -3.660  0.5352E+00  0.4051E+01
  -3.650  0.4989E+00  0.4056E+01
  -3.640  0.4608E+00  0.4061E+01
  -3.630  0.4217E+00  0.4065E+01
  -3.620  0.3824E+00  0.4069E+01
  -3.610  0.3437E+00  0.4072E+01
  -3.600  0.3061E+00  0.4075E+01
  -3.590  0.2702E+00  0.4078E+01
  -3.580  0.2366E+00  0.4080E+01
  -3.570  0.2056E+00  0.4082E+01
  -3.560  0.1775E+00  0.4084E+01
  -3.550  0.1525E+00  0.4086E+01
  -3.540  0.1307E+00  0.4087E+01
  -3.530  0.1121E+00  0.4088E+01
  -3.520  0.9667E-01  0.4089E+01
  -3.510  0.8431E-01  0.4090E+01
  -3.500  0.7485E-01  0.4091E+01
  -3.490  0.6811E-01  0.4091E+01
  -3.480  0.6387E-01  0.4092E+01
  -3.470  0.6190E-01  0.4093E+01
  -3.460  0.6194E-01  0.4093E+01
  -3.450  0.6373E-01  0.4094E+01
  -3.440  0.6702E-01  0.4095E+01
  -3.430  0.7151E-01  0.4095E+01
  -3.420  0.7694E-01  0.4096E+01
  -3.410  0.8302E-01  0.4097E+01
  -3.400  0.8947E-01  0.4098E+01
  -3.390  0.9602E-01  0.4099E+01
  -3.380  0.1024E+00  0.4100E+01
  -3.370  0.1084E+00  0.4101E+01
  -3.360  0.1137E+00  0.4102E+01
  -3.350  0.1181E+00  0.4103E+01
  -3.340  0.1215E+00  0.4104E+01
  -3.330  0.1238E+00  0.4106E+01
  -3.320  0.1249E+00  0.4107E+01
  -3.310  0.1246E+00  0.4108E+01
  -3.300  0.1232E+00  0.4109E+01
  -3.290  0.1205E+00  0.4110E+01
  -3.280  0.1168E+00  0.4112E+01
  -3.270  0.1122E+00  0.4113E+01
  -3.260  0.1068E+00  0.4114E+01
  -3.250  0.1010E+00  0.4115E+01
  -3.240  0.9494E-01  0.4116E+01
  -3.230  0.8889E-01  0.4117E+01
  -3.220  0.8313E-01  0.4118E+01
  -3.210  0.7792E-01  0.4118E+01
  -3.200  0.7352E-01  0.4119E+01
  -3.190  0.7017E-01  0.4120E+01
  -3.180  0.6809E-01  0.4120E+01
  -3.170  0.6748E-01  0.4121E+01
  -3.160  0.6849E-01  0.4122E+01
  -3.150  0.7126E-01  0.4122E+01
  -3.140  0.7585E-01  0.4123E+01
  -3.130  0.8232E-01  0.4124E+01
  -3.120  0.9066E-01  0.4125E+01
  -3.110  0.1008E+00  0.4126E+01
  -3.100  0.1127E+00  0.4127E+01
  -3.090  0.1260E+00  0.4128E+01
  -3.080  0.1408E+00  0.4130E+01
  -3.070  0.1565E+00  0.4131E+01
  -3.060  0.1731E+00  0.4133E+01
  -3.050  0.1901E+00  0.4135E+01
  -3.040  0.2072E+00  0.4137E+01
  -3.030  0.2239E+00  0.4139E+01
  -3.020  0.2400E+00  0.4142E+01
  -3.010  0.2551E+00  0.4144E+01
  -3.000  0.2688E+00  0.4147E+01
  -2.990  0.2809E+00  0.4150E+01
  -2.980  0.2910E+00  0.4153E+01
  -2.970  0.2991E+00  0.4156E+01
  -2.960  0.3050E+00  0.4159E+01
  -2.950  0.3085E+00  0.4162E+01
  -2.940  0.3098E+00  0.4165E+01
  -2.930  0.3089E+00  0.4168E+01
  -2.920  0.3058E+00  0.4171E+01
  -2.910  0.3007E+00  0.4174E+01
  -2.900  0.2937E+00  0.4177E+01
  -2.890  0.2851E+00  0.4180E+01
  -2.880  0.2750E+00  0.4183E+01
  -2.870  0.2637E+00  0.4185E+01
  -2.860  0.2514E+00  0.4188E+01
  -2.850  0.2382E+00  0.4190E+01
  -2.840  0.2244E+00  0.4192E+01
  -2.830  0.2101E+00  0.4194E+01
  -2.820  0.1956E+00  0.4196E+01
  -2.810  0.1809E+00  0.4198E+01
  -2.800  0.1663E+00  0.4200E+01
  -2.790  0.1518E+00  0.4201E+01
  -2.780  0.1377E+00  0.4203E+01
  -2.770  0.1240E+00  0.4204E+01
  -2.760  0.1109E+00  0.4205E+01
  -2.750  0.9836E-01  0.4206E+01
  -2.740  0.8659E-01  0.4207E+01
  -2.730  0.7561E-01  0.4208E+01
  -2.720  0.6547E-01  0.4208E+01
  -2.710  0.5621E-01  0.4209E+01
  -2.700  0.4784E-01  0.4209E+01
  -2.690  0.4035E-01  0.4210E+01
  -2.680  0.3372E-01  0.4210E+01
  -2.670  0.2792E-01  0.4210E+01
  -2.660  0.2291E-01  0.4211E+01
  -2.650  0.1862E-01  0.4211E+01
  -2.640  0.1499E-01  0.4211E+01
  -2.630  0.1197E-01  0.4211E+01
  -2.620  0.9481E-02  0.4211E+01
  -2.610  0.7468E-02  0.4211E+01
  -2.600  0.5869E-02  0.4211E+01
  -2.590  0.4633E-02  0.4211E+01
  -2.580  0.3713E-02  0.4211E+01
  -2.570  0.3072E-02  0.4211E+01
  -2.560  0.2684E-02  0.4211E+01
  -2.550  0.2531E-02  0.4212E+01
  -2.540  0.2604E-02  0.4212E+01
  -2.530  0.2906E-02  0.4212E+01
  -2.520  0.3449E-02  0.4212E+01
  -2.510  0.4254E-02  0.4212E+01
  -2.500  0.5349E-02  0.4212E+01
  -2.490  0.6773E-02  0.4212E+01
  -2.480  0.8567E-02  0.4212E+01
  -2.470  0.1078E-01  0.4212E+01
  -2.460  0.1345E-01  0.4212E+01
  -2.450  0.1663E-01  0.4212E+01
  -2.440  0.2036E-01  0.4212E+01
  -2.430  0.2466E-01  0.4213E+01
  -2.420  0.2957E-01  0.4213E+01
  -2.410  0.3507E-01  0.4213E+01
  -2.400  0.4115E-01  0.4214E+01
  -2.390  0.4778E-01  0.4214E+01
  -2.380  0.5487E-01  0.4215E+01
  -2.370  0.6233E-01  0.4215E+01
  -2.360  0.7005E-01  0.4216E+01
  -2.350  0.7789E-01  0.4217E+01
  -2.340  0.8566E-01  0.4218E+01
  -2.330  0.9321E-01  0.4219E+01
  -2.320  0.1003E+00  0.4220E+01
  -2.310  0.1068E+00  0.4221E+01
  -2.300  0.1125E+00  0.4222E+01
  -2.290  0.1173E+00  0.4223E+01
  -2.280  0.1209E+00  0.4224E+01
  -2.270  0.1233E+00  0.4226E+01
  -2.260  0.1243E+00  0.4227E+01
  -2.250  0.1241E+00  0.4228E+01
  -2.240  0.1225E+00  0.4229E+01
  -2.230  0.1196E+00  0.4230E+01
  -2.220  0.1156E+00  0.4232E+01
  -2.210  0.1105E+00  0.4233E+01
  -2.200  0.1044E+00  0.4234E+01
  -2.190  0.9769E-01  0.4235E+01
  -2.180  0.9039E-01  0.4236E+01
  -2.170  0.8273E-01  0.4236E+01
  -2.160  0.7491E-01  0.4237E+01
  -2.150  0.6710E-01  0.4238E+01
  -2.140  0.5946E-01  0.4238E+01
  -2.130  0.5212E-01  0.4239E+01
  -2.120  0.4520E-01  0.4239E+01
  -2.110  0.3878E-01  0.4240E+01
  -2.100  0.3291E-01  0.4240E+01
  -2.090  0.2763E-01  0.4240E+01
  -2.080  0.2294E-01  0.4241E+01
  -2.070  0.1885E-01  0.4241E+01
  -2.060  0.1532E-01  0.4241E+01
  -2.050  0.1232E-01  0.4241E+01
  -2.040  0.9798E-02  0.4241E+01
  -2.030  0.7709E-02  0.4241E+01
  -2.020  0.6001E-02  0.4241E+01
  -2.010  0.4621E-02  0.4241E+01
  -2.000  0.3520E-02  0.4241E+01
  -1.990  0.2652E-02  0.4241E+01
  -1.980  0.1977E-02  0.4241E+01
  -1.970  0.1458E-02  0.4241E+01
  -1.960  0.1064E-02  0.4241E+01
  -1.950  0.7676E-03  0.4241E+01
  -1.940  0.5480E-03  0.4242E+01
  -1.930  0.3871E-03  0.4242E+01
  -1.920  0.2704E-03  0.4242E+01
  -1.910  0.1869E-03  0.4242E+01
  -1.900  0.1279E-03  0.4242E+01
  -1.890  0.8655E-04  0.4242E+01
  -1.880  0.5803E-04  0.4242E+01
  -1.870  0.3861E-04  0.4242E+01
  -1.860  0.2561E-04  0.4242E+01
  -1.850  0.1715E-04  0.4242E+01
  -1.840  0.1190E-04  0.4242E+01
  -1.830  0.9042E-05  0.4242E+01
  -1.820  0.8083E-05  0.4242E+01
  -1.810  0.8865E-05  0.4242E+01
  -1.800  0.1152E-04  0.4242E+01
  -1.790  0.1650E-04  0.4242E+01
  -1.780  0.2459E-04  0.4242E+01
  -1.770  0.3706E-04  0.4242E+01
  -1.760  0.5573E-04  0.4242E+01
  -1.750  0.8319E-04  0.4242E+01
  -1.740  0.1230E-03  0.4242E+01
  -1.730  0.1801E-03  0.4242E+01
  -1.720  0.2608E-03  0.4242E+01
  -1.710  0.3736E-03  0.4242E+01
  -1.700  0.5296E-03  0.4242E+01
  -1.690  0.7426E-03  0.4242E+01
  -1.680  0.1030E-02  0.4242E+01
  -1.670  0.1414E-02  0.4242E+01
  -1.660  0.1919E-02  0.4242E+01
  -1.650  0.2577E-02  0.4242E+01
  -1.640  0.3423E-02  0.4242E+01
  -1.630  0.4499E-02  0.4242E+01
  -1.620  0.5849E-02  0.4242E+01
  -1.610  0.7522E-02  0.4242E+01
  -1.600  0.9571E-02  0.4242E+01
  -1.590  0.1205E-01  0.4242E+01
  -1.580  0.1500E-01  0.4242E+01
  -1.570  0.1847E-01  0.4242E+01
  -1.560  0.2251E-01  0.4243E+01
  -1.550  0.2713E-01  0.4243E+01
  -1.540  0.3235E-01  0.4243E+01
  -1.530  0.3816E-01  0.4244E+01
  -1.520  0.4454E-01  0.4244E+01
  -1.510  0.5141E-01  0.4245E+01
  -1.500  0.5871E-01  0.4245E+01
  -1.490  0.6633E-01  0.4246E+01
  -1.480  0.7413E-01  0.4247E+01
  -1.470  0.8196E-01  0.4247E+01
  -1.460  0.8963E-01  0.4248E+01
  -1.450  0.9698E-01  0.4249E+01
  -1.440  0.1038E+00  0.4250E+01
  -1.430  0.1099E+00  0.4251E+01
  -1.420  0.1151E+00  0.4252E+01
  -1.410  0.1193E+00  0.4254E+01
  -1.400  0.1223E+00  0.4255E+01
  -1.390  0.1240E+00  0.4256E+01
  -1.380  0.1244E+00  0.4257E+01
  -1.370  0.1234E+00  0.4259E+01
  -1.360  0.1212E+00  0.4260E+01
  -1.350  0.1177E+00  0.4261E+01
  -1.340  0.1130E+00  0.4262E+01
  -1.330  0.1074E+00  0.4263E+01
  -1.320  0.1010E+00  0.4264E+01
  -1.310  0.9394E-01  0.4265E+01
  -1.300  0.8643E-01  0.4266E+01
  -1.290  0.7867E-01  0.4267E+01
  -1.280  0.7083E-01  0.4268E+01
  -1.270  0.6309E-01  0.4268E+01
  -1.260  0.5560E-01  0.4269E+01
  -1.250  0.4846E-01  0.4269E+01
  -1.240  0.4179E-01  0.4270E+01
  -1.230  0.3566E-01  0.4270E+01
  -1.220  0.3009E-01  0.4270E+01
  -1.210  0.2513E-01  0.4271E+01
  -1.200  0.2077E-01  0.4271E+01
  -1.190  0.1698E-01  0.4271E+01
  -1.180  0.1375E-01  0.4271E+01
  -1.170  0.1104E-01  0.4271E+01
  -1.160  0.8795E-02  0.4271E+01
  -1.150  0.6975E-02  0.4271E+01
  -1.140  0.5535E-02  0.4271E+01
  -1.130  0.4435E-02  0.4271E+01
  -1.120  0.3641E-02  0.4271E+01
  -1.110  0.3127E-02  0.4271E+01
  -1.100  0.2876E-02  0.4272E+01
  -1.090  0.2883E-02  0.4272E+01
  -1.080  0.3153E-02  0.4272E+01
  -1.070  0.3706E-02  0.4272E+01
  -1.060  0.4573E-02  0.4272E+01
  -1.050  0.5800E-02  0.4272E+01
  -1.040  0.7443E-02  0.4272E+01
  -1.030  0.9575E-02  0.4272E+01
  -1.020  0.1228E-01  0.4272E+01
  -1.010  0.1565E-01  0.4272E+01
  -1.000  0.1980E-01  0.4272E+01
  -0.990  0.2482E-01  0.4273E+01
  -0.980  0.3084E-01  0.4273E+01
  -0.970  0.3796E-01  0.4273E+01
  -0.960  0.4630E-01  0.4274E+01
  -0.950  0.5594E-01  0.4274E+01
  -0.940  0.6695E-01  0.4275E+01
  -0.930  0.7938E-01  0.4276E+01
  -0.920  0.9326E-01  0.4277E+01
  -0.910  0.1085E+00  0.4278E+01
  -0.900  0.1252E+00  0.4279E+01
  -0.890  0.1430E+00  0.4280E+01
  -0.880  0.1619E+00  0.4282E+01
  -0.870  0.1816E+00  0.4284E+01
  -0.860  0.2019E+00  0.4286E+01
  -0.850  0.2223E+00  0.4288E+01
  -0.840  0.2427E+00  0.4291E+01
  -0.830  0.2625E+00  0.4293E+01
  -0.820  0.2813E+00  0.4296E+01
  -0.810  0.2989E+00  0.4299E+01
  -0.800  0.3146E+00  0.4302E+01
  -0.790  0.3283E+00  0.4305E+01
  -0.780  0.3395E+00  0.4309E+01
  -0.770  0.3481E+00  0.4312E+01
  -0.760  0.3538E+00  0.4316E+01
  -0.750  0.3566E+00  0.4319E+01
  -0.740  0.3564E+00  0.4323E+01
  -0.730  0.3534E+00  0.4327E+01
  -0.720  0.3477E+00  0.4330E+01
  -0.710  0.3396E+00  0.4333E+01
  -0.700  0.3295E+00  0.4337E+01
  -0.690  0.3177E+00  0.4340E+01
  -0.680  0.3047E+00  0.4343E+01
  -0.670  0.2909E+00  0.4346E+01
  -0.660  0.2767E+00  0.4349E+01
  -0.650  0.2625E+00  0.4351E+01
  -0.640  0.2487E+00  0.4354E+01
  -0.630  0.2356E+00  0.4356E+01
  -0.620  0.2234E+00  0.4358E+01
  -0.610  0.2123E+00  0.4360E+01
  -0.600  0.2023E+00  0.4362E+01
  -0.590  0.1934E+00  0.4364E+01
  -0.580  0.1855E+00  0.4366E+01
  -0.570  0.1786E+00  0.4368E+01
  -0.560  0.1724E+00  0.4370E+01
  -0.550  0.1667E+00  0.4371E+01
  -0.540  0.1614E+00  0.4373E+01
  -0.530  0.1563E+00  0.4375E+01
  -0.520  0.1512E+00  0.4376E+01
  -0.510  0.1460E+00  0.4378E+01
  -0.500  0.1406E+00  0.4379E+01
  -0.490  0.1350E+00  0.4380E+01
  -0.480  0.1293E+00  0.4382E+01
  -0.470  0.1235E+00  0.4383E+01
  -0.460  0.1179E+00  0.4384E+01
  -0.450  0.1126E+00  0.4385E+01
  -0.440  0.1079E+00  0.4386E+01
  -0.430  0.1040E+00  0.4387E+01
  -0.420  0.1013E+00  0.4388E+01
  -0.410  0.1001E+00  0.4389E+01
  -0.400  0.1007E+00  0.4390E+01
  -0.390  0.1034E+00  0.4391E+01
  -0.380  0.1085E+00  0.4392E+01
  -0.370  0.1162E+00  0.4394E+01
  -0.360  0.1267E+00  0.4395E+01
  -0.350  0.1401E+00  0.4396E+01
  -0.340  0.1565E+00  0.4398E+01
  -0.330  0.1760E+00  0.4400E+01
  -0.320  0.1984E+00  0.4402E+01
  -0.310  0.2236E+00  0.4404E+01
  -0.300  0.2515E+00  0.4406E+01
  -0.290  0.2816E+00  0.4409E+01
  -0.280  0.3137E+00  0.4412E+01
  -0.270  0.3474E+00  0.4416E+01
  -0.260  0.3823E+00  0.4420E+01
  -0.250  0.4179E+00  0.4424E+01
  -0.240  0.4538E+00  0.4428E+01
  -0.230  0.4895E+00  0.4433E+01
  -0.220  0.5246E+00  0.4438E+01
  -0.210  0.5587E+00  0.4444E+01
  -0.200  0.5916E+00  0.4450E+01
  -0.190  0.6229E+00  0.4456E+01
  -0.180  0.6524E+00  0.4463E+01
  -0.170  0.6799E+00  0.4469E+01
  -0.160  0.7053E+00  0.4477E+01
  -0.150  0.7283E+00  0.4484E+01
  -0.140  0.7490E+00  0.4491E+01
  -0.130  0.7673E+00  0.4499E+01
  -0.120  0.7829E+00  0.4507E+01
  -0.110  0.7958E+00  0.4515E+01
  -0.100  0.8059E+00  0.4523E+01
  -0.090  0.8131E+00  0.4531E+01
  -0.080  0.8172E+00  0.4539E+01
  -0.070  0.8181E+00  0.4547E+01
  -0.060  0.8156E+00  0.4555E+01
  -0.050  0.8098E+00  0.4564E+01
  -0.040  0.8005E+00  0.4572E+01
  -0.030  0.7878E+00  0.4579E+01
  -0.020  0.7718E+00  0.4587E+01
  -0.010  0.7527E+00  0.4595E+01
   0.000  0.7307E+00  0.4602E+01
   0.010  0.7061E+00  0.4609E+01
   0.020  0.6795E+00  0.4616E+01
   0.030  0.6513E+00  0.4622E+01
   0.040  0.6221E+00  0.4629E+01
   0.050  0.5924E+00  0.4634E+01
   0.060  0.5629E+00  0.4640E+01
   0.070  0.5342E+00  0.4645E+01
   0.080  0.5069E+00  0.4651E+01
   0.090  0.4815E+00  0.4655E+01
   0.100  0.4585E+00  0.4660E+01
   0.110  0.4383E+00  0.4664E+01
   0.120  0.4211E+00  0.4669E+01
   0.130  0.4070E+00  0.4673E+01
   0.140  0.3962E+00  0.4677E+01
   0.150  0.3884E+00  0.4680E+01
   0.160  0.3834E+00  0.4684E+01
   0.170  0.3809E+00  0.4688E+01
   0.180  0.3804E+00  0.4692E+01
   0.190  0.3814E+00  0.4696E+01
   0.200  0.3832E+00  0.4700E+01
   0.210  0.3853E+00  0.4703E+01
   0.220  0.3871E+00  0.4707E+01
   0.230  0.3880E+00  0.4711E+01
   0.240  0.3875E+00  0.4715E+01
   0.250  0.3852E+00  0.4719E+01
   0.260  0.3808E+00  0.4723E+01
   0.270  0.3741E+00  0.4726E+01
   0.280  0.3650E+00  0.4730E+01
   0.290  0.3536E+00  0.4734E+01
   0.300  0.3400E+00  0.4737E+01
   0.310  0.3244E+00  0.4740E+01
   0.320  0.3073E+00  0.4743E+01
   0.330  0.2891E+00  0.4746E+01
   0.340  0.2702E+00  0.4749E+01
   0.350  0.2511E+00  0.4751E+01
   0.360  0.2324E+00  0.4754E+01
   0.370  0.2146E+00  0.4756E+01
   0.380  0.1981E+00  0.4758E+01
   0.390  0.1833E+00  0.4760E+01
   0.400  0.1707E+00  0.4761E+01
   0.410  0.1605E+00  0.4763E+01
   0.420  0.1529E+00  0.4765E+01
   0.430  0.1481E+00  0.4766E+01
   0.440  0.1462E+00  0.4767E+01
   0.450  0.1470E+00  0.4769E+01
   0.460  0.1506E+00  0.4770E+01
   0.470  0.1567E+00  0.4772E+01
   0.480  0.1651E+00  0.4774E+01
   0.490  0.1754E+00  0.4775E+01
   0.500  0.1874E+00  0.4777E+01
   0.510  0.2005E+00  0.4779E+01
   0.520  0.2145E+00  0.4781E+01
   0.530  0.2289E+00  0.4784E+01
   0.540  0.2434E+00  0.4786E+01
   0.550  0.2576E+00  0.4789E+01
   0.560  0.2711E+00  0.4791E+01
   0.570  0.2839E+00  0.4794E+01
   0.580  0.2956E+00  0.4797E+01
   0.590  0.3063E+00  0.4800E+01
   0.600  0.3158E+00  0.4803E+01
   0.610  0.3243E+00  0.4807E+01
   0.620  0.3318E+00  0.4810E+01
   0.630  0.3384E+00  0.4813E+01
   0.640  0.3444E+00  0.4817E+01
   0.650  0.3499E+00  0.4820E+01
   0.660  0.3552E+00  0.4824E+01
   0.670  0.3604E+00  0.4828E+01
   0.680  0.3656E+00  0.4831E+01
   0.690  0.3710E+00  0.4835E+01
   0.700  0.3766E+00  0.4839E+01
   0.710  0.3824E+00  0.4842E+01
   0.720  0.3884E+00  0.4846E+01
   0.730  0.3946E+00  0.4850E+01
   0.740  0.4008E+00  0.4854E+01
   0.750  0.4069E+00  0.4858E+01
   0.760  0.4128E+00  0.4863E+01
   0.770  0.4184E+00  0.4867E+01
   0.780  0.4234E+00  0.4871E+01
   0.790  0.4277E+00  0.4875E+01
   0.800  0.4312E+00  0.4880E+01
   0.810  0.4339E+00  0.4884E+01
   0.820  0.4355E+00  0.4888E+01
   0.830  0.4361E+00  0.4893E+01
   0.840  0.4354E+00  0.4897E+01
   0.850  0.4336E+00  0.4901E+01
   0.860  0.4305E+00  0.4906E+01
   0.870  0.4261E+00  0.4910E+01
   0.880  0.4205E+00  0.4914E+01
   0.890  0.4137E+00  0.4918E+01
   0.900  0.4057E+00  0.4922E+01
   0.910  0.3965E+00  0.4926E+01
   0.920  0.3864E+00  0.4930E+01
   0.930  0.3754E+00  0.4934E+01
   0.940  0.3636E+00  0.4937E+01
   0.950  0.3513E+00  0.4941E+01
   0.960  0.3386E+00  0.4944E+01
   0.970  0.3258E+00  0.4948E+01
   0.980  0.3131E+00  0.4951E+01
   0.990  0.3007E+00  0.4954E+01
   1.000  0.2889E+00  0.4957E+01
   1.010  0.2780E+00  0.4959E+01
   1.020  0.2682E+00  0.4962E+01
   1.030  0.2599E+00  0.4965E+01
   1.040  0.2532E+00  0.4967E+01
   1.050  0.2484E+00  0.4970E+01
   1.060  0.2458E+00  0.4972E+01
   1.070  0.2455E+00  0.4975E+01
   1.080  0.2477E+00  0.4977E+01
   1.090  0.2524E+00  0.4980E+01
   1.100  0.2597E+00  0.4982E+01
   1.110  0.2695E+00  0.4985E+01
   1.120  0.2819E+00  0.4988E+01
   1.130  0.2966E+00  0.4991E+01
   1.140  0.3133E+00  0.4994E+01
   1.150  0.3320E+00  0.4997E+01
   1.160  0.3521E+00  0.5001E+01
   1.170  0.3733E+00  0.5004E+01
   1.180  0.3952E+00  0.5008E+01
   1.190  0.4174E+00  0.5013E+01
   1.200  0.4394E+00  0.5017E+01
   1.210  0.4607E+00  0.5022E+01
   1.220  0.4810E+00  0.5026E+01
   1.230  0.4998E+00  0.5031E+01
   1.240  0.5168E+00  0.5037E+01
   1.250  0.5316E+00  0.5042E+01
   1.260  0.5440E+00  0.5047E+01
   1.270  0.5537E+00  0.5053E+01
   1.280  0.5606E+00  0.5058E+01
   1.290  0.5647E+00  0.5064E+01
   1.300  0.5657E+00  0.5070E+01
   1.310  0.5639E+00  0.5075E+01
   1.320  0.5591E+00  0.5081E+01
   1.330  0.5516E+00  0.5086E+01
   1.340  0.5414E+00  0.5092E+01
   1.350  0.5288E+00  0.5097E+01
   1.360  0.5140E+00  0.5102E+01
   1.370  0.4971E+00  0.5107E+01
   1.380  0.4786E+00  0.5112E+01
   1.390  0.4587E+00  0.5117E+01
   1.400  0.4377E+00  0.5121E+01
   1.410  0.4160E+00  0.5125E+01
   1.420  0.3940E+00  0.5129E+01
   1.430  0.3720E+00  0.5133E+01
   1.440  0.3506E+00  0.5136E+01
   1.450  0.3301E+00  0.5140E+01
   1.460  0.3110E+00  0.5143E+01
   1.470  0.2938E+00  0.5146E+01
   1.480  0.2788E+00  0.5148E+01
   1.490  0.2664E+00  0.5151E+01
   1.500  0.2571E+00  0.5154E+01
   1.510  0.2511E+00  0.5156E+01
   1.520  0.2487E+00  0.5159E+01
   1.530  0.2501E+00  0.5161E+01
   1.540  0.2554E+00  0.5164E+01
   1.550  0.2644E+00  0.5166E+01
   1.560  0.2772E+00  0.5169E+01
   1.570  0.2934E+00  0.5172E+01
   1.580  0.3126E+00  0.5175E+01
   1.590  0.3343E+00  0.5179E+01
   1.600  0.3580E+00  0.5182E+01
   1.610  0.3830E+00  0.5186E+01
   1.620  0.4086E+00  0.5190E+01
   1.630  0.4340E+00  0.5194E+01
   1.640  0.4584E+00  0.5199E+01
   1.650  0.4811E+00  0.5204E+01
   1.660  0.5016E+00  0.5209E+01
   1.670  0.5193E+00  0.5214E+01
   1.680  0.5337E+00  0.5219E+01
   1.690  0.5447E+00  0.5225E+01
   1.700  0.5521E+00  0.5230E+01
   1.710  0.5560E+00  0.5236E+01
   1.720  0.5566E+00  0.5241E+01
   1.730  0.5544E+00  0.5247E+01
   1.740  0.5498E+00  0.5253E+01
   1.750  0.5436E+00  0.5258E+01
   1.760  0.5362E+00  0.5263E+01
   1.770  0.5285E+00  0.5269E+01
   1.780  0.5212E+00  0.5274E+01
   1.790  0.5148E+00  0.5279E+01
   1.800  0.5101E+00  0.5284E+01
   1.810  0.5074E+00  0.5289E+01
   1.820  0.5070E+00  0.5294E+01
   1.830  0.5093E+00  0.5299E+01
   1.840  0.5142E+00  0.5304E+01
   1.850  0.5216E+00  0.5310E+01
   1.860  0.5314E+00  0.5315E+01
   1.870  0.5431E+00  0.5320E+01
   1.880  0.5564E+00  0.5326E+01
   1.890  0.5707E+00  0.5332E+01
   1.900  0.5854E+00  0.5338E+01
   1.910  0.6000E+00  0.5344E+01
   1.920  0.6140E+00  0.5350E+01
   1.930  0.6267E+00  0.5356E+01
   1.940  0.6378E+00  0.5362E+01
   1.950  0.6470E+00  0.5369E+01
   1.960  0.6541E+00  0.5375E+01
   1.970  0.6588E+00  0.5382E+01
   1.980  0.6614E+00  0.5389E+01
   1.990  0.6617E+00  0.5395E+01
   2.000  0.6601E+00  0.5402E+01
   2.010  0.6568E+00  0.5408E+01
   2.020  0.6522E+00  0.5415E+01
   2.030  0.6465E+00  0.5421E+01
   2.040  0.6401E+00  0.5428E+01
   2.050  0.6332E+00  0.5434E+01
   2.060  0.6262E+00  0.5440E+01
   2.070  0.6190E+00  0.5446E+01
   2.080  0.6119E+00  0.5453E+01
   2.090  0.6048E+00  0.5459E+01
   2.100  0.5976E+00  0.5465E+01
   2.110  0.5902E+00  0.5471E+01
   2.120  0.5825E+00  0.5476E+01
   2.130  0.5743E+00  0.5482E+01
   2.140  0.5653E+00  0.5488E+01
   2.150  0.5555E+00  0.5493E+01
   2.160  0.5448E+00  0.5499E+01
   2.170  0.5332E+00  0.5504E+01
   2.180  0.5206E+00  0.5509E+01
   2.190  0.5073E+00  0.5514E+01
   2.200  0.4935E+00  0.5519E+01
   2.210  0.4795E+00  0.5524E+01
   2.220  0.4657E+00  0.5529E+01
   2.230  0.4525E+00  0.5533E+01
   2.240  0.4403E+00  0.5538E+01
   2.250  0.4295E+00  0.5542E+01
   2.260  0.4207E+00  0.5546E+01
   2.270  0.4141E+00  0.5550E+01
   2.280  0.4100E+00  0.5554E+01
   2.290  0.4086E+00  0.5558E+01
   2.300  0.4100E+00  0.5563E+01
   2.310  0.4143E+00  0.5567E+01
   2.320  0.4212E+00  0.5571E+01
   2.330  0.4307E+00  0.5575E+01
   2.340  0.4424E+00  0.5580E+01
   2.350  0.4559E+00  0.5584E+01
   2.360  0.4709E+00  0.5589E+01
   2.370  0.4870E+00  0.5594E+01
   2.380  0.5036E+00  0.5599E+01
   2.390  0.5204E+00  0.5604E+01
   2.400  0.5370E+00  0.5609E+01
   2.410  0.5531E+00  0.5615E+01
   2.420  0.5684E+00  0.5621E+01
   2.430  0.5826E+00  0.5626E+01
   2.440  0.5958E+00  0.5632E+01
   2.450  0.6079E+00  0.5639E+01
   2.460  0.6189E+00  0.5645E+01
   2.470  0.6289E+00  0.5651E+01
   2.480  0.6381E+00  0.5657E+01
   2.490  0.6468E+00  0.5664E+01
   2.500  0.6552E+00  0.5670E+01
   2.510  0.6635E+00  0.5677E+01
   2.520  0.6720E+00  0.5684E+01
   2.530  0.6807E+00  0.5691E+01
   2.540  0.6899E+00  0.5697E+01
   2.550  0.6997E+00  0.5704E+01
   2.560  0.7099E+00  0.5712E+01
   2.570  0.7205E+00  0.5719E+01
   2.580  0.7314E+00  0.5726E+01
   2.590  0.7423E+00  0.5733E+01
   2.600  0.7530E+00  0.5741E+01
   2.610  0.7630E+00  0.5749E+01
   2.620  0.7722E+00  0.5756E+01
   2.630  0.7802E+00  0.5764E+01
   2.640  0.7867E+00  0.5772E+01
   2.650  0.7915E+00  0.5780E+01
   2.660  0.7944E+00  0.5788E+01
   2.670  0.7954E+00  0.5796E+01
   2.680  0.7946E+00  0.5804E+01
   2.690  0.7919E+00  0.5812E+01
   2.700  0.7875E+00  0.5820E+01
   2.710  0.7817E+00  0.5827E+01
   2.720  0.7747E+00  0.5835E+01
   2.730  0.7668E+00  0.5843E+01
   2.740  0.7583E+00  0.5850E+01
   2.750  0.7494E+00  0.5858E+01
   2.760  0.7404E+00  0.5865E+01
   2.770  0.7316E+00  0.5873E+01
   2.780  0.7230E+00  0.5880E+01
   2.790  0.7149E+00  0.5887E+01
   2.800  0.7071E+00  0.5894E+01
   2.810  0.6999E+00  0.5901E+01
   2.820  0.6932E+00  0.5908E+01
   2.830  0.6869E+00  0.5915E+01
   2.840  0.6810E+00  0.5922E+01
   2.850  0.6756E+00  0.5928E+01
   2.860  0.6704E+00  0.5935E+01
   2.870  0.6656E+00  0.5942E+01
   2.880  0.6613E+00  0.5948E+01
   2.890  0.6573E+00  0.5955E+01
   2.900  0.6540E+00  0.5962E+01
   2.910  0.6513E+00  0.5968E+01
   2.920  0.6495E+00  0.5975E+01
   2.930  0.6488E+00  0.5981E+01
   2.940  0.6493E+00  0.5988E+01
   2.950  0.6514E+00  0.5994E+01
   2.960  0.6552E+00  0.6001E+01
   2.970  0.6608E+00  0.6007E+01
   2.980  0.6684E+00  0.6014E+01
   2.990  0.6781E+00  0.6021E+01
   3.000  0.6900E+00  0.6028E+01
   3.010  0.7040E+00  0.6035E+01
   3.020  0.7199E+00  0.6042E+01
   3.030  0.7378E+00  0.6049E+01
   3.040  0.7572E+00  0.6057E+01
   3.050  0.7780E+00  0.6065E+01
   3.060  0.7999E+00  0.6073E+01
   3.070  0.8225E+00  0.6081E+01
   3.080  0.8455E+00  0.6089E+01
   3.090  0.8684E+00  0.6098E+01
   3.100  0.8911E+00  0.6107E+01
   3.110  0.9131E+00  0.6116E+01
   3.120  0.9343E+00  0.6125E+01
   3.130  0.9542E+00  0.6135E+01
   3.140  0.9728E+00  0.6145E+01
   3.150  0.9898E+00  0.6154E+01
   3.160  0.1005E+01  0.6164E+01
   3.170  0.1019E+01  0.6175E+01
   3.180  0.1030E+01  0.6185E+01
   3.190  0.1039E+01  0.6195E+01
   3.200  0.1047E+01  0.6206E+01
   3.210  0.1052E+01  0.6216E+01
   3.220  0.1055E+01  0.6227E+01
   3.230  0.1055E+01  0.6237E+01
   3.240  0.1053E+01  0.6248E+01
   3.250  0.1048E+01  0.6258E+01
   3.260  0.1041E+01  0.6269E+01
   3.270  0.1031E+01  0.6279E+01
   3.280  0.1019E+01  0.6289E+01
   3.290  0.1004E+01  0.6299E+01
   3.300  0.9868E+00  0.6309E+01
   3.310  0.9675E+00  0.6319E+01
   3.320  0.9464E+00  0.6328E+01
   3.330  0.9237E+00  0.6338E+01
   3.340  0.8998E+00  0.6347E+01
   3.350  0.8752E+00  0.6355E+01
   3.360  0.8504E+00  0.6364E+01
   3.370  0.8257E+00  0.6372E+01
   3.380  0.8018E+00  0.6380E+01
   3.390  0.7790E+00  0.6388E+01
   3.400  0.7580E+00  0.6396E+01
   3.410  0.7390E+00  0.6403E+01
   3.420  0.7224E+00  0.6410E+01
   3.430  0.7086E+00  0.6417E+01
   3.440  0.6977E+00  0.6424E+01
   3.450  0.6898E+00  0.6431E+01
   3.460  0.6851E+00  0.6438E+01
   3.470  0.6835E+00  0.6445E+01
   3.480  0.6847E+00  0.6452E+01
   3.490  0.6887E+00  0.6459E+01
   3.500  0.6950E+00  0.6465E+01
   3.510  0.7033E+00  0.6473E+01
   3.520  0.7133E+00  0.6480E+01
   3.530  0.7243E+00  0.6487E+01
   3.540  0.7361E+00  0.6494E+01
   3.550  0.7480E+00  0.6502E+01
   3.560  0.7596E+00  0.6509E+01
   3.570  0.7705E+00  0.6517E+01
   3.580  0.7804E+00  0.6525E+01
   3.590  0.7888E+00  0.6533E+01
   3.600  0.7957E+00  0.6541E+01
   3.610  0.8008E+00  0.6549E+01
   3.620  0.8041E+00  0.6557E+01
   3.630  0.8056E+00  0.6565E+01
   3.640  0.8055E+00  0.6573E+01
   3.650  0.8039E+00  0.6581E+01
   3.660  0.8012E+00  0.6589E+01
   3.670  0.7976E+00  0.6597E+01
   3.680  0.7935E+00  0.6605E+01
   3.690  0.7892E+00  0.6613E+01
   3.700  0.7849E+00  0.6621E+01
   3.710  0.7810E+00  0.6628E+01
   3.720  0.7777E+00  0.6636E+01
   3.730  0.7750E+00  0.6644E+01
   3.740  0.7731E+00  0.6652E+01
   3.750  0.7721E+00  0.6659E+01
   3.760  0.7717E+00  0.6667E+01
   3.770  0.7721E+00  0.6675E+01
   3.780  0.7730E+00  0.6683E+01
   3.790  0.7745E+00  0.6690E+01
   3.800  0.7764E+00  0.6698E+01
   3.810  0.7787E+00  0.6706E+01
   3.820  0.7814E+00  0.6714E+01
   3.830  0.7848E+00  0.6721E+01
   3.840  0.7887E+00  0.6729E+01
   3.850  0.7935E+00  0.6737E+01
   3.860  0.7994E+00  0.6745E+01
   3.870  0.8065E+00  0.6753E+01
   3.880  0.8150E+00  0.6761E+01
   3.890  0.8251E+00  0.6770E+01
   3.900  0.8370E+00  0.6778E+01
   3.910  0.8505E+00  0.6787E+01
   3.920  0.8656E+00  0.6795E+01
   3.930  0.8823E+00  0.6804E+01
   3.940  0.9001E+00  0.6813E+01
   3.950  0.9189E+00  0.6822E+01
   3.960  0.9381E+00  0.6832E+01
   3.970  0.9574E+00  0.6841E+01
   3.980  0.9764E+00  0.6851E+01
   3.990  0.9944E+00  0.6861E+01
   4.000  0.1011E+01  0.6871E+01
   4.010  0.1026E+01  0.6881E+01
   4.020  0.1039E+01  0.6892E+01
   4.030  0.1050E+01  0.6902E+01
   4.040  0.1059E+01  0.6913E+01
   4.050  0.1064E+01  0.6923E+01
   4.060  0.1068E+01  0.6934E+01
   4.070  0.1069E+01  0.6945E+01
   4.080  0.1067E+01  0.6955E+01
   4.090  0.1064E+01  0.6966E+01
   4.100  0.1059E+01  0.6977E+01
   4.110  0.1052E+01  0.6987E+01
   4.120  0.1044E+01  0.6998E+01
   4.130  0.1034E+01  0.7008E+01
   4.140  0.1024E+01  0.7018E+01
   4.150  0.1013E+01  0.7028E+01
   4.160  0.1002E+01  0.7038E+01
   4.170  0.9906E+00  0.7048E+01
   4.180  0.9790E+00  0.7058E+01
   4.190  0.9673E+00  0.7068E+01
   4.200  0.9556E+00  0.7077E+01
   4.210  0.9440E+00  0.7087E+01
   4.220  0.9324E+00  0.7096E+01
   4.230  0.9209E+00  0.7105E+01
   4.240  0.9095E+00  0.7114E+01
   4.250  0.8982E+00  0.7123E+01
   4.260  0.8871E+00  0.7132E+01
   4.270  0.8763E+00  0.7141E+01
   4.280  0.8660E+00  0.7150E+01
   4.290  0.8563E+00  0.7158E+01
   4.300  0.8473E+00  0.7167E+01
   4.310  0.8394E+00  0.7175E+01
   4.320  0.8326E+00  0.7183E+01
   4.330  0.8271E+00  0.7192E+01
   4.340  0.8231E+00  0.7200E+01
   4.350  0.8208E+00  0.7208E+01
   4.360  0.8202E+00  0.7216E+01
   4.370  0.8212E+00  0.7225E+01
   4.380  0.8238E+00  0.7233E+01
   4.390  0.8279E+00  0.7241E+01
   4.400  0.8331E+00  0.7249E+01
   4.410  0.8391E+00  0.7258E+01
   4.420  0.8456E+00  0.7266E+01
   4.430  0.8521E+00  0.7275E+01
   4.440  0.8581E+00  0.7283E+01
   4.450  0.8632E+00  0.7292E+01
   4.460  0.8669E+00  0.7301E+01
   4.470  0.8687E+00  0.7309E+01
   4.480  0.8683E+00  0.7318E+01
   4.490  0.8655E+00  0.7327E+01
   4.500  0.8600E+00  0.7335E+01
   4.510  0.8517E+00  0.7344E+01
   4.520  0.8406E+00  0.7352E+01
   4.530  0.8269E+00  0.7360E+01
   4.540  0.8108E+00  0.7369E+01
   4.550  0.7924E+00  0.7377E+01
   4.560  0.7722E+00  0.7384E+01
   4.570  0.7505E+00  0.7392E+01
   4.580  0.7277E+00  0.7399E+01
   4.590  0.7044E+00  0.7406E+01
   4.600  0.6808E+00  0.7413E+01
   4.610  0.6576E+00  0.7419E+01
   4.620  0.6349E+00  0.7426E+01
   4.630  0.6133E+00  0.7432E+01
   4.640  0.5931E+00  0.7438E+01
   4.650  0.5745E+00  0.7444E+01
   4.660  0.5579E+00  0.7449E+01
   4.670  0.5434E+00  0.7455E+01
   4.680  0.5313E+00  0.7460E+01
   4.690  0.5217E+00  0.7465E+01
   4.700  0.5147E+00  0.7470E+01
   4.710  0.5103E+00  0.7475E+01
   4.720  0.5086E+00  0.7480E+01
   4.730  0.5096E+00  0.7486E+01
   4.740  0.5131E+00  0.7491E+01
   4.750  0.5191E+00  0.7496E+01
   4.760  0.5276E+00  0.7501E+01
   4.770  0.5383E+00  0.7507E+01
   4.780  0.5511E+00  0.7512E+01
   4.790  0.5660E+00  0.7518E+01
   4.800  0.5829E+00  0.7524E+01
   4.810  0.6017E+00  0.7530E+01
   4.820  0.6225E+00  0.7536E+01
   4.830  0.6453E+00  0.7542E+01
   4.840  0.6702E+00  0.7549E+01
   4.850  0.6973E+00  0.7556E+01
   4.860  0.7267E+00  0.7563E+01
   4.870  0.7586E+00  0.7571E+01
   4.880  0.7931E+00  0.7579E+01
   4.890  0.8301E+00  0.7587E+01
   4.900  0.8696E+00  0.7596E+01
   4.910  0.9114E+00  0.7605E+01
   4.920  0.9554E+00  0.7614E+01
   4.930  0.1001E+01  0.7624E+01
   4.940  0.1048E+01  0.7635E+01
   4.950  0.1096E+01  0.7646E+01
   4.960  0.1143E+01  0.7657E+01
   4.970  0.1190E+01  0.7669E+01
   4.980  0.1235E+01  0.7682E+01
   4.990  0.1278E+01  0.7694E+01
   5.000  0.1319E+01  0.7707E+01
   5.010  0.1355E+01  0.7721E+01
   5.020  0.1388E+01  0.7735E+01
   5.030  0.1416E+01  0.7749E+01
   5.040  0.1440E+01  0.7763E+01
   5.050  0.1460E+01  0.7778E+01
   5.060  0.1475E+01  0.7793E+01
   5.070  0.1487E+01  0.7808E+01
   5.080  0.1494E+01  0.7823E+01
   5.090  0.1499E+01  0.7838E+01
   5.100  0.1502E+01  0.7853E+01
   5.110  0.1503E+01  0.7868E+01
   5.120  0.1503E+01  0.7883E+01
   5.130  0.1502E+01  0.7898E+01
   5.140  0.1501E+01  0.7913E+01
   5.150  0.1500E+01  0.7928E+01
   5.160  0.1499E+01  0.7943E+01
   5.170  0.1498E+01  0.7958E+01
   5.180  0.1497E+01  0.7973E+01
   5.190  0.1496E+01  0.7988E+01
   5.200  0.1493E+01  0.8003E+01
   5.210  0.1488E+01  0.8017E+01
   5.220  0.1482E+01  0.8032E+01
   5.230  0.1472E+01  0.8047E+01
   5.240  0.1458E+01  0.8062E+01
   5.250  0.1441E+01  0.8076E+01
   5.260  0.1419E+01  0.8090E+01
   5.270  0.1393E+01  0.8104E+01
   5.280  0.1363E+01  0.8118E+01
   5.290  0.1329E+01  0.8131E+01
   5.300  0.1291E+01  0.8144E+01
   5.310  0.1251E+01  0.8156E+01
   5.320  0.1209E+01  0.8169E+01
   5.330  0.1165E+01  0.8180E+01
   5.340  0.1122E+01  0.8191E+01
   5.350  0.1080E+01  0.8202E+01
   5.360  0.1040E+01  0.8213E+01
   5.370  0.1003E+01  0.8223E+01
   5.380  0.9681E+00  0.8232E+01
   5.390  0.9375E+00  0.8242E+01
   5.400  0.9109E+00  0.8251E+01
   5.410  0.8885E+00  0.8260E+01
   5.420  0.8705E+00  0.8268E+01
   5.430  0.8567E+00  0.8277E+01
   5.440  0.8470E+00  0.8285E+01
   5.450  0.8413E+00  0.8294E+01
   5.460  0.8392E+00  0.8302E+01
   5.470  0.8406E+00  0.8311E+01
   5.480  0.8452E+00  0.8319E+01
   5.490  0.8529E+00  0.8328E+01
   5.500  0.8634E+00  0.8336E+01
   5.510  0.8765E+00  0.8345E+01
   5.520  0.8921E+00  0.8354E+01
   5.530  0.9099E+00  0.8363E+01
   5.540  0.9297E+00  0.8372E+01
   5.550  0.9511E+00  0.8382E+01
   5.560  0.9739E+00  0.8392E+01
   5.570  0.9976E+00  0.8402E+01
   5.580  0.1022E+01  0.8412E+01
   5.590  0.1046E+01  0.8422E+01
   5.600  0.1070E+01  0.8433E+01
   5.610  0.1092E+01  0.8444E+01
   5.620  0.1113E+01  0.8455E+01
   5.630  0.1133E+01  0.8466E+01
   5.640  0.1150E+01  0.8478E+01
   5.650  0.1164E+01  0.8489E+01
   5.660  0.1177E+01  0.8501E+01
   5.670  0.1186E+01  0.8513E+01
   5.680  0.1194E+01  0.8525E+01
   5.690  0.1200E+01  0.8537E+01
   5.700  0.1205E+01  0.8549E+01
   5.710  0.1209E+01  0.8561E+01
   5.720  0.1214E+01  0.8573E+01
   5.730  0.1220E+01  0.8585E+01
   5.740  0.1228E+01  0.8598E+01
   5.750  0.1239E+01  0.8610E+01
   5.760  0.1254E+01  0.8623E+01
   5.770  0.1275E+01  0.8635E+01
   5.780  0.1301E+01  0.8648E+01
   5.790  0.1333E+01  0.8662E+01
   5.800  0.1372E+01  0.8676E+01
   5.810  0.1419E+01  0.8690E+01
   5.820  0.1472E+01  0.8704E+01
   5.830  0.1531E+01  0.8720E+01
   5.840  0.1597E+01  0.8736E+01
   5.850  0.1668E+01  0.8752E+01
   5.860  0.1743E+01  0.8770E+01
   5.870  0.1820E+01  0.8788E+01
   5.880  0.1898E+01  0.8807E+01
   5.890  0.1976E+01  0.8827E+01
   5.900  0.2052E+01  0.8847E+01
   5.910  0.2125E+01  0.8869E+01
   5.920  0.2192E+01  0.8890E+01
   5.930  0.2253E+01  0.8913E+01
   5.940  0.2306E+01  0.8936E+01
   5.950  0.2350E+01  0.8960E+01
   5.960  0.2386E+01  0.8983E+01
   5.970  0.2412E+01  0.9007E+01
   5.980  0.2429E+01  0.9032E+01
   5.990  0.2437E+01  0.9056E+01
   6.000  0.2436E+01  0.9081E+01
   6.010  0.2428E+01  0.9105E+01
   6.020  0.2414E+01  0.9129E+01
   6.030  0.2395E+01  0.9153E+01
   6.040  0.2371E+01  0.9177E+01
   6.050  0.2344E+01  0.9200E+01
   6.060  0.2316E+01  0.9223E+01
   6.070  0.2286E+01  0.9246E+01
   6.080  0.2257E+01  0.9269E+01
   6.090  0.2229E+01  0.9291E+01
   6.100  0.2202E+01  0.9313E+01
   6.110  0.2177E+01  0.9335E+01
   6.120  0.2154E+01  0.9356E+01
   6.130  0.2133E+01  0.9378E+01
   6.140  0.2114E+01  0.9399E+01
   6.150  0.2097E+01  0.9420E+01
   6.160  0.2082E+01  0.9440E+01
   6.170  0.2068E+01  0.9461E+01
   6.180  0.2055E+01  0.9482E+01
   6.190  0.2042E+01  0.9502E+01
   6.200  0.2029E+01  0.9522E+01
   6.210  0.2016E+01  0.9543E+01
   6.220  0.2002E+01  0.9563E+01
   6.230  0.1988E+01  0.9582E+01
   6.240  0.1973E+01  0.9602E+01
   6.250  0.1957E+01  0.9622E+01
   6.260  0.1940E+01  0.9641E+01
   6.270  0.1923E+01  0.9660E+01
   6.280  0.1905E+01  0.9679E+01
   6.290  0.1888E+01  0.9698E+01
   6.300  0.1871E+01  0.9717E+01
   6.310  0.1855E+01  0.9736E+01
   6.320  0.1841E+01  0.9754E+01
   6.330  0.1827E+01  0.9772E+01
   6.340  0.1815E+01  0.9790E+01
   6.350  0.1805E+01  0.9808E+01
   6.360  0.1796E+01  0.9826E+01
   6.370  0.1788E+01  0.9844E+01
   6.380  0.1781E+01  0.9862E+01
   6.390  0.1775E+01  0.9880E+01
   6.400  0.1769E+01  0.9898E+01
   6.410  0.1763E+01  0.9915E+01
   6.420  0.1757E+01  0.9933E+01
   6.430  0.1752E+01  0.9950E+01
   6.440  0.1746E+01  0.9968E+01
   6.450  0.1741E+01  0.9985E+01
   6.460  0.1736E+01  0.1000E+02
   6.470  0.1733E+01  0.1002E+02
   6.480  0.1731E+01  0.1004E+02
   6.490  0.1732E+01  0.1005E+02
   6.500  0.1736E+01  0.1007E+02
   6.510  0.1744E+01  0.1009E+02
   6.520  0.1757E+01  0.1011E+02
   6.530  0.1773E+01  0.1012E+02
   6.540  0.1794E+01  0.1014E+02
   6.550  0.1820E+01  0.1016E+02
   6.560  0.1849E+01  0.1018E+02
   6.570  0.1881E+01  0.1020E+02
   6.580  0.1916E+01  0.1022E+02
   6.590  0.1951E+01  0.1024E+02
   6.600  0.1987E+01  0.1026E+02
   6.610  0.2021E+01  0.1028E+02
   6.620  0.2053E+01  0.1030E+02
   6.630  0.2081E+01  0.1032E+02
   6.640  0.2105E+01  0.1034E+02
   6.650  0.2125E+01  0.1036E+02
   6.660  0.2139E+01  0.1038E+02
   6.670  0.2149E+01  0.1040E+02
   6.680  0.2154E+01  0.1042E+02
   6.690  0.2156E+01  0.1045E+02
   6.700  0.2154E+01  0.1047E+02
   6.710  0.2150E+01  0.1049E+02
   6.720  0.2145E+01  0.1051E+02
   6.730  0.2140E+01  0.1053E+02
   6.740  0.2136E+01  0.1055E+02
   6.750  0.2134E+01  0.1057E+02
   6.760  0.2135E+01  0.1060E+02
   6.770  0.2140E+01  0.1062E+02
   6.780  0.2148E+01  0.1064E+02
   6.790  0.2160E+01  0.1066E+02
   6.800  0.2176E+01  0.1068E+02
   6.810  0.2195E+01  0.1070E+02
   6.820  0.2216E+01  0.1073E+02
   6.830  0.2238E+01  0.1075E+02
   6.840  0.2260E+01  0.1077E+02
   6.850  0.2282E+01  0.1079E+02
   6.860  0.2301E+01  0.1082E+02
   6.870  0.2317E+01  0.1084E+02
   6.880  0.2328E+01  0.1086E+02
   6.890  0.2335E+01  0.1089E+02
   6.900  0.2336E+01  0.1091E+02
   6.910  0.2331E+01  0.1093E+02
   6.920  0.2320E+01  0.1096E+02
   6.930  0.2304E+01  0.1098E+02
   6.940  0.2282E+01  0.1100E+02
   6.950  0.2257E+01  0.1103E+02
   6.960  0.2228E+01  0.1105E+02
   6.970  0.2198E+01  0.1107E+02
   6.980  0.2166E+01  0.1109E+02
   6.990  0.2135E+01  0.1111E+02
   7.000  0.2105E+01  0.1113E+02
   7.010  0.2077E+01  0.1115E+02
   7.020  0.2052E+01  0.1118E+02
   7.030  0.2030E+01  0.1120E+02
   7.040  0.2012E+01  0.1122E+02
   7.050  0.1996E+01  0.1124E+02
   7.060  0.1984E+01  0.1126E+02
   7.070  0.1975E+01  0.1128E+02
   7.080  0.1966E+01  0.1129E+02
   7.090  0.1959E+01  0.1131E+02
   7.100  0.1952E+01  0.1133E+02
   7.110  0.1943E+01  0.1135E+02
   7.120  0.1933E+01  0.1137E+02
   7.130  0.1919E+01  0.1139E+02
   7.140  0.1902E+01  0.1141E+02
   7.150  0.1880E+01  0.1143E+02
   7.160  0.1853E+01  0.1145E+02
   7.170  0.1821E+01  0.1147E+02
   7.180  0.1783E+01  0.1148E+02
   7.190  0.1739E+01  0.1150E+02
   7.200  0.1691E+01  0.1152E+02
   7.210  0.1637E+01  0.1153E+02
   7.220  0.1580E+01  0.1155E+02
   7.230  0.1519E+01  0.1157E+02
   7.240  0.1455E+01  0.1158E+02
   7.250  0.1390E+01  0.1159E+02
   7.260  0.1323E+01  0.1161E+02
   7.270  0.1258E+01  0.1162E+02
   7.280  0.1193E+01  0.1163E+02
   7.290  0.1131E+01  0.1164E+02
   7.300  0.1072E+01  0.1165E+02
   7.310  0.1016E+01  0.1166E+02
   7.320  0.9642E+00  0.1167E+02
   7.330  0.9168E+00  0.1168E+02
   7.340  0.8740E+00  0.1169E+02
   7.350  0.8358E+00  0.1170E+02
   7.360  0.8022E+00  0.1171E+02
   7.370  0.7730E+00  0.1172E+02
   7.380  0.7479E+00  0.1172E+02
   7.390  0.7266E+00  0.1173E+02
   7.400  0.7090E+00  0.1174E+02
   7.410  0.6948E+00  0.1174E+02
   7.420  0.6837E+00  0.1175E+02
   7.430  0.6757E+00  0.1176E+02
   7.440  0.6706E+00  0.1177E+02
   7.450  0.6684E+00  0.1177E+02
   7.460  0.6691E+00  0.1178E+02
   7.470  0.6728E+00  0.1179E+02
   7.480  0.6795E+00  0.1179E+02
   7.490  0.6893E+00  0.1180E+02
   7.500  0.7023E+00  0.1181E+02
   7.510  0.7184E+00  0.1181E+02
   7.520  0.7376E+00  0.1182E+02
   7.530  0.7598E+00  0.1183E+02
   7.540  0.7847E+00  0.1184E+02
   7.550  0.8123E+00  0.1184E+02
   7.560  0.8420E+00  0.1185E+02
   7.570  0.8737E+00  0.1186E+02
   7.580  0.9070E+00  0.1187E+02
   7.590  0.9415E+00  0.1188E+02
   7.600  0.9769E+00  0.1189E+02
   7.610  0.1013E+01  0.1190E+02
   7.620  0.1049E+01  0.1191E+02
   7.630  0.1085E+01  0.1192E+02
   7.640  0.1121E+01  0.1193E+02
   7.650  0.1158E+01  0.1194E+02
   7.660  0.1193E+01  0.1196E+02
   7.670  0.1229E+01  0.1197E+02
   7.680  0.1264E+01  0.1198E+02
   7.690  0.1299E+01  0.1199E+02
   7.700  0.1334E+01  0.1201E+02
   7.710  0.1369E+01  0.1202E+02
   7.720  0.1404E+01  0.1203E+02
   7.730  0.1439E+01  0.1205E+02
   7.740  0.1473E+01  0.1206E+02
   7.750  0.1508E+01  0.1208E+02
   7.760  0.1541E+01  0.1209E+02
   7.770  0.1574E+01  0.1211E+02
   7.780  0.1606E+01  0.1213E+02
   7.790  0.1635E+01  0.1214E+02
   7.800  0.1664E+01  0.1216E+02
   7.810  0.1689E+01  0.1218E+02
   7.820  0.1712E+01  0.1219E+02
   7.830  0.1731E+01  0.1221E+02
   7.840  0.1747E+01  0.1223E+02
   7.850  0.1758E+01  0.1225E+02
   7.860  0.1765E+01  0.1226E+02
   7.870  0.1767E+01  0.1228E+02
   7.880  0.1764E+01  0.1230E+02
   7.890  0.1756E+01  0.1232E+02
   7.900  0.1744E+01  0.1233E+02
   7.910  0.1727E+01  0.1235E+02
   7.920  0.1706E+01  0.1237E+02
   7.930  0.1681E+01  0.1238E+02
   7.940  0.1654E+01  0.1240E+02
   7.950  0.1624E+01  0.1242E+02
   7.960  0.1594E+01  0.1243E+02
   7.970  0.1563E+01  0.1245E+02
   7.980  0.1533E+01  0.1246E+02
   7.990  0.1504E+01  0.1248E+02
   8.000  0.1477E+01  0.1249E+02
   8.010  0.1453E+01  0.1251E+02
   8.020  0.1432E+01  0.1252E+02
   8.030  0.1414E+01  0.1254E+02
   8.040  0.1399E+01  0.1255E+02
   8.050  0.1388E+01  0.1256E+02
   8.060  0.1379E+01  0.1258E+02
   8.070  0.1373E+01  0.1259E+02
   8.080  0.1368E+01  0.1261E+02
   8.090  0.1365E+01  0.1262E+02
   8.100  0.1362E+01  0.1263E+02
   8.110  0.1359E+01  0.1265E+02
   8.120  0.1356E+01  0.1266E+02
   8.130  0.1352E+01  0.1267E+02
   8.140  0.1347E+01  0.1269E+02
   8.150  0.1341E+01  0.1270E+02
   8.160  0.1333E+01  0.1271E+02
   8.170  0.1324E+01  0.1273E+02
   8.180  0.1314E+01  0.1274E+02
   8.190  0.1303E+01  0.1275E+02
   8.200  0.1292E+01  0.1277E+02
   8.210  0.1279E+01  0.1278E+02
   8.220  0.1267E+01  0.1279E+02
   8.230  0.1255E+01  0.1280E+02
   8.240  0.1243E+01  0.1282E+02
   8.250  0.1231E+01  0.1283E+02
   8.260  0.1220E+01  0.1284E+02
   8.270  0.1209E+01  0.1285E+02
   8.280  0.1198E+01  0.1287E+02
   8.290  0.1187E+01  0.1288E+02
   8.300  0.1176E+01  0.1289E+02
   8.310  0.1166E+01  0.1290E+02
   8.320  0.1155E+01  0.1291E+02
   8.330  0.1144E+01  0.1292E+02
   8.340  0.1133E+01  0.1294E+02
   8.350  0.1122E+01  0.1295E+02
   8.360  0.1111E+01  0.1296E+02
   8.370  0.1100E+01  0.1297E+02
   8.380  0.1088E+01  0.1298E+02
   8.390  0.1078E+01  0.1299E+02
   8.400  0.1067E+01  0.1300E+02
   8.410  0.1058E+01  0.1301E+02
   8.420  0.1049E+01  0.1302E+02
   8.430  0.1042E+01  0.1303E+02
   8.440  0.1035E+01  0.1304E+02
   8.450  0.1031E+01  0.1305E+02
   8.460  0.1028E+01  0.1306E+02
   8.470  0.1028E+01  0.1307E+02
   8.480  0.1029E+01  0.1308E+02
   8.490  0.1033E+01  0.1309E+02
   8.500  0.1040E+01  0.1310E+02
   8.510  0.1048E+01  0.1311E+02
   8.520  0.1060E+01  0.1313E+02
   8.530  0.1073E+01  0.1314E+02
   8.540  0.1088E+01  0.1315E+02
   8.550  0.1105E+01  0.1316E+02
   8.560  0.1123E+01  0.1317E+02
   8.570  0.1142E+01  0.1318E+02
   8.580  0.1161E+01  0.1319E+02
   8.590  0.1180E+01  0.1320E+02
   8.600  0.1199E+01  0.1322E+02
   8.610  0.1217E+01  0.1323E+02
   8.620  0.1234E+01  0.1324E+02
   8.630  0.1249E+01  0.1325E+02
   8.640  0.1263E+01  0.1327E+02
   8.650  0.1275E+01  0.1328E+02
   8.660  0.1285E+01  0.1329E+02
   8.670  0.1294E+01  0.1330E+02
   8.680  0.1301E+01  0.1332E+02
   8.690  0.1306E+01  0.1333E+02
   8.700  0.1311E+01  0.1334E+02
   8.710  0.1315E+01  0.1336E+02
   8.720  0.1319E+01  0.1337E+02
   8.730  0.1322E+01  0.1338E+02
   8.740  0.1326E+01  0.1340E+02
   8.750  0.1330E+01  0.1341E+02
   8.760  0.1335E+01  0.1342E+02
   8.770  0.1341E+01  0.1344E+02
   8.780  0.1348E+01  0.1345E+02
   8.790  0.1356E+01  0.1346E+02
   8.800  0.1365E+01  0.1348E+02
   8.810  0.1375E+01  0.1349E+02
   8.820  0.1385E+01  0.1350E+02
   8.830  0.1395E+01  0.1352E+02
   8.840  0.1405E+01  0.1353E+02
   8.850  0.1414E+01  0.1355E+02
   8.860  0.1422E+01  0.1356E+02
   8.870  0.1428E+01  0.1358E+02
   8.880  0.1433E+01  0.1359E+02
   8.890  0.1435E+01  0.1360E+02
   8.900  0.1435E+01  0.1362E+02
   8.910  0.1433E+01  0.1363E+02
   8.920  0.1429E+01  0.1365E+02
   8.930  0.1423E+01  0.1366E+02
   8.940  0.1416E+01  0.1368E+02
   8.950  0.1408E+01  0.1369E+02
   8.960  0.1399E+01  0.1370E+02
   8.970  0.1391E+01  0.1372E+02
   8.980  0.1382E+01  0.1373E+02
   8.990  0.1374E+01  0.1375E+02
   9.000  0.1367E+01  0.1376E+02
   9.010  0.1361E+01  0.1377E+02
   9.020  0.1357E+01  0.1379E+02
   9.030  0.1353E+01  0.1380E+02
   9.040  0.1350E+01  0.1381E+02
   9.050  0.1349E+01  0.1383E+02
   9.060  0.1348E+01  0.1384E+02
   9.070  0.1349E+01  0.1385E+02
   9.080  0.1350E+01  0.1387E+02
   9.090  0.1352E+01  0.1388E+02
   9.100  0.1355E+01  0.1389E+02
   9.110  0.1359E+01  0.1391E+02
   9.120  0.1365E+01  0.1392E+02
   9.130  0.1372E+01  0.1393E+02
   9.140  0.1382E+01  0.1395E+02
   9.150  0.1394E+01  0.1396E+02
   9.160  0.1408E+01  0.1398E+02
   9.170  0.1425E+01  0.1399E+02
   9.180  0.1444E+01  0.1401E+02
   9.190  0.1466E+01  0.1402E+02
   9.200  0.1491E+01  0.1404E+02
   9.210  0.1516E+01  0.1405E+02
   9.220  0.1543E+01  0.1407E+02
   9.230  0.1571E+01  0.1408E+02
   9.240  0.1598E+01  0.1410E+02
   9.250  0.1623E+01  0.1411E+02
   9.260  0.1646E+01  0.1413E+02
   9.270  0.1666E+01  0.1415E+02
   9.280  0.1682E+01  0.1416E+02
   9.290  0.1693E+01  0.1418E+02
   9.300  0.1699E+01  0.1420E+02
   9.310  0.1699E+01  0.1421E+02
   9.320  0.1692E+01  0.1423E+02
   9.330  0.1679E+01  0.1425E+02
   9.340  0.1660E+01  0.1426E+02
   9.350  0.1635E+01  0.1428E+02
   9.360  0.1605E+01  0.1430E+02
   9.370  0.1569E+01  0.1431E+02
   9.380  0.1529E+01  0.1433E+02
   9.390  0.1485E+01  0.1434E+02
   9.400  0.1439E+01  0.1436E+02
   9.410  0.1391E+01  0.1437E+02
   9.420  0.1343E+01  0.1438E+02
   9.430  0.1294E+01  0.1440E+02
   9.440  0.1247E+01  0.1441E+02
   9.450  0.1201E+01  0.1442E+02
   9.460  0.1158E+01  0.1443E+02
   9.470  0.1119E+01  0.1444E+02
   9.480  0.1083E+01  0.1446E+02
   9.490  0.1051E+01  0.1447E+02
   9.500  0.1022E+01  0.1448E+02
   9.510  0.9980E+00  0.1449E+02
   9.520  0.9773E+00  0.1450E+02
   9.530  0.9597E+00  0.1451E+02
   9.540  0.9449E+00  0.1452E+02
   9.550  0.9322E+00  0.1452E+02
   9.560  0.9211E+00  0.1453E+02
   9.570  0.9111E+00  0.1454E+02
   9.580  0.9016E+00  0.1455E+02
   9.590  0.8923E+00  0.1456E+02
   9.600  0.8831E+00  0.1457E+02
   9.610  0.8737E+00  0.1458E+02
   9.620  0.8643E+00  0.1459E+02
   9.630  0.8551E+00  0.1460E+02
   9.640  0.8463E+00  0.1460E+02
   9.650  0.8386E+00  0.1461E+02
   9.660  0.8322E+00  0.1462E+02
   9.670  0.8278E+00  0.1463E+02
   9.680  0.8258E+00  0.1464E+02
   9.690  0.8266E+00  0.1465E+02
   9.700  0.8304E+00  0.1465E+02
   9.710  0.8375E+00  0.1466E+02
   9.720  0.8478E+00  0.1467E+02
   9.730  0.8610E+00  0.1468E+02
   9.740  0.8768E+00  0.1469E+02
   9.750  0.8946E+00  0.1470E+02
   9.760  0.9138E+00  0.1471E+02
   9.770  0.9335E+00  0.1472E+02
   9.780  0.9530E+00  0.1473E+02
   9.790  0.9714E+00  0.1473E+02
   9.800  0.9879E+00  0.1474E+02
   9.810  0.1002E+01  0.1475E+02
   9.820  0.1012E+01  0.1476E+02
   9.830  0.1019E+01  0.1477E+02
   9.840  0.1022E+01  0.1479E+02
   9.850  0.1020E+01  0.1480E+02
   9.860  0.1014E+01  0.1481E+02
   9.870  0.1003E+01  0.1482E+02
   9.880  0.9891E+00  0.1483E+02
   9.890  0.9709E+00  0.1484E+02
   9.900  0.9494E+00  0.1484E+02
   9.910  0.9250E+00  0.1485E+02
   9.920  0.8980E+00  0.1486E+02
   9.930  0.8691E+00  0.1487E+02
   9.940  0.8388E+00  0.1488E+02
   9.950  0.8073E+00  0.1489E+02
   9.960  0.7753E+00  0.1490E+02
   9.970  0.7432E+00  0.1490E+02
   9.980  0.7114E+00  0.1491E+02
   9.990  0.6803E+00  0.1492E+02
  10.000  0.6504E+00  0.1492E+02
