#  E (eV)   dos(E)     Int dos(E) EFermi =   -1.805 eV
 -10.000  0.2402E+00  0.2402E-02
  -9.990  0.2231E+00  0.4632E-02
  -9.980  0.2094E+00  0.6726E-02
  -9.970  0.1996E+00  0.8722E-02
  -9.960  0.1941E+00  0.1066E-01
  -9.950  0.1933E+00  0.1260E-01
  -9.940  0.1973E+00  0.1457E-01
  -9.930  0.2062E+00  0.1663E-01
  -9.920  0.2199E+00  0.1883E-01
  -9.910  0.2383E+00  0.2121E-01
  -9.900  0.2610E+00  0.2382E-01
  -9.890  0.2876E+00  0.2670E-01
  -9.880  0.3175E+00  0.2987E-01
  -9.870  0.3500E+00  0.3337E-01
  -9.860  0.3844E+00  0.3722E-01
  -9.850  0.4199E+00  0.4142E-01
  -9.840  0.4554E+00  0.4597E-01
  -9.830  0.4902E+00  0.5087E-01
  -9.820  0.5231E+00  0.5610E-01
  -9.810  0.5534E+00  0.6164E-01
  -9.800  0.5802E+00  0.6744E-01
  -9.790  0.6027E+00  0.7347E-01
  -9.780  0.6204E+00  0.7967E-01
  -9.770  0.6327E+00  0.8600E-01
  -9.760  0.6395E+00  0.9239E-01
  -9.750  0.6407E+00  0.9880E-01
  -9.740  0.6365E+00  0.1052E+00
  -9.730  0.6271E+00  0.1114E+00
  -9.720  0.6132E+00  0.1176E+00
  -9.710  0.5954E+00  0.1235E+00
  -9.700  0.5746E+00  0.1293E+00
  -9.690  0.5518E+00  0.1348E+00
  -9.680  0.5280E+00  0.1401E+00
  -9.670  0.5041E+00  0.1451E+00
  -9.660  0.4812E+00  0.1499E+00
  -9.650  0.4602E+00  0.1545E+00
  -9.640  0.4421E+00  0.1589E+00
  -9.630  0.4274E+00  0.1632E+00
  -9.620  0.4167E+00  0.1674E+00
  -9.610  0.4104E+00  0.1715E+00
  -9.600  0.4087E+00  0.1756E+00
  -9.590  0.4115E+00  0.1797E+00
  -9.580  0.4186E+00  0.1839E+00
  -9.570  0.4298E+00  0.1882E+00
  -9.560  0.4446E+00  0.1926E+00
  -9.550  0.4623E+00  0.1972E+00
  -9.540  0.4824E+00  0.2021E+00
  -9.530  0.5042E+00  0.2071E+00
  -9.520  0.5272E+00  0.2124E+00
  -9.510  0.5507E+00  0.2179E+00
  -9.500  0.5743E+00  0.2236E+00
  -9.490  0.5976E+00  0.2296E+00
  -9.480  0.6205E+00  0.2358E+00
  -9.470  0.6427E+00  0.2422E+00
  -9.460  0.6643E+00  0.2489E+00
  -9.450  0.6853E+00  0.2557E+00
  -9.440  0.7060E+00  0.2628E+00
  -9.430  0.7266E+00  0.2701E+00
  -9.420  0.7471E+00  0.2775E+00
  -9.410  0.7679E+00  0.2852E+00
  -9.400  0.7888E+00  0.2931E+00
  -9.390  0.8099E+00  0.3012E+00
  -9.380  0.8311E+00  0.3095E+00
  -9.370  0.8518E+00  0.3180E+00
  -9.360  0.8718E+00  0.3267E+00
  -9.350  0.8905E+00  0.3356E+00
  -9.340  0.9071E+00  0.3447E+00
  -9.330  0.9210E+00  0.3539E+00
  -9.320  0.9315E+00  0.3632E+00
  -9.310  0.9380E+00  0.3726E+00
  -9.300  0.9399E+00  0.3820E+00
  -9.290  0.9367E+00  0.3914E+00
  -9.280  0.9282E+00  0.4007E+00
  -9.270  0.9144E+00  0.4098E+00
  -9.260  0.8955E+00  0.4188E+00
  -9.250  0.8717E+00  0.4275E+00
  -9.240  0.8436E+00  0.4359E+00
  -9.230  0.8120E+00  0.4440E+00
  -9.220  0.7777E+00  0.4518E+00
  -9.210  0.7416E+00  0.4592E+00
  -9.200  0.7047E+00  0.4663E+00
  -9.190  0.6680E+00  0.4730E+00
  -9.180  0.6323E+00  0.4793E+00
  -9.170  0.5985E+00  0.4853E+00
  -9.160  0.5674E+00  0.4909E+00
  -9.150  0.5395E+00  0.4963E+00
  -9.140  0.5153E+00  0.5015E+00
  -9.130  0.4951E+00  0.5064E+00
  -9.120  0.4792E+00  0.5112E+00
  -9.110  0.4675E+00  0.5159E+00
  -9.100  0.4603E+00  0.5205E+00
  -9.090  0.4573E+00  0.5251E+00
  -9.080  0.4585E+00  0.5297E+00
  -9.070  0.4638E+00  0.5343E+00
  -9.060  0.4730E+00  0.5390E+00
  -9.050  0.4860E+00  0.5439E+00
  -9.040  0.5026E+00  0.5489E+00
  -9.030  0.5228E+00  0.5542E+00
  -9.020  0.5462E+00  0.5596E+00
  -9.010  0.5728E+00  0.5653E+00
  -9.000  0.6023E+00  0.5714E+00
  -8.990  0.6343E+00  0.5777E+00
  -8.980  0.6687E+00  0.5844E+00
  -8.970  0.7047E+00  0.5914E+00
  -8.960  0.7420E+00  0.5989E+00
  -8.950  0.7799E+00  0.6067E+00
  -8.940  0.8175E+00  0.6148E+00
  -8.930  0.8542E+00  0.6234E+00
  -8.920  0.8891E+00  0.6323E+00
  -8.910  0.9212E+00  0.6415E+00
  -8.900  0.9497E+00  0.6510E+00
  -8.890  0.9738E+00  0.6607E+00
  -8.880  0.9928E+00  0.6706E+00
  -8.870  0.1006E+01  0.6807E+00
  -8.860  0.1013E+01  0.6908E+00
  -8.850  0.1014E+01  0.7010E+00
  -8.840  0.1009E+01  0.7111E+00
  -8.830  0.9974E+00  0.7210E+00
  -8.820  0.9806E+00  0.7308E+00
  -8.810  0.9591E+00  0.7404E+00
  -8.800  0.9339E+00  0.7498E+00
  -8.790  0.9060E+00  0.7588E+00
  -8.780  0.8768E+00  0.7676E+00
  -8.770  0.8476E+00  0.7761E+00
  -8.760  0.8197E+00  0.7843E+00
  -8.750  0.7945E+00  0.7922E+00
  -8.740  0.7731E+00  0.8000E+00
  -8.730  0.7566E+00  0.8075E+00
  -8.720  0.7458E+00  0.8150E+00
  -8.710  0.7412E+00  0.8224E+00
  -8.700  0.7433E+00  0.8298E+00
  -8.690  0.7519E+00  0.8373E+00
  -8.680  0.7669E+00  0.8450E+00
  -8.670  0.7876E+00  0.8529E+00
  -8.660  0.8132E+00  0.8610E+00
  -8.650  0.8428E+00  0.8695E+00
  -8.640  0.8752E+00  0.8782E+00
  -8.630  0.9091E+00  0.8873E+00
  -8.620  0.9432E+00  0.8967E+00
  -8.610  0.9762E+00  0.9065E+00
  -8.600  0.1007E+01  0.9166E+00
  -8.590  0.1034E+01  0.9269E+00
  -8.580  0.1057E+01  0.9375E+00
  -8.570  0.1074E+01  0.9482E+00
  -8.560  0.1086E+01  0.9591E+00
  -8.550  0.1093E+01  0.9700E+00
  -8.540  0.1093E+01  0.9809E+00
  -8.530  0.1088E+01  0.9918E+00
  -8.520  0.1077E+01  0.1003E+01
  -8.510  0.1062E+01  0.1013E+01
  -8.500  0.1044E+01  0.1024E+01
  -8.490  0.1022E+01  0.1034E+01
  -8.480  0.9984E+00  0.1044E+01
  -8.470  0.9739E+00  0.1054E+01
  -8.460  0.9494E+00  0.1063E+01
  -8.450  0.9258E+00  0.1072E+01
  -8.440  0.9040E+00  0.1081E+01
  -8.430  0.8846E+00  0.1090E+01
  -8.420  0.8682E+00  0.1099E+01
  -8.410  0.8553E+00  0.1107E+01
  -8.400  0.8463E+00  0.1116E+01
  -8.390  0.8413E+00  0.1124E+01
  -8.380  0.8405E+00  0.1133E+01
  -8.370  0.8440E+00  0.1141E+01
  -8.360  0.8515E+00  0.1150E+01
  -8.350  0.8630E+00  0.1158E+01
  -8.340  0.8782E+00  0.1167E+01
  -8.330  0.8968E+00  0.1176E+01
  -8.320  0.9184E+00  0.1185E+01
  -8.310  0.9426E+00  0.1195E+01
  -8.300  0.9688E+00  0.1204E+01
  -8.290  0.9965E+00  0.1214E+01
  -8.280  0.1025E+01  0.1225E+01
  -8.270  0.1054E+01  0.1235E+01
  -8.260  0.1083E+01  0.1246E+01
  -8.250  0.1110E+01  0.1257E+01
  -8.240  0.1136E+01  0.1268E+01
  -8.230  0.1159E+01  0.1280E+01
  -8.220  0.1180E+01  0.1292E+01
  -8.210  0.1197E+01  0.1304E+01
  -8.200  0.1210E+01  0.1316E+01
  -8.190  0.1219E+01  0.1328E+01
  -8.180  0.1224E+01  0.1340E+01
  -8.170  0.1225E+01  0.1353E+01
  -8.160  0.1222E+01  0.1365E+01
  -8.150  0.1215E+01  0.1377E+01
  -8.140  0.1205E+01  0.1389E+01
  -8.130  0.1192E+01  0.1401E+01
  -8.120  0.1177E+01  0.1413E+01
  -8.110  0.1159E+01  0.1424E+01
  -8.100  0.1141E+01  0.1436E+01
  -8.090  0.1122E+01  0.1447E+01
  -8.080  0.1102E+01  0.1458E+01
  -8.070  0.1083E+01  0.1469E+01
  -8.060  0.1064E+01  0.1479E+01
  -8.050  0.1045E+01  0.1490E+01
  -8.040  0.1028E+01  0.1500E+01
  -8.030  0.1011E+01  0.1510E+01
  -8.020  0.9950E+00  0.1520E+01
  -8.010  0.9798E+00  0.1530E+01
  -8.000  0.9654E+00  0.1540E+01
  -7.990  0.9516E+00  0.1549E+01
  -7.980  0.9383E+00  0.1558E+01
  -7.970  0.9256E+00  0.1568E+01
  -7.960  0.9132E+00  0.1577E+01
  -7.950  0.9012E+00  0.1586E+01
  -7.940  0.8896E+00  0.1595E+01
  -7.930  0.8784E+00  0.1604E+01
  -7.920  0.8676E+00  0.1612E+01
  -7.910  0.8574E+00  0.1621E+01
  -7.900  0.8476E+00  0.1629E+01
  -7.890  0.8385E+00  0.1638E+01
  -7.880  0.8301E+00  0.1646E+01
  -7.870  0.8225E+00  0.1654E+01
  -7.860  0.8158E+00  0.1662E+01
  -7.850  0.8100E+00  0.1670E+01
  -7.840  0.8053E+00  0.1679E+01
  -7.830  0.8016E+00  0.1687E+01
  -7.820  0.7990E+00  0.1695E+01
  -7.810  0.7975E+00  0.1703E+01
  -7.800  0.7970E+00  0.1710E+01
  -7.790  0.7974E+00  0.1718E+01
  -7.780  0.7985E+00  0.1726E+01
  -7.770  0.8001E+00  0.1734E+01
  -7.760  0.8019E+00  0.1742E+01
  -7.750  0.8034E+00  0.1750E+01
  -7.740  0.8043E+00  0.1759E+01
  -7.730  0.8042E+00  0.1767E+01
  -7.720  0.8025E+00  0.1775E+01
  -7.710  0.7990E+00  0.1783E+01
  -7.700  0.7932E+00  0.1791E+01
  -7.690  0.7849E+00  0.1798E+01
  -7.680  0.7738E+00  0.1806E+01
  -7.670  0.7599E+00  0.1814E+01
  -7.660  0.7433E+00  0.1821E+01
  -7.650  0.7240E+00  0.1828E+01
  -7.640  0.7024E+00  0.1835E+01
  -7.630  0.6788E+00  0.1842E+01
  -7.620  0.6536E+00  0.1849E+01
  -7.610  0.6275E+00  0.1855E+01
  -7.600  0.6008E+00  0.1861E+01
  -7.590  0.5742E+00  0.1867E+01
  -7.580  0.5480E+00  0.1872E+01
  -7.570  0.5228E+00  0.1877E+01
  -7.560  0.4990E+00  0.1882E+01
  -7.550  0.4768E+00  0.1887E+01
  -7.540  0.4566E+00  0.1892E+01
  -7.530  0.4386E+00  0.1896E+01
  -7.520  0.4228E+00  0.1900E+01
  -7.510  0.4095E+00  0.1904E+01
  -7.500  0.3987E+00  0.1908E+01
  -7.490  0.3905E+00  0.1912E+01
  -7.480  0.3851E+00  0.1916E+01
  -7.470  0.3825E+00  0.1920E+01
  -7.460  0.3829E+00  0.1924E+01
  -7.450  0.3864E+00  0.1928E+01
  -7.440  0.3931E+00  0.1932E+01
  -7.430  0.4031E+00  0.1936E+01
  -7.420  0.4165E+00  0.1940E+01
  -7.410  0.4333E+00  0.1944E+01
  -7.400  0.4534E+00  0.1949E+01
  -7.390  0.4767E+00  0.1954E+01
  -7.380  0.5029E+00  0.1959E+01
  -7.370  0.5317E+00  0.1964E+01
  -7.360  0.5626E+00  0.1969E+01
  -7.350  0.5952E+00  0.1975E+01
  -7.340  0.6290E+00  0.1982E+01
  -7.330  0.6633E+00  0.1988E+01
  -7.320  0.6977E+00  0.1995E+01
  -7.310  0.7317E+00  0.2003E+01
  -7.300  0.7647E+00  0.2010E+01
  -7.290  0.7966E+00  0.2018E+01
  -7.280  0.8270E+00  0.2027E+01
  -7.270  0.8558E+00  0.2035E+01
  -7.260  0.8831E+00  0.2044E+01
  -7.250  0.9089E+00  0.2053E+01
  -7.240  0.9334E+00  0.2062E+01
  -7.230  0.9569E+00  0.2072E+01
  -7.220  0.9795E+00  0.2082E+01
  -7.210  0.1002E+01  0.2092E+01
  -7.200  0.1023E+01  0.2102E+01
  -7.190  0.1045E+01  0.2112E+01
  -7.180  0.1066E+01  0.2123E+01
  -7.170  0.1086E+01  0.2134E+01
  -7.160  0.1106E+01  0.2145E+01
  -7.150  0.1125E+01  0.2156E+01
  -7.140  0.1142E+01  0.2168E+01
  -7.130  0.1158E+01  0.2179E+01
  -7.120  0.1171E+01  0.2191E+01
  -7.110  0.1181E+01  0.2203E+01
  -7.100  0.1187E+01  0.2215E+01
  -7.090  0.1190E+01  0.2227E+01
  -7.080  0.1188E+01  0.2238E+01
  -7.070  0.1182E+01  0.2250E+01
  -7.060  0.1172E+01  0.2262E+01
  -7.050  0.1158E+01  0.2274E+01
  -7.040  0.1140E+01  0.2285E+01
  -7.030  0.1117E+01  0.2296E+01
  -7.020  0.1092E+01  0.2307E+01
  -7.010  0.1064E+01  0.2318E+01
  -7.000  0.1034E+01  0.2328E+01
  -6.990  0.1001E+01  0.2338E+01
  -6.980  0.9677E+00  0.2348E+01
  -6.970  0.9330E+00  0.2357E+01
  -6.960  0.8976E+00  0.2366E+01
  -6.950  0.8615E+00  0.2375E+01
  -6.940  0.8251E+00  0.2383E+01
  -6.930  0.7882E+00  0.2391E+01
  -6.920  0.7510E+00  0.2398E+01
  -6.910  0.7133E+00  0.2405E+01
  -6.900  0.6752E+00  0.2412E+01
  -6.890  0.6366E+00  0.2418E+01
  -6.880  0.5976E+00  0.2424E+01
  -6.870  0.5582E+00  0.2430E+01
  -6.860  0.5186E+00  0.2435E+01
  -6.850  0.4788E+00  0.2440E+01
  -6.840  0.4393E+00  0.2444E+01
  -6.830  0.4002E+00  0.2448E+01
  -6.820  0.3620E+00  0.2452E+01
  -6.810  0.3249E+00  0.2455E+01
  -6.800  0.2892E+00  0.2458E+01
  -6.790  0.2555E+00  0.2461E+01
  -6.780  0.2238E+00  0.2463E+01
  -6.770  0.1945E+00  0.2465E+01
  -6.760  0.1679E+00  0.2467E+01
  -6.750  0.1440E+00  0.2468E+01
  -6.740  0.1230E+00  0.2469E+01
  -6.730  0.1050E+00  0.2470E+01
  -6.720  0.8995E-01  0.2471E+01
  -6.710  0.7791E-01  0.2472E+01
  -6.700  0.6887E-01  0.2473E+01
  -6.690  0.6283E-01  0.2473E+01
  -6.680  0.5980E-01  0.2474E+01
  -6.670  0.5978E-01  0.2475E+01
  -6.660  0.6281E-01  0.2475E+01
  -6.650  0.6895E-01  0.2476E+01
  -6.640  0.7826E-01  0.2477E+01
  -6.630  0.9081E-01  0.2478E+01
  -6.620  0.1067E+00  0.2479E+01
  -6.610  0.1259E+00  0.2480E+01
  -6.600  0.1486E+00  0.2481E+01
  -6.590  0.1747E+00  0.2483E+01
  -6.580  0.2041E+00  0.2485E+01
  -6.570  0.2366E+00  0.2487E+01
  -6.560  0.2722E+00  0.2490E+01
  -6.550  0.3104E+00  0.2493E+01
  -6.540  0.3509E+00  0.2497E+01
  -6.530  0.3932E+00  0.2501E+01
  -6.520  0.4367E+00  0.2505E+01
  -6.510  0.4809E+00  0.2510E+01
  -6.500  0.5251E+00  0.2515E+01
  -6.490  0.5688E+00  0.2521E+01
  -6.480  0.6112E+00  0.2527E+01
  -6.470  0.6518E+00  0.2533E+01
  -6.460  0.6901E+00  0.2540E+01
  -6.450  0.7257E+00  0.2548E+01
  -6.440  0.7581E+00  0.2555E+01
  -6.430  0.7872E+00  0.2563E+01
  -6.420  0.8128E+00  0.2571E+01
  -6.410  0.8350E+00  0.2580E+01
  -6.400  0.8537E+00  0.2588E+01
  -6.390  0.8692E+00  0.2597E+01
  -6.380  0.8817E+00  0.2606E+01
  -6.370  0.8914E+00  0.2615E+01
  -6.360  0.8986E+00  0.2624E+01
  -6.350  0.9037E+00  0.2633E+01
  -6.340  0.9068E+00  0.2642E+01
  -6.330  0.9083E+00  0.2651E+01
  -6.320  0.9085E+00  0.2660E+01
  -6.310  0.9075E+00  0.2669E+01
  -6.300  0.9057E+00  0.2678E+01
  -6.290  0.9032E+00  0.2687E+01
  -6.280  0.9003E+00  0.2696E+01
  -6.270  0.8970E+00  0.2705E+01
  -6.260  0.8938E+00  0.2714E+01
  -6.250  0.8906E+00  0.2723E+01
  -6.240  0.8877E+00  0.2732E+01
  -6.230  0.8852E+00  0.2741E+01
  -6.220  0.8831E+00  0.2749E+01
  -6.210  0.8816E+00  0.2758E+01
  -6.200  0.8806E+00  0.2767E+01
  -6.190  0.8799E+00  0.2776E+01
  -6.180  0.8794E+00  0.2785E+01
  -6.170  0.8788E+00  0.2793E+01
  -6.160  0.8778E+00  0.2802E+01
  -6.150  0.8759E+00  0.2811E+01
  -6.140  0.8726E+00  0.2820E+01
  -6.130  0.8675E+00  0.2828E+01
  -6.120  0.8600E+00  0.2837E+01
  -6.110  0.8498E+00  0.2845E+01
  -6.100  0.8364E+00  0.2854E+01
  -6.090  0.8195E+00  0.2862E+01
  -6.080  0.7992E+00  0.2870E+01
  -6.070  0.7752E+00  0.2878E+01
  -6.060  0.7479E+00  0.2885E+01
  -6.050  0.7175E+00  0.2892E+01
  -6.040  0.6846E+00  0.2899E+01
  -6.030  0.6497E+00  0.2906E+01
  -6.020  0.6136E+00  0.2912E+01
  -6.010  0.5772E+00  0.2918E+01
  -6.000  0.5414E+00  0.2923E+01
  -5.990  0.5071E+00  0.2928E+01
  -5.980  0.4751E+00  0.2933E+01
  -5.970  0.4463E+00  0.2937E+01
  -5.960  0.4215E+00  0.2942E+01
  -5.950  0.4011E+00  0.2946E+01
  -5.940  0.3858E+00  0.2949E+01
  -5.930  0.3757E+00  0.2953E+01
  -5.920  0.3710E+00  0.2957E+01
  -5.910  0.3715E+00  0.2961E+01
  -5.900  0.3771E+00  0.2964E+01
  -5.890  0.3873E+00  0.2968E+01
  -5.880  0.4015E+00  0.2972E+01
  -5.870  0.4190E+00  0.2976E+01
  -5.860  0.4391E+00  0.2981E+01
  -5.850  0.4609E+00  0.2985E+01
  -5.840  0.4836E+00  0.2990E+01
  -5.830  0.5062E+00  0.2995E+01
  -5.820  0.5281E+00  0.3001E+01
  -5.810  0.5484E+00  0.3006E+01
  -5.800  0.5666E+00  0.3012E+01
  -5.790  0.5820E+00  0.3018E+01
  -5.780  0.5945E+00  0.3024E+01
  -5.770  0.6036E+00  0.3030E+01
  -5.760  0.6094E+00  0.3036E+01
  -5.750  0.6118E+00  0.3042E+01
  -5.740  0.6110E+00  0.3048E+01
  -5.730  0.6072E+00  0.3054E+01
  -5.720  0.6007E+00  0.3060E+01
  -5.710  0.5918E+00  0.3066E+01
  -5.700  0.5809E+00  0.3072E+01
  -5.690  0.5684E+00  0.3077E+01
  -5.680  0.5546E+00  0.3083E+01
  -5.670  0.5399E+00  0.3088E+01
  -5.660  0.5244E+00  0.3094E+01
  -5.650  0.5085E+00  0.3099E+01
  -5.640  0.4924E+00  0.3104E+01
  -5.630  0.4760E+00  0.3108E+01
  -5.620  0.4596E+00  0.3113E+01
  -5.610  0.4431E+00  0.3117E+01
  -5.600  0.4267E+00  0.3122E+01
  -5.590  0.4103E+00  0.3126E+01
  -5.580  0.3941E+00  0.3130E+01
  -5.570  0.3781E+00  0.3133E+01
  -5.560  0.3625E+00  0.3137E+01
  -5.550  0.3473E+00  0.3141E+01
  -5.540  0.3330E+00  0.3144E+01
  -5.530  0.3196E+00  0.3147E+01
  -5.520  0.3076E+00  0.3150E+01
  -5.510  0.2972E+00  0.3153E+01
  -5.500  0.2888E+00  0.3156E+01
  -5.490  0.2827E+00  0.3159E+01
  -5.480  0.2792E+00  0.3162E+01
  -5.470  0.2786E+00  0.3164E+01
  -5.460  0.2810E+00  0.3167E+01
  -5.450  0.2865E+00  0.3170E+01
  -5.440  0.2950E+00  0.3173E+01
  -5.430  0.3066E+00  0.3176E+01
  -5.420  0.3208E+00  0.3179E+01
  -5.410  0.3373E+00  0.3183E+01
  -5.400  0.3558E+00  0.3186E+01
  -5.390  0.3757E+00  0.3190E+01
  -5.380  0.3964E+00  0.3194E+01
  -5.370  0.4174E+00  0.3198E+01
  -5.360  0.4382E+00  0.3202E+01
  -5.350  0.4582E+00  0.3207E+01
  -5.340  0.4771E+00  0.3212E+01
  -5.330  0.4946E+00  0.3217E+01
  -5.320  0.5106E+00  0.3222E+01
  -5.310  0.5251E+00  0.3227E+01
  -5.300  0.5381E+00  0.3233E+01
  -5.290  0.5499E+00  0.3238E+01
  -5.280  0.5609E+00  0.3244E+01
  -5.270  0.5716E+00  0.3249E+01
  -5.260  0.5823E+00  0.3255E+01
  -5.250  0.5936E+00  0.3261E+01
  -5.240  0.6058E+00  0.3267E+01
  -5.230  0.6194E+00  0.3273E+01
  -5.220  0.6344E+00  0.3280E+01
  -5.210  0.6509E+00  0.3286E+01
  -5.200  0.6689E+00  0.3293E+01
  -5.190  0.6882E+00  0.3300E+01
  -5.180  0.7083E+00  0.3307E+01
  -5.170  0.7288E+00  0.3314E+01
  -5.160  0.7491E+00  0.3322E+01
  -5.150  0.7686E+00  0.3329E+01
  -5.140  0.7869E+00  0.3337E+01
  -5.130  0.8032E+00  0.3345E+01
  -5.120  0.8172E+00  0.3353E+01
  -5.110  0.8285E+00  0.3362E+01
  -5.100  0.8369E+00  0.3370E+01
  -5.090  0.8422E+00  0.3378E+01
  -5.080  0.8445E+00  0.3387E+01
  -5.070  0.8438E+00  0.3395E+01
  -5.060  0.8405E+00  0.3404E+01
  -5.050  0.8347E+00  0.3412E+01
  -5.040  0.8266E+00  0.3420E+01
  -5.030  0.8166E+00  0.3429E+01
  -5.020  0.8048E+00  0.3437E+01
  -5.010  0.7914E+00  0.3445E+01
  -5.000  0.7765E+00  0.3452E+01
  -4.990  0.7601E+00  0.3460E+01
  -4.980  0.7422E+00  0.3467E+01
  -4.970  0.7229E+00  0.3475E+01
  -4.960  0.7020E+00  0.3482E+01
  -4.950  0.6796E+00  0.3488E+01
  -4.940  0.6556E+00  0.3495E+01
  -4.930  0.6303E+00  0.3501E+01
  -4.920  0.6037E+00  0.3507E+01
  -4.910  0.5763E+00  0.3513E+01
  -4.900  0.5483E+00  0.3518E+01
  -4.890  0.5203E+00  0.3524E+01
  -4.880  0.4929E+00  0.3529E+01
  -4.870  0.4665E+00  0.3533E+01
  -4.860  0.4420E+00  0.3538E+01
  -4.850  0.4199E+00  0.3542E+01
  -4.840  0.4007E+00  0.3546E+01
  -4.830  0.3849E+00  0.3550E+01
  -4.820  0.3729E+00  0.3553E+01
  -4.810  0.3649E+00  0.3557E+01
  -4.800  0.3610E+00  0.3561E+01
  -4.790  0.3609E+00  0.3564E+01
  -4.780  0.3646E+00  0.3568E+01
  -4.770  0.3714E+00  0.3572E+01
  -4.760  0.3808E+00  0.3576E+01
  -4.750  0.3921E+00  0.3579E+01
  -4.740  0.4045E+00  0.3583E+01
  -4.730  0.4171E+00  0.3588E+01
  -4.720  0.4292E+00  0.3592E+01
  -4.710  0.4397E+00  0.3596E+01
  -4.700  0.4480E+00  0.3601E+01
  -4.690  0.4535E+00  0.3605E+01
  -4.680  0.4556E+00  0.3610E+01
  -4.670  0.4539E+00  0.3614E+01
  -4.660  0.4483E+00  0.3619E+01
  -4.650  0.4387E+00  0.3623E+01
  -4.640  0.4253E+00  0.3628E+01
  -4.630  0.4085E+00  0.3632E+01
  -4.620  0.3888E+00  0.3636E+01
  -4.610  0.3665E+00  0.3639E+01
  -4.600  0.3426E+00  0.3643E+01
  -4.590  0.3176E+00  0.3646E+01
  -4.580  0.2922E+00  0.3649E+01
  -4.570  0.2673E+00  0.3651E+01
  -4.560  0.2434E+00  0.3654E+01
  -4.550  0.2212E+00  0.3656E+01
  -4.540  0.2011E+00  0.3658E+01
  -4.530  0.1836E+00  0.3660E+01
  -4.520  0.1691E+00  0.3662E+01
  -4.510  0.1576E+00  0.3663E+01
  -4.500  0.1494E+00  0.3665E+01
  -4.490  0.1443E+00  0.3666E+01
  -4.480  0.1422E+00  0.3668E+01
  -4.470  0.1430E+00  0.3669E+01
  -4.460  0.1463E+00  0.3670E+01
  -4.450  0.1518E+00  0.3672E+01
  -4.440  0.1590E+00  0.3674E+01
  -4.430  0.1675E+00  0.3675E+01
  -4.420  0.1768E+00  0.3677E+01
  -4.410  0.1864E+00  0.3679E+01
  -4.400  0.1959E+00  0.3681E+01
  -4.390  0.2048E+00  0.3683E+01
  -4.380  0.2126E+00  0.3685E+01
  -4.370  0.2192E+00  0.3687E+01
  -4.360  0.2242E+00  0.3689E+01
  -4.350  0.2274E+00  0.3692E+01
  -4.340  0.2289E+00  0.3694E+01
  -4.330  0.2286E+00  0.3696E+01
  -4.320  0.2268E+00  0.3699E+01
  -4.310  0.2237E+00  0.3701E+01
  -4.300  0.2196E+00  0.3703E+01
  -4.290  0.2149E+00  0.3705E+01
  -4.280  0.2103E+00  0.3707E+01
  -4.270  0.2061E+00  0.3709E+01
  -4.260  0.2031E+00  0.3711E+01
  -4.250  0.2018E+00  0.3713E+01
  -4.240  0.2029E+00  0.3715E+01
  -4.230  0.2068E+00  0.3717E+01
  -4.220  0.2142E+00  0.3720E+01
  -4.210  0.2256E+00  0.3722E+01
  -4.200  0.2414E+00  0.3724E+01
  -4.190  0.2620E+00  0.3727E+01
  -4.180  0.2878E+00  0.3730E+01
  -4.170  0.3188E+00  0.3733E+01
  -4.160  0.3552E+00  0.3736E+01
  -4.150  0.3970E+00  0.3740E+01
  -4.140  0.4440E+00  0.3745E+01
  -4.130  0.4959E+00  0.3750E+01
  -4.120  0.5522E+00  0.3755E+01
  -4.110  0.6124E+00  0.3761E+01
  -4.100  0.6757E+00  0.3768E+01
  -4.090  0.7410E+00  0.3776E+01
  -4.080  0.8074E+00  0.3784E+01
  -4.070  0.8735E+00  0.3792E+01
  -4.060  0.9379E+00  0.3802E+01
  -4.050  0.9993E+00  0.3812E+01
  -4.040  0.1056E+01  0.3822E+01
  -4.030  0.1107E+01  0.3833E+01
  -4.020  0.1150E+01  0.3845E+01
  -4.010  0.1185E+01  0.3857E+01
  -4.000  0.1209E+01  0.3869E+01
  -3.990  0.1223E+01  0.3881E+01
  -3.980  0.1226E+01  0.3893E+01
  -3.970  0.1217E+01  0.3906E+01
  -3.960  0.1197E+01  0.3918E+01
  -3.950  0.1165E+01  0.3929E+01
  -3.940  0.1124E+01  0.3940E+01
  -3.930  0.1073E+01  0.3951E+01
  -3.920  0.1015E+01  0.3961E+01
  -3.910  0.9495E+00  0.3971E+01
  -3.900  0.8798E+00  0.3980E+01
  -3.890  0.8069E+00  0.3988E+01
  -3.880  0.7325E+00  0.3995E+01
  -3.870  0.6581E+00  0.4002E+01
  -3.860  0.5852E+00  0.4007E+01
  -3.850  0.5150E+00  0.4013E+01
  -3.840  0.4485E+00  0.4017E+01
  -3.830  0.3865E+00  0.4021E+01
  -3.820  0.3296E+00  0.4024E+01
  -3.810  0.2781E+00  0.4027E+01
  -3.800  0.2322E+00  0.4029E+01
  -3.790  0.1918E+00  0.4031E+01
  -3.780  0.1568E+00  0.4033E+01
  -3.770  0.1268E+00  0.4034E+01
  -3.760  0.1015E+00  0.4035E+01
  -3.750  0.8035E-01  0.4036E+01
  -3.740  0.6295E-01  0.4037E+01
  -3.730  0.4880E-01  0.4037E+01
  -3.720  0.3743E-01  0.4037E+01
  -3.710  0.2842E-01  0.4038E+01
  -3.700  0.2137E-01  0.4038E+01
  -3.690  0.1593E-01  0.4038E+01
  -3.680  0.1179E-01  0.4038E+01
  -3.670  0.8706E-02  0.4038E+01
  -3.660  0.6456E-02  0.4038E+01
  -3.650  0.4875E-02  0.4038E+01
  -3.640  0.3834E-02  0.4038E+01
  -3.630  0.3237E-02  0.4038E+01
  -3.620  0.3023E-02  0.4038E+01
  -3.610  0.3153E-02  0.4038E+01
  -3.600  0.3618E-02  0.4039E+01
  -3.590  0.4427E-02  0.4039E+01
  -3.580  0.5610E-02  0.4039E+01
  -3.570  0.7215E-02  0.4039E+01
  -3.560  0.9302E-02  0.4039E+01
  -3.550  0.1194E-01  0.4039E+01
  -3.540  0.1522E-01  0.4039E+01
  -3.530  0.1923E-01  0.4039E+01
  -3.520  0.2405E-01  0.4039E+01
  -3.510  0.2976E-01  0.4040E+01
  -3.500  0.3645E-01  0.4040E+01
  -3.490  0.4416E-01  0.4041E+01
  -3.480  0.5293E-01  0.4041E+01
  -3.470  0.6275E-01  0.4042E+01
  -3.460  0.7361E-01  0.4042E+01
  -3.450  0.8542E-01  0.4043E+01
  -3.440  0.9806E-01  0.4044E+01
  -3.430  0.1114E+00  0.4045E+01
  -3.420  0.1251E+00  0.4047E+01
  -3.410  0.1390E+00  0.4048E+01
  -3.400  0.1528E+00  0.4050E+01
  -3.390  0.1662E+00  0.4051E+01
  -3.380  0.1788E+00  0.4053E+01
  -3.370  0.1903E+00  0.4055E+01
  -3.360  0.2004E+00  0.4057E+01
  -3.350  0.2088E+00  0.4059E+01
  -3.340  0.2151E+00  0.4061E+01
  -3.330  0.2193E+00  0.4063E+01
  -3.320  0.2211E+00  0.4066E+01
  -3.310  0.2206E+00  0.4068E+01
  -3.300  0.2177E+00  0.4070E+01
  -3.290  0.2125E+00  0.4072E+01
  -3.280  0.2053E+00  0.4074E+01
  -3.270  0.1962E+00  0.4076E+01
  -3.260  0.1856E+00  0.4078E+01
  -3.250  0.1737E+00  0.4080E+01
  -3.240  0.1610E+00  0.4081E+01
  -3.230  0.1477E+00  0.4083E+01
  -3.220  0.1343E+00  0.4084E+01
  -3.210  0.1211E+00  0.4085E+01
  -3.200  0.1085E+00  0.4086E+01
  -3.190  0.9671E-01  0.4087E+01
  -3.180  0.8608E-01  0.4088E+01
  -3.170  0.7685E-01  0.4089E+01
  -3.160  0.6924E-01  0.4090E+01
  -3.150  0.6344E-01  0.4090E+01
  -3.140  0.5963E-01  0.4091E+01
  -3.130  0.5796E-01  0.4092E+01
  -3.120  0.5856E-01  0.4092E+01
  -3.110  0.6156E-01  0.4093E+01
  -3.100  0.6705E-01  0.4093E+01
  -3.090  0.7511E-01  0.4094E+01
  -3.080  0.8580E-01  0.4095E+01
  -3.070  0.9914E-01  0.4096E+01
  -3.060  0.1151E+00  0.4097E+01
  -3.050  0.1336E+00  0.4099E+01
  -3.040  0.1544E+00  0.4100E+01
  -3.030  0.1774E+00  0.4102E+01
  -3.020  0.2022E+00  0.4104E+01
  -3.010  0.2285E+00  0.4106E+01
  -3.000  0.2557E+00  0.4109E+01
  -2.990  0.2832E+00  0.4112E+01
  -2.980  0.3106E+00  0.4115E+01
  -2.970  0.3370E+00  0.4118E+01
  -2.960  0.3618E+00  0.4122E+01
  -2.950  0.3843E+00  0.4125E+01
  -2.940  0.4039E+00  0.4129E+01
  -2.930  0.4199E+00  0.4134E+01
  -2.920  0.4319E+00  0.4138E+01
  -2.910  0.4394E+00  0.4142E+01
  -2.900  0.4423E+00  0.4147E+01
  -2.890  0.4404E+00  0.4151E+01
  -2.880  0.4338E+00  0.4156E+01
  -2.870  0.4228E+00  0.4160E+01
  -2.860  0.4076E+00  0.4164E+01
  -2.850  0.3887E+00  0.4168E+01
  -2.840  0.3667E+00  0.4171E+01
  -2.830  0.3422E+00  0.4175E+01
  -2.820  0.3159E+00  0.4178E+01
  -2.810  0.2886E+00  0.4181E+01
  -2.800  0.2607E+00  0.4184E+01
  -2.790  0.2330E+00  0.4186E+01
  -2.780  0.2060E+00  0.4188E+01
  -2.770  0.1802E+00  0.4190E+01
  -2.760  0.1559E+00  0.4191E+01
  -2.750  0.1335E+00  0.4193E+01
  -2.740  0.1130E+00  0.4194E+01
  -2.730  0.9468E-01  0.4195E+01
  -2.720  0.7846E-01  0.4195E+01
  -2.710  0.6432E-01  0.4196E+01
  -2.700  0.5217E-01  0.4197E+01
  -2.690  0.4185E-01  0.4197E+01
  -2.680  0.3321E-01  0.4197E+01
  -2.670  0.2608E-01  0.4198E+01
  -2.660  0.2025E-01  0.4198E+01
  -2.650  0.1556E-01  0.4198E+01
  -2.640  0.1183E-01  0.4198E+01
  -2.630  0.8893E-02  0.4198E+01
  -2.620  0.6615E-02  0.4198E+01
  -2.610  0.4868E-02  0.4198E+01
  -2.600  0.3543E-02  0.4198E+01
  -2.590  0.2551E-02  0.4198E+01
  -2.580  0.1818E-02  0.4198E+01
  -2.570  0.1281E-02  0.4198E+01
  -2.560  0.8929E-03  0.4198E+01
  -2.550  0.6158E-03  0.4198E+01
  -2.540  0.4201E-03  0.4198E+01
  -2.530  0.2835E-03  0.4198E+01
  -2.520  0.1893E-03  0.4198E+01
  -2.510  0.1250E-03  0.4198E+01
  -2.500  0.8169E-04  0.4198E+01
  -2.490  0.5280E-04  0.4198E+01
  -2.480  0.3376E-04  0.4198E+01
  -2.470  0.2136E-04  0.4198E+01
  -2.460  0.1336E-04  0.4198E+01
  -2.450  0.8272E-05  0.4198E+01
  -2.440  0.5066E-05  0.4198E+01
  -2.430  0.3069E-05  0.4198E+01
  -2.420  0.1839E-05  0.4198E+01
  -2.410  0.1091E-05  0.4198E+01
  -2.400  0.6407E-06  0.4198E+01
  -2.390  0.3734E-06  0.4198E+01
  -2.380  0.2175E-06  0.4198E+01
  -2.370  0.1293E-06  0.4198E+01
  -2.360  0.8313E-07  0.4198E+01
  -2.350  0.6505E-07  0.4198E+01
  -2.340  0.6923E-07  0.4198E+01
  -2.330  0.9638E-07  0.4198E+01
  -2.320  0.1538E-06  0.4198E+01
  -2.310  0.2570E-06  0.4198E+01
  -2.300  0.4330E-06  0.4198E+01
  -2.290  0.7258E-06  0.4198E+01
  -2.280  0.1206E-05  0.4198E+01
  -2.270  0.1983E-05  0.4198E+01
  -2.260  0.3227E-05  0.4198E+01
  -2.250  0.5194E-05  0.4198E+01
  -2.240  0.8272E-05  0.4198E+01
  -2.230  0.1303E-04  0.4198E+01
  -2.220  0.2031E-04  0.4198E+01
  -2.210  0.3131E-04  0.4198E+01
  -2.200  0.4775E-04  0.4198E+01
  -2.190  0.7205E-04  0.4198E+01
  -2.180  0.1075E-03  0.4198E+01
  -2.170  0.1588E-03  0.4198E+01
  -2.160  0.2319E-03  0.4198E+01
  -2.150  0.3351E-03  0.4198E+01
  -2.140  0.4790E-03  0.4198E+01
  -2.130  0.6773E-03  0.4198E+01
  -2.120  0.9474E-03  0.4198E+01
  -2.110  0.1311E-02  0.4198E+01
  -2.100  0.1795E-02  0.4198E+01
  -2.090  0.2431E-02  0.4199E+01
  -2.080  0.3256E-02  0.4199E+01
  -2.070  0.4315E-02  0.4199E+01
  -2.060  0.5658E-02  0.4199E+01
  -2.050  0.7338E-02  0.4199E+01
  -2.040  0.9415E-02  0.4199E+01
  -2.030  0.1195E-01  0.4199E+01
  -2.020  0.1500E-01  0.4199E+01
  -2.010  0.1864E-01  0.4199E+01
  -2.000  0.2290E-01  0.4199E+01
  -1.990  0.2784E-01  0.4200E+01
  -1.980  0.3347E-01  0.4200E+01
  -1.970  0.3982E-01  0.4201E+01
  -1.960  0.4686E-01  0.4201E+01
  -1.950  0.5455E-01  0.4202E+01
  -1.940  0.6282E-01  0.4202E+01
  -1.930  0.7157E-01  0.4203E+01
  -1.920  0.8066E-01  0.4204E+01
  -1.910  0.8992E-01  0.4205E+01
  -1.900  0.9918E-01  0.4206E+01
  -1.890  0.1082E+00  0.4207E+01
  -1.880  0.1168E+00  0.4208E+01
  -1.870  0.1247E+00  0.4209E+01
  -1.860  0.1317E+00  0.4210E+01
  -1.850  0.1376E+00  0.4212E+01
  -1.840  0.1423E+00  0.4213E+01
  -1.830  0.1455E+00  0.4215E+01
  -1.820  0.1472E+00  0.4216E+01
  -1.810  0.1473E+00  0.4218E+01
  -1.800  0.1458E+00  0.4219E+01
  -1.790  0.1428E+00  0.4220E+01
  -1.780  0.1383E+00  0.4222E+01
  -1.770  0.1326E+00  0.4223E+01
  -1.760  0.1257E+00  0.4224E+01
  -1.750  0.1179E+00  0.4226E+01
  -1.740  0.1094E+00  0.4227E+01
  -1.730  0.1004E+00  0.4228E+01
  -1.720  0.9117E-01  0.4229E+01
  -1.710  0.8189E-01  0.4229E+01
  -1.700  0.7277E-01  0.4230E+01
  -1.690  0.6397E-01  0.4231E+01
  -1.680  0.5563E-01  0.4231E+01
  -1.670  0.4785E-01  0.4232E+01
  -1.660  0.4072E-01  0.4232E+01
  -1.650  0.3428E-01  0.4233E+01
  -1.640  0.2855E-01  0.4233E+01
  -1.630  0.2352E-01  0.4233E+01
  -1.620  0.1917E-01  0.4233E+01
  -1.610  0.1546E-01  0.4233E+01
  -1.600  0.1233E-01  0.4234E+01
  -1.590  0.9727E-02  0.4234E+01
  -1.580  0.7592E-02  0.4234E+01
  -1.570  0.5863E-02  0.4234E+01
  -1.560  0.4478E-02  0.4234E+01
  -1.550  0.3384E-02  0.4234E+01
  -1.540  0.2530E-02  0.4234E+01
  -1.530  0.1871E-02  0.4234E+01
  -1.520  0.1368E-02  0.4234E+01
  -1.510  0.9903E-03  0.4234E+01
  -1.500  0.7090E-03  0.4234E+01
  -1.490  0.5021E-03  0.4234E+01
  -1.480  0.3518E-03  0.4234E+01
  -1.470  0.2438E-03  0.4234E+01
  -1.460  0.1672E-03  0.4234E+01
  -1.450  0.1134E-03  0.4234E+01
  -1.440  0.7608E-04  0.4234E+01
  -1.430  0.5050E-04  0.4234E+01
  -1.420  0.3316E-04  0.4234E+01
  -1.410  0.2154E-04  0.4234E+01
  -1.400  0.1384E-04  0.4234E+01
  -1.390  0.8798E-05  0.4234E+01
  -1.380  0.5534E-05  0.4234E+01
  -1.370  0.3443E-05  0.4234E+01
  -1.360  0.2121E-05  0.4234E+01
  -1.350  0.1295E-05  0.4234E+01
  -1.340  0.7868E-06  0.4234E+01
  -1.330  0.4814E-06  0.4234E+01
  -1.320  0.3067E-06  0.4234E+01
  -1.310  0.2203E-06  0.4234E+01
  -1.300  0.2010E-06  0.4234E+01
  -1.290  0.2452E-06  0.4234E+01
  -1.280  0.3662E-06  0.4234E+01
  -1.270  0.5979E-06  0.4234E+01
  -1.260  0.1002E-05  0.4234E+01
  -1.250  0.1684E-05  0.4234E+01
  -1.240  0.2809E-05  0.4234E+01
  -1.230  0.4643E-05  0.4234E+01
  -1.220  0.7595E-05  0.4234E+01
  -1.210  0.1229E-04  0.4234E+01
  -1.200  0.1968E-04  0.4234E+01
  -1.190  0.3117E-04  0.4234E+01
  -1.180  0.4885E-04  0.4234E+01
  -1.170  0.7571E-04  0.4234E+01
  -1.160  0.1161E-03  0.4234E+01
  -1.150  0.1761E-03  0.4234E+01
  -1.140  0.2643E-03  0.4234E+01
  -1.130  0.3923E-03  0.4234E+01
  -1.120  0.5762E-03  0.4234E+01
  -1.110  0.8371E-03  0.4234E+01
  -1.100  0.1203E-02  0.4234E+01
  -1.090  0.1710E-02  0.4234E+01
  -1.080  0.2406E-02  0.4234E+01
  -1.070  0.3347E-02  0.4234E+01
  -1.060  0.4607E-02  0.4234E+01
  -1.050  0.6272E-02  0.4234E+01
  -1.040  0.8449E-02  0.4234E+01
  -1.030  0.1126E-01  0.4234E+01
  -1.020  0.1484E-01  0.4235E+01
  -1.010  0.1935E-01  0.4235E+01
  -1.000  0.2496E-01  0.4235E+01
  -0.990  0.3186E-01  0.4235E+01
  -0.980  0.4022E-01  0.4236E+01
  -0.970  0.5022E-01  0.4236E+01
  -0.960  0.6205E-01  0.4237E+01
  -0.950  0.7584E-01  0.4238E+01
  -0.940  0.9169E-01  0.4239E+01
  -0.930  0.1097E+00  0.4240E+01
  -0.920  0.1298E+00  0.4241E+01
  -0.910  0.1519E+00  0.4242E+01
  -0.900  0.1759E+00  0.4244E+01
  -0.890  0.2015E+00  0.4246E+01
  -0.880  0.2284E+00  0.4248E+01
  -0.870  0.2561E+00  0.4251E+01
  -0.860  0.2841E+00  0.4254E+01
  -0.850  0.3118E+00  0.4257E+01
  -0.840  0.3385E+00  0.4260E+01
  -0.830  0.3637E+00  0.4264E+01
  -0.820  0.3866E+00  0.4268E+01
  -0.810  0.4067E+00  0.4272E+01
  -0.800  0.4234E+00  0.4276E+01
  -0.790  0.4363E+00  0.4281E+01
  -0.780  0.4450E+00  0.4285E+01
  -0.770  0.4495E+00  0.4289E+01
  -0.760  0.4496E+00  0.4294E+01
  -0.750  0.4456E+00  0.4298E+01
  -0.740  0.4377E+00  0.4303E+01
  -0.730  0.4264E+00  0.4307E+01
  -0.720  0.4122E+00  0.4311E+01
  -0.710  0.3959E+00  0.4315E+01
  -0.700  0.3781E+00  0.4319E+01
  -0.690  0.3596E+00  0.4323E+01
  -0.680  0.3410E+00  0.4326E+01
  -0.670  0.3231E+00  0.4329E+01
  -0.660  0.3063E+00  0.4332E+01
  -0.650  0.2912E+00  0.4335E+01
  -0.640  0.2782E+00  0.4338E+01
  -0.630  0.2673E+00  0.4341E+01
  -0.620  0.2587E+00  0.4343E+01
  -0.610  0.2522E+00  0.4346E+01
  -0.600  0.2478E+00  0.4348E+01
  -0.590  0.2450E+00  0.4351E+01
  -0.580  0.2435E+00  0.4353E+01
  -0.570  0.2428E+00  0.4356E+01
  -0.560  0.2426E+00  0.4358E+01
  -0.550  0.2422E+00  0.4360E+01
  -0.540  0.2414E+00  0.4363E+01
  -0.530  0.2397E+00  0.4365E+01
  -0.520  0.2368E+00  0.4368E+01
  -0.510  0.2325E+00  0.4370E+01
  -0.500  0.2267E+00  0.4372E+01
  -0.490  0.2194E+00  0.4374E+01
  -0.480  0.2105E+00  0.4376E+01
  -0.470  0.2004E+00  0.4378E+01
  -0.460  0.1892E+00  0.4380E+01
  -0.450  0.1772E+00  0.4382E+01
  -0.440  0.1647E+00  0.4384E+01
  -0.430  0.1521E+00  0.4385E+01
  -0.420  0.1397E+00  0.4387E+01
  -0.410  0.1280E+00  0.4388E+01
  -0.400  0.1173E+00  0.4389E+01
  -0.390  0.1079E+00  0.4390E+01
  -0.380  0.1002E+00  0.4391E+01
  -0.370  0.9431E-01  0.4392E+01
  -0.360  0.9061E-01  0.4393E+01
  -0.350  0.8925E-01  0.4394E+01
  -0.340  0.9037E-01  0.4395E+01
  -0.330  0.9410E-01  0.4396E+01
  -0.320  0.1005E+00  0.4397E+01
  -0.310  0.1096E+00  0.4398E+01
  -0.300  0.1215E+00  0.4399E+01
  -0.290  0.1360E+00  0.4400E+01
  -0.280  0.1531E+00  0.4402E+01
  -0.270  0.1728E+00  0.4404E+01
  -0.260  0.1948E+00  0.4406E+01
  -0.250  0.2189E+00  0.4408E+01
  -0.240  0.2450E+00  0.4410E+01
  -0.230  0.2728E+00  0.4413E+01
  -0.220  0.3020E+00  0.4416E+01
  -0.210  0.3323E+00  0.4419E+01
  -0.200  0.3633E+00  0.4423E+01
  -0.190  0.3947E+00  0.4427E+01
  -0.180  0.4261E+00  0.4431E+01
  -0.170  0.4570E+00  0.4436E+01
  -0.160  0.4872E+00  0.4441E+01
  -0.150  0.5161E+00  0.4446E+01
  -0.140  0.5433E+00  0.4451E+01
  -0.130  0.5686E+00  0.4457E+01
  -0.120  0.5914E+00  0.4463E+01
  -0.110  0.6116E+00  0.4469E+01
  -0.100  0.6287E+00  0.4475E+01
  -0.090  0.6427E+00  0.4482E+01
  -0.080  0.6534E+00  0.4488E+01
  -0.070  0.6607E+00  0.4495E+01
  -0.060  0.6646E+00  0.4501E+01
  -0.050  0.6653E+00  0.4508E+01
  -0.040  0.6629E+00  0.4515E+01
  -0.030  0.6577E+00  0.4521E+01
  -0.020  0.6500E+00  0.4528E+01
  -0.010  0.6403E+00  0.4534E+01
   0.000  0.6290E+00  0.4541E+01
   0.010  0.6166E+00  0.4547E+01
   0.020  0.6037E+00  0.4553E+01
   0.030  0.5906E+00  0.4559E+01
   0.040  0.5780E+00  0.4564E+01
   0.050  0.5663E+00  0.4570E+01
   0.060  0.5559E+00  0.4576E+01
   0.070  0.5472E+00  0.4581E+01
   0.080  0.5404E+00  0.4587E+01
   0.090  0.5357E+00  0.4592E+01
   0.100  0.5331E+00  0.4597E+01
   0.110  0.5326E+00  0.4603E+01
   0.120  0.5342E+00  0.4608E+01
   0.130  0.5375E+00  0.4613E+01
   0.140  0.5422E+00  0.4619E+01
   0.150  0.5479E+00  0.4624E+01
   0.160  0.5542E+00  0.4630E+01
   0.170  0.5606E+00  0.4635E+01
   0.180  0.5667E+00  0.4641E+01
   0.190  0.5719E+00  0.4647E+01
   0.200  0.5758E+00  0.4652E+01
   0.210  0.5782E+00  0.4658E+01
   0.220  0.5785E+00  0.4664E+01
   0.230  0.5768E+00  0.4670E+01
   0.240  0.5728E+00  0.4676E+01
   0.250  0.5666E+00  0.4681E+01
   0.260  0.5582E+00  0.4687E+01
   0.270  0.5478E+00  0.4692E+01
   0.280  0.5356E+00  0.4698E+01
   0.290  0.5219E+00  0.4703E+01
   0.300  0.5070E+00  0.4708E+01
   0.310  0.4911E+00  0.4713E+01
   0.320  0.4748E+00  0.4718E+01
   0.330  0.4583E+00  0.4722E+01
   0.340  0.4419E+00  0.4727E+01
   0.350  0.4261E+00  0.4731E+01
   0.360  0.4111E+00  0.4735E+01
   0.370  0.3973E+00  0.4739E+01
   0.380  0.3850E+00  0.4743E+01
   0.390  0.3745E+00  0.4746E+01
   0.400  0.3660E+00  0.4750E+01
   0.410  0.3598E+00  0.4754E+01
   0.420  0.3561E+00  0.4757E+01
   0.430  0.3549E+00  0.4761E+01
   0.440  0.3564E+00  0.4764E+01
   0.450  0.3604E+00  0.4768E+01
   0.460  0.3669E+00  0.4772E+01
   0.470  0.3755E+00  0.4775E+01
   0.480  0.3859E+00  0.4779E+01
   0.490  0.3976E+00  0.4783E+01
   0.500  0.4101E+00  0.4787E+01
   0.510  0.4228E+00  0.4792E+01
   0.520  0.4349E+00  0.4796E+01
   0.530  0.4458E+00  0.4800E+01
   0.540  0.4549E+00  0.4805E+01
   0.550  0.4613E+00  0.4810E+01
   0.560  0.4648E+00  0.4814E+01
   0.570  0.4648E+00  0.4819E+01
   0.580  0.4610E+00  0.4823E+01
   0.590  0.4532E+00  0.4828E+01
   0.600  0.4416E+00  0.4832E+01
   0.610  0.4263E+00  0.4837E+01
   0.620  0.4075E+00  0.4841E+01
   0.630  0.3856E+00  0.4845E+01
   0.640  0.3613E+00  0.4848E+01
   0.650  0.3351E+00  0.4852E+01
   0.660  0.3076E+00  0.4855E+01
   0.670  0.2793E+00  0.4857E+01
   0.680  0.2511E+00  0.4860E+01
   0.690  0.2233E+00  0.4862E+01
   0.700  0.1965E+00  0.4864E+01
   0.710  0.1710E+00  0.4866E+01
   0.720  0.1473E+00  0.4867E+01
   0.730  0.1256E+00  0.4869E+01
   0.740  0.1059E+00  0.4870E+01
   0.750  0.8831E-01  0.4871E+01
   0.760  0.7290E-01  0.4871E+01
   0.770  0.5955E-01  0.4872E+01
   0.780  0.4816E-01  0.4872E+01
   0.790  0.3857E-01  0.4873E+01
   0.800  0.3064E-01  0.4873E+01
   0.810  0.2417E-01  0.4873E+01
   0.820  0.1901E-01  0.4873E+01
   0.830  0.1501E-01  0.4874E+01
   0.840  0.1200E-01  0.4874E+01
   0.850  0.9898E-02  0.4874E+01
   0.860  0.8597E-02  0.4874E+01
   0.870  0.8042E-02  0.4874E+01
   0.880  0.8208E-02  0.4874E+01
   0.890  0.9100E-02  0.4874E+01
   0.900  0.1076E-01  0.4874E+01
   0.910  0.1325E-01  0.4874E+01
   0.920  0.1669E-01  0.4875E+01
   0.930  0.2120E-01  0.4875E+01
   0.940  0.2695E-01  0.4875E+01
   0.950  0.3411E-01  0.4875E+01
   0.960  0.4290E-01  0.4876E+01
   0.970  0.5352E-01  0.4876E+01
   0.980  0.6619E-01  0.4877E+01
   0.990  0.8112E-01  0.4878E+01
   1.000  0.9848E-01  0.4879E+01
   1.010  0.1185E+00  0.4880E+01
   1.020  0.1411E+00  0.4881E+01
   1.030  0.1666E+00  0.4883E+01
   1.040  0.1948E+00  0.4885E+01
   1.050  0.2257E+00  0.4887E+01
   1.060  0.2590E+00  0.4890E+01
   1.070  0.2946E+00  0.4893E+01
   1.080  0.3320E+00  0.4896E+01
   1.090  0.3708E+00  0.4900E+01
   1.100  0.4104E+00  0.4904E+01
   1.110  0.4503E+00  0.4908E+01
   1.120  0.4898E+00  0.4913E+01
   1.130  0.5282E+00  0.4919E+01
   1.140  0.5650E+00  0.4924E+01
   1.150  0.5993E+00  0.4930E+01
   1.160  0.6306E+00  0.4937E+01
   1.170  0.6584E+00  0.4943E+01
   1.180  0.6822E+00  0.4950E+01
   1.190  0.7016E+00  0.4957E+01
   1.200  0.7164E+00  0.4964E+01
   1.210  0.7265E+00  0.4971E+01
   1.220  0.7318E+00  0.4979E+01
   1.230  0.7324E+00  0.4986E+01
   1.240  0.7285E+00  0.4993E+01
   1.250  0.7203E+00  0.5001E+01
   1.260  0.7082E+00  0.5008E+01
   1.270  0.6926E+00  0.5015E+01
   1.280  0.6739E+00  0.5021E+01
   1.290  0.6527E+00  0.5028E+01
   1.300  0.6293E+00  0.5034E+01
   1.310  0.6045E+00  0.5040E+01
   1.320  0.5787E+00  0.5046E+01
   1.330  0.5526E+00  0.5052E+01
   1.340  0.5268E+00  0.5057E+01
   1.350  0.5017E+00  0.5062E+01
   1.360  0.4782E+00  0.5067E+01
   1.370  0.4567E+00  0.5071E+01
   1.380  0.4378E+00  0.5076E+01
   1.390  0.4221E+00  0.5080E+01
   1.400  0.4100E+00  0.5084E+01
   1.410  0.4021E+00  0.5088E+01
   1.420  0.3986E+00  0.5092E+01
   1.430  0.3999E+00  0.5096E+01
   1.440  0.4059E+00  0.5100E+01
   1.450  0.4168E+00  0.5104E+01
   1.460  0.4323E+00  0.5108E+01
   1.470  0.4523E+00  0.5113E+01
   1.480  0.4761E+00  0.5118E+01
   1.490  0.5034E+00  0.5123E+01
   1.500  0.5333E+00  0.5128E+01
   1.510  0.5650E+00  0.5134E+01
   1.520  0.5977E+00  0.5140E+01
   1.530  0.6303E+00  0.5146E+01
   1.540  0.6620E+00  0.5153E+01
   1.550  0.6917E+00  0.5160E+01
   1.560  0.7185E+00  0.5167E+01
   1.570  0.7416E+00  0.5174E+01
   1.580  0.7601E+00  0.5182E+01
   1.590  0.7736E+00  0.5189E+01
   1.600  0.7814E+00  0.5197E+01
   1.610  0.7833E+00  0.5205E+01
   1.620  0.7792E+00  0.5213E+01
   1.630  0.7691E+00  0.5221E+01
   1.640  0.7531E+00  0.5228E+01
   1.650  0.7317E+00  0.5235E+01
   1.660  0.7052E+00  0.5242E+01
   1.670  0.6743E+00  0.5249E+01
   1.680  0.6396E+00  0.5256E+01
   1.690  0.6018E+00  0.5262E+01
   1.700  0.5618E+00  0.5267E+01
   1.710  0.5202E+00  0.5272E+01
   1.720  0.4778E+00  0.5277E+01
   1.730  0.4353E+00  0.5282E+01
   1.740  0.3935E+00  0.5286E+01
   1.750  0.3528E+00  0.5289E+01
   1.760  0.3138E+00  0.5292E+01
   1.770  0.2770E+00  0.5295E+01
   1.780  0.2427E+00  0.5297E+01
   1.790  0.2112E+00  0.5299E+01
   1.800  0.1826E+00  0.5301E+01
   1.810  0.1573E+00  0.5303E+01
   1.820  0.1352E+00  0.5304E+01
   1.830  0.1164E+00  0.5305E+01
   1.840  0.1010E+00  0.5306E+01
   1.850  0.8899E-01  0.5307E+01
   1.860  0.8045E-01  0.5308E+01
   1.870  0.7542E-01  0.5309E+01
   1.880  0.7400E-01  0.5310E+01
   1.890  0.7631E-01  0.5310E+01
   1.900  0.8248E-01  0.5311E+01
   1.910  0.9270E-01  0.5312E+01
   1.920  0.1071E+00  0.5313E+01
   1.930  0.1260E+00  0.5314E+01
   1.940  0.1495E+00  0.5316E+01
   1.950  0.1777E+00  0.5318E+01
   1.960  0.2108E+00  0.5320E+01
   1.970  0.2487E+00  0.5322E+01
   1.980  0.2912E+00  0.5325E+01
   1.990  0.3382E+00  0.5329E+01
   2.000  0.3892E+00  0.5333E+01
   2.010  0.4436E+00  0.5337E+01
   2.020  0.5006E+00  0.5342E+01
   2.030  0.5594E+00  0.5348E+01
   2.040  0.6188E+00  0.5354E+01
   2.050  0.6778E+00  0.5361E+01
   2.060  0.7350E+00  0.5368E+01
   2.070  0.7892E+00  0.5376E+01
   2.080  0.8391E+00  0.5384E+01
   2.090  0.8837E+00  0.5393E+01
   2.100  0.9218E+00  0.5402E+01
   2.110  0.9526E+00  0.5412E+01
   2.120  0.9755E+00  0.5421E+01
   2.130  0.9901E+00  0.5431E+01
   2.140  0.9964E+00  0.5441E+01
   2.150  0.9945E+00  0.5451E+01
   2.160  0.9849E+00  0.5461E+01
   2.170  0.9682E+00  0.5471E+01
   2.180  0.9452E+00  0.5480E+01
   2.190  0.9169E+00  0.5489E+01
   2.200  0.8845E+00  0.5498E+01
   2.210  0.8490E+00  0.5507E+01
   2.220  0.8115E+00  0.5515E+01
   2.230  0.7731E+00  0.5523E+01
   2.240  0.7346E+00  0.5530E+01
   2.250  0.6971E+00  0.5537E+01
   2.260  0.6610E+00  0.5544E+01
   2.270  0.6269E+00  0.5550E+01
   2.280  0.5952E+00  0.5556E+01
   2.290  0.5661E+00  0.5561E+01
   2.300  0.5396E+00  0.5567E+01
   2.310  0.5158E+00  0.5572E+01
   2.320  0.4946E+00  0.5577E+01
   2.330  0.4757E+00  0.5582E+01
   2.340  0.4589E+00  0.5586E+01
   2.350  0.4440E+00  0.5591E+01
   2.360  0.4307E+00  0.5595E+01
   2.370  0.4189E+00  0.5599E+01
   2.380  0.4083E+00  0.5603E+01
   2.390  0.3988E+00  0.5607E+01
   2.400  0.3903E+00  0.5611E+01
   2.410  0.3826E+00  0.5615E+01
   2.420  0.3758E+00  0.5619E+01
   2.430  0.3698E+00  0.5622E+01
   2.440  0.3646E+00  0.5626E+01
   2.450  0.3603E+00  0.5630E+01
   2.460  0.3568E+00  0.5633E+01
   2.470  0.3542E+00  0.5637E+01
   2.480  0.3525E+00  0.5640E+01
   2.490  0.3518E+00  0.5644E+01
   2.500  0.3520E+00  0.5647E+01
   2.510  0.3531E+00  0.5651E+01
   2.520  0.3552E+00  0.5654E+01
   2.530  0.3583E+00  0.5658E+01
   2.540  0.3623E+00  0.5662E+01
   2.550  0.3673E+00  0.5665E+01
   2.560  0.3735E+00  0.5669E+01
   2.570  0.3808E+00  0.5673E+01
   2.580  0.3895E+00  0.5677E+01
   2.590  0.3996E+00  0.5681E+01
   2.600  0.4113E+00  0.5685E+01
   2.610  0.4249E+00  0.5689E+01
   2.620  0.4403E+00  0.5694E+01
   2.630  0.4579E+00  0.5698E+01
   2.640  0.4777E+00  0.5703E+01
   2.650  0.4998E+00  0.5708E+01
   2.660  0.5241E+00  0.5713E+01
   2.670  0.5505E+00  0.5719E+01
   2.680  0.5789E+00  0.5724E+01
   2.690  0.6090E+00  0.5731E+01
   2.700  0.6404E+00  0.5737E+01
   2.710  0.6727E+00  0.5744E+01
   2.720  0.7054E+00  0.5751E+01
   2.730  0.7380E+00  0.5758E+01
   2.740  0.7698E+00  0.5766E+01
   2.750  0.8002E+00  0.5774E+01
   2.760  0.8289E+00  0.5782E+01
   2.770  0.8552E+00  0.5791E+01
   2.780  0.8788E+00  0.5799E+01
   2.790  0.8995E+00  0.5808E+01
   2.800  0.9170E+00  0.5818E+01
   2.810  0.9314E+00  0.5827E+01
   2.820  0.9429E+00  0.5836E+01
   2.830  0.9517E+00  0.5846E+01
   2.840  0.9583E+00  0.5855E+01
   2.850  0.9632E+00  0.5865E+01
   2.860  0.9671E+00  0.5875E+01
   2.870  0.9705E+00  0.5884E+01
   2.880  0.9743E+00  0.5894E+01
   2.890  0.9790E+00  0.5904E+01
   2.900  0.9853E+00  0.5914E+01
   2.910  0.9937E+00  0.5924E+01
   2.920  0.1005E+01  0.5934E+01
   2.930  0.1018E+01  0.5944E+01
   2.940  0.1035E+01  0.5954E+01
   2.950  0.1055E+01  0.5965E+01
   2.960  0.1077E+01  0.5976E+01
   2.970  0.1102E+01  0.5987E+01
   2.980  0.1129E+01  0.5998E+01
   2.990  0.1157E+01  0.6010E+01
   3.000  0.1185E+01  0.6021E+01
   3.010  0.1213E+01  0.6034E+01
   3.020  0.1239E+01  0.6046E+01
   3.030  0.1263E+01  0.6059E+01
   3.040  0.1282E+01  0.6071E+01
   3.050  0.1297E+01  0.6084E+01
   3.060  0.1306E+01  0.6097E+01
   3.070  0.1309E+01  0.6111E+01
   3.080  0.1304E+01  0.6124E+01
   3.090  0.1291E+01  0.6136E+01
   3.100  0.1271E+01  0.6149E+01
   3.110  0.1242E+01  0.6162E+01
   3.120  0.1206E+01  0.6174E+01
   3.130  0.1164E+01  0.6185E+01
   3.140  0.1115E+01  0.6196E+01
   3.150  0.1062E+01  0.6207E+01
   3.160  0.1005E+01  0.6217E+01
   3.170  0.9459E+00  0.6227E+01
   3.180  0.8868E+00  0.6235E+01
   3.190  0.8288E+00  0.6244E+01
   3.200  0.7737E+00  0.6251E+01
   3.210  0.7227E+00  0.6259E+01
   3.220  0.6772E+00  0.6265E+01
   3.230  0.6382E+00  0.6272E+01
   3.240  0.6065E+00  0.6278E+01
   3.250  0.5825E+00  0.6284E+01
   3.260  0.5666E+00  0.6289E+01
   3.270  0.5586E+00  0.6295E+01
   3.280  0.5580E+00  0.6301E+01
   3.290  0.5644E+00  0.6306E+01
   3.300  0.5767E+00  0.6312E+01
   3.310  0.5939E+00  0.6318E+01
   3.320  0.6148E+00  0.6324E+01
   3.330  0.6381E+00  0.6330E+01
   3.340  0.6624E+00  0.6337E+01
   3.350  0.6865E+00  0.6344E+01
   3.360  0.7092E+00  0.6351E+01
   3.370  0.7292E+00  0.6358E+01
   3.380  0.7456E+00  0.6366E+01
   3.390  0.7578E+00  0.6373E+01
   3.400  0.7650E+00  0.6381E+01
   3.410  0.7670E+00  0.6389E+01
   3.420  0.7635E+00  0.6396E+01
   3.430  0.7547E+00  0.6404E+01
   3.440  0.7407E+00  0.6411E+01
   3.450  0.7220E+00  0.6418E+01
   3.460  0.6989E+00  0.6425E+01
   3.470  0.6721E+00  0.6432E+01
   3.480  0.6422E+00  0.6439E+01
   3.490  0.6099E+00  0.6445E+01
   3.500  0.5759E+00  0.6450E+01
   3.510  0.5408E+00  0.6456E+01
   3.520  0.5052E+00  0.6461E+01
   3.530  0.4698E+00  0.6466E+01
   3.540  0.4352E+00  0.6470E+01
   3.550  0.4020E+00  0.6474E+01
   3.560  0.3707E+00  0.6478E+01
   3.570  0.3417E+00  0.6481E+01
   3.580  0.3157E+00  0.6484E+01
   3.590  0.2931E+00  0.6487E+01
   3.600  0.2744E+00  0.6490E+01
   3.610  0.2601E+00  0.6493E+01
   3.620  0.2505E+00  0.6495E+01
   3.630  0.2462E+00  0.6498E+01
   3.640  0.2475E+00  0.6500E+01
   3.650  0.2548E+00  0.6503E+01
   3.660  0.2684E+00  0.6505E+01
   3.670  0.2884E+00  0.6508E+01
   3.680  0.3150E+00  0.6511E+01
   3.690  0.3483E+00  0.6515E+01
   3.700  0.3881E+00  0.6519E+01
   3.710  0.4344E+00  0.6523E+01
   3.720  0.4868E+00  0.6528E+01
   3.730  0.5449E+00  0.6533E+01
   3.740  0.6082E+00  0.6539E+01
   3.750  0.6761E+00  0.6546E+01
   3.760  0.7480E+00  0.6554E+01
   3.770  0.8229E+00  0.6562E+01
   3.780  0.9002E+00  0.6571E+01
   3.790  0.9788E+00  0.6581E+01
   3.800  0.1058E+01  0.6591E+01
   3.810  0.1137E+01  0.6603E+01
   3.820  0.1214E+01  0.6615E+01
   3.830  0.1289E+01  0.6628E+01
   3.840  0.1360E+01  0.6641E+01
   3.850  0.1428E+01  0.6655E+01
   3.860  0.1490E+01  0.6670E+01
   3.870  0.1546E+01  0.6686E+01
   3.880  0.1596E+01  0.6702E+01
   3.890  0.1638E+01  0.6718E+01
   3.900  0.1672E+01  0.6735E+01
   3.910  0.1697E+01  0.6752E+01
   3.920  0.1713E+01  0.6769E+01
   3.930  0.1720E+01  0.6786E+01
   3.940  0.1718E+01  0.6803E+01
   3.950  0.1707E+01  0.6820E+01
   3.960  0.1687E+01  0.6837E+01
   3.970  0.1658E+01  0.6854E+01
   3.980  0.1622E+01  0.6870E+01
   3.990  0.1580E+01  0.6886E+01
   4.000  0.1531E+01  0.6901E+01
   4.010  0.1477E+01  0.6916E+01
   4.020  0.1420E+01  0.6930E+01
   4.030  0.1360E+01  0.6944E+01
   4.040  0.1298E+01  0.6957E+01
   4.050  0.1235E+01  0.6969E+01
   4.060  0.1173E+01  0.6981E+01
   4.070  0.1111E+01  0.6992E+01
   4.080  0.1051E+01  0.7002E+01
   4.090  0.9930E+00  0.7012E+01
   4.100  0.9377E+00  0.7022E+01
   4.110  0.8855E+00  0.7031E+01
   4.120  0.8365E+00  0.7039E+01
   4.130  0.7911E+00  0.7047E+01
   4.140  0.7493E+00  0.7054E+01
   4.150  0.7112E+00  0.7062E+01
   4.160  0.6768E+00  0.7068E+01
   4.170  0.6463E+00  0.7075E+01
   4.180  0.6194E+00  0.7081E+01
   4.190  0.5962E+00  0.7087E+01
   4.200  0.5765E+00  0.7093E+01
   4.210  0.5603E+00  0.7098E+01
   4.220  0.5472E+00  0.7104E+01
   4.230  0.5373E+00  0.7109E+01
   4.240  0.5302E+00  0.7114E+01
   4.250  0.5258E+00  0.7120E+01
   4.260  0.5239E+00  0.7125E+01
   4.270  0.5241E+00  0.7130E+01
   4.280  0.5264E+00  0.7135E+01
   4.290  0.5304E+00  0.7141E+01
   4.300  0.5359E+00  0.7146E+01
   4.310  0.5427E+00  0.7152E+01
   4.320  0.5506E+00  0.7157E+01
   4.330  0.5593E+00  0.7163E+01
   4.340  0.5686E+00  0.7168E+01
   4.350  0.5781E+00  0.7174E+01
   4.360  0.5877E+00  0.7180E+01
   4.370  0.5969E+00  0.7186E+01
   4.380  0.6054E+00  0.7192E+01
   4.390  0.6130E+00  0.7198E+01
   4.400  0.6193E+00  0.7204E+01
   4.410  0.6241E+00  0.7211E+01
   4.420  0.6270E+00  0.7217E+01
   4.430  0.6280E+00  0.7223E+01
   4.440  0.6270E+00  0.7229E+01
   4.450  0.6238E+00  0.7236E+01
   4.460  0.6187E+00  0.7242E+01
   4.470  0.6118E+00  0.7248E+01
   4.480  0.6034E+00  0.7254E+01
   4.490  0.5940E+00  0.7260E+01
   4.500  0.5840E+00  0.7266E+01
   4.510  0.5740E+00  0.7271E+01
   4.520  0.5647E+00  0.7277E+01
   4.530  0.5565E+00  0.7283E+01
   4.540  0.5500E+00  0.7288E+01
   4.550  0.5459E+00  0.7294E+01
   4.560  0.5444E+00  0.7299E+01
   4.570  0.5460E+00  0.7305E+01
   4.580  0.5510E+00  0.7310E+01
   4.590  0.5594E+00  0.7316E+01
   4.600  0.5713E+00  0.7321E+01
   4.610  0.5868E+00  0.7327E+01
   4.620  0.6056E+00  0.7333E+01
   4.630  0.6278E+00  0.7340E+01
   4.640  0.6530E+00  0.7346E+01
   4.650  0.6811E+00  0.7353E+01
   4.660  0.7120E+00  0.7360E+01
   4.670  0.7455E+00  0.7367E+01
   4.680  0.7815E+00  0.7375E+01
   4.690  0.8197E+00  0.7383E+01
   4.700  0.8600E+00  0.7392E+01
   4.710  0.9022E+00  0.7401E+01
   4.720  0.9460E+00  0.7411E+01
   4.730  0.9911E+00  0.7420E+01
   4.740  0.1037E+01  0.7431E+01
   4.750  0.1083E+01  0.7442E+01
   4.760  0.1129E+01  0.7453E+01
   4.770  0.1173E+01  0.7465E+01
   4.780  0.1215E+01  0.7477E+01
   4.790  0.1255E+01  0.7489E+01
   4.800  0.1290E+01  0.7502E+01
   4.810  0.1321E+01  0.7516E+01
   4.820  0.1346E+01  0.7529E+01
   4.830  0.1365E+01  0.7543E+01
   4.840  0.1378E+01  0.7556E+01
   4.850  0.1384E+01  0.7570E+01
   4.860  0.1384E+01  0.7584E+01
   4.870  0.1378E+01  0.7598E+01
   4.880  0.1367E+01  0.7612E+01
   4.890  0.1350E+01  0.7625E+01
   4.900  0.1331E+01  0.7638E+01
   4.910  0.1309E+01  0.7651E+01
   4.920  0.1286E+01  0.7664E+01
   4.930  0.1263E+01  0.7677E+01
   4.940  0.1242E+01  0.7689E+01
   4.950  0.1223E+01  0.7702E+01
   4.960  0.1207E+01  0.7714E+01
   4.970  0.1196E+01  0.7726E+01
   4.980  0.1189E+01  0.7737E+01
   4.990  0.1187E+01  0.7749E+01
   5.000  0.1190E+01  0.7761E+01
   5.010  0.1197E+01  0.7773E+01
   5.020  0.1209E+01  0.7785E+01
   5.030  0.1224E+01  0.7798E+01
   5.040  0.1242E+01  0.7810E+01
   5.050  0.1261E+01  0.7823E+01
   5.060  0.1280E+01  0.7835E+01
   5.070  0.1299E+01  0.7848E+01
   5.080  0.1316E+01  0.7862E+01
   5.090  0.1330E+01  0.7875E+01
   5.100  0.1341E+01  0.7888E+01
   5.110  0.1347E+01  0.7902E+01
   5.120  0.1349E+01  0.7915E+01
   5.130  0.1345E+01  0.7929E+01
   5.140  0.1335E+01  0.7942E+01
   5.150  0.1320E+01  0.7955E+01
   5.160  0.1300E+01  0.7968E+01
   5.170  0.1274E+01  0.7981E+01
   5.180  0.1244E+01  0.7993E+01
   5.190  0.1209E+01  0.8005E+01
   5.200  0.1171E+01  0.8017E+01
   5.210  0.1130E+01  0.8029E+01
   5.220  0.1087E+01  0.8039E+01
   5.230  0.1042E+01  0.8050E+01
   5.240  0.9961E+00  0.8060E+01
   5.250  0.9498E+00  0.8069E+01
   5.260  0.9037E+00  0.8078E+01
   5.270  0.8583E+00  0.8087E+01
   5.280  0.8140E+00  0.8095E+01
   5.290  0.7713E+00  0.8103E+01
   5.300  0.7308E+00  0.8110E+01
   5.310  0.6927E+00  0.8117E+01
   5.320  0.6576E+00  0.8124E+01
   5.330  0.6257E+00  0.8130E+01
   5.340  0.5974E+00  0.8136E+01
   5.350  0.5730E+00  0.8141E+01
   5.360  0.5528E+00  0.8147E+01
   5.370  0.5370E+00  0.8152E+01
   5.380  0.5256E+00  0.8158E+01
   5.390  0.5188E+00  0.8163E+01
   5.400  0.5165E+00  0.8168E+01
   5.410  0.5185E+00  0.8173E+01
   5.420  0.5247E+00  0.8178E+01
   5.430  0.5350E+00  0.8184E+01
   5.440  0.5489E+00  0.8189E+01
   5.450  0.5664E+00  0.8195E+01
   5.460  0.5873E+00  0.8201E+01
   5.470  0.6114E+00  0.8207E+01
   5.480  0.6388E+00  0.8213E+01
   5.490  0.6695E+00  0.8220E+01
   5.500  0.7039E+00  0.8227E+01
   5.510  0.7422E+00  0.8234E+01
   5.520  0.7849E+00  0.8242E+01
   5.530  0.8325E+00  0.8251E+01
   5.540  0.8854E+00  0.8260E+01
   5.550  0.9442E+00  0.8269E+01
   5.560  0.1009E+01  0.8279E+01
   5.570  0.1081E+01  0.8290E+01
   5.580  0.1158E+01  0.8301E+01
   5.590  0.1242E+01  0.8314E+01
   5.600  0.1330E+01  0.8327E+01
   5.610  0.1423E+01  0.8341E+01
   5.620  0.1519E+01  0.8357E+01
   5.630  0.1616E+01  0.8373E+01
   5.640  0.1711E+01  0.8390E+01
   5.650  0.1804E+01  0.8408E+01
   5.660  0.1891E+01  0.8427E+01
   5.670  0.1970E+01  0.8446E+01
   5.680  0.2039E+01  0.8467E+01
   5.690  0.2095E+01  0.8488E+01
   5.700  0.2138E+01  0.8509E+01
   5.710  0.2166E+01  0.8531E+01
   5.720  0.2179E+01  0.8553E+01
   5.730  0.2176E+01  0.8574E+01
   5.740  0.2157E+01  0.8596E+01
   5.750  0.2125E+01  0.8617E+01
   5.760  0.2080E+01  0.8638E+01
   5.770  0.2024E+01  0.8658E+01
   5.780  0.1961E+01  0.8678E+01
   5.790  0.1893E+01  0.8697E+01
   5.800  0.1823E+01  0.8715E+01
   5.810  0.1754E+01  0.8733E+01
   5.820  0.1688E+01  0.8749E+01
   5.830  0.1629E+01  0.8766E+01
   5.840  0.1578E+01  0.8782E+01
   5.850  0.1538E+01  0.8797E+01
   5.860  0.1510E+01  0.8812E+01
   5.870  0.1495E+01  0.8827E+01
   5.880  0.1493E+01  0.8842E+01
   5.890  0.1503E+01  0.8857E+01
   5.900  0.1527E+01  0.8872E+01
   5.910  0.1561E+01  0.8888E+01
   5.920  0.1606E+01  0.8904E+01
   5.930  0.1659E+01  0.8920E+01
   5.940  0.1718E+01  0.8938E+01
   5.950  0.1782E+01  0.8955E+01
   5.960  0.1849E+01  0.8974E+01
   5.970  0.1916E+01  0.8993E+01
   5.980  0.1982E+01  0.9013E+01
   5.990  0.2044E+01  0.9033E+01
   6.000  0.2103E+01  0.9054E+01
   6.010  0.2155E+01  0.9076E+01
   6.020  0.2201E+01  0.9098E+01
   6.030  0.2239E+01  0.9120E+01
   6.040  0.2268E+01  0.9143E+01
   6.050  0.2289E+01  0.9166E+01
   6.060  0.2301E+01  0.9189E+01
   6.070  0.2305E+01  0.9212E+01
   6.080  0.2300E+01  0.9235E+01
   6.090  0.2288E+01  0.9258E+01
   6.100  0.2269E+01  0.9281E+01
   6.110  0.2244E+01  0.9303E+01
   6.120  0.2214E+01  0.9325E+01
   6.130  0.2180E+01  0.9347E+01
   6.140  0.2143E+01  0.9368E+01
   6.150  0.2104E+01  0.9389E+01
   6.160  0.2064E+01  0.9410E+01
   6.170  0.2024E+01  0.9430E+01
   6.180  0.1984E+01  0.9450E+01
   6.190  0.1945E+01  0.9470E+01
   6.200  0.1909E+01  0.9489E+01
   6.210  0.1875E+01  0.9507E+01
   6.220  0.1843E+01  0.9526E+01
   6.230  0.1814E+01  0.9544E+01
   6.240  0.1787E+01  0.9562E+01
   6.250  0.1763E+01  0.9579E+01
   6.260  0.1741E+01  0.9597E+01
   6.270  0.1722E+01  0.9614E+01
   6.280  0.1704E+01  0.9631E+01
   6.290  0.1688E+01  0.9648E+01
   6.300  0.1674E+01  0.9665E+01
   6.310  0.1661E+01  0.9681E+01
   6.320  0.1651E+01  0.9698E+01
   6.330  0.1642E+01  0.9714E+01
   6.340  0.1636E+01  0.9731E+01
   6.350  0.1633E+01  0.9747E+01
   6.360  0.1634E+01  0.9763E+01
   6.370  0.1640E+01  0.9780E+01
   6.380  0.1651E+01  0.9796E+01
   6.390  0.1669E+01  0.9813E+01
   6.400  0.1695E+01  0.9830E+01
   6.410  0.1728E+01  0.9847E+01
   6.420  0.1771E+01  0.9865E+01
   6.430  0.1823E+01  0.9883E+01
   6.440  0.1884E+01  0.9902E+01
   6.450  0.1955E+01  0.9922E+01
   6.460  0.2034E+01  0.9942E+01
   6.470  0.2121E+01  0.9963E+01
   6.480  0.2213E+01  0.9985E+01
   6.490  0.2311E+01  0.1001E+02
   6.500  0.2410E+01  0.1003E+02
   6.510  0.2510E+01  0.1006E+02
   6.520  0.2606E+01  0.1008E+02
   6.530  0.2698E+01  0.1011E+02
   6.540  0.2782E+01  0.1014E+02
   6.550  0.2856E+01  0.1017E+02
   6.560  0.2918E+01  0.1020E+02
   6.570  0.2965E+01  0.1023E+02
   6.580  0.2997E+01  0.1026E+02
   6.590  0.3012E+01  0.1029E+02
   6.600  0.3010E+01  0.1032E+02
   6.610  0.2991E+01  0.1035E+02
   6.620  0.2957E+01  0.1038E+02
   6.630  0.2907E+01  0.1040E+02
   6.640  0.2844E+01  0.1043E+02
   6.650  0.2769E+01  0.1046E+02
   6.660  0.2686E+01  0.1049E+02
   6.670  0.2595E+01  0.1051E+02
   6.680  0.2499E+01  0.1054E+02
   6.690  0.2401E+01  0.1056E+02
   6.700  0.2302E+01  0.1059E+02
   6.710  0.2205E+01  0.1061E+02
   6.720  0.2110E+01  0.1063E+02
   6.730  0.2018E+01  0.1065E+02
   6.740  0.1931E+01  0.1067E+02
   6.750  0.1850E+01  0.1069E+02
   6.760  0.1774E+01  0.1070E+02
   6.770  0.1704E+01  0.1072E+02
   6.780  0.1639E+01  0.1074E+02
   6.790  0.1581E+01  0.1075E+02
   6.800  0.1528E+01  0.1077E+02
   6.810  0.1480E+01  0.1078E+02
   6.820  0.1438E+01  0.1080E+02
   6.830  0.1402E+01  0.1081E+02
   6.840  0.1372E+01  0.1083E+02
   6.850  0.1346E+01  0.1084E+02
   6.860  0.1327E+01  0.1085E+02
   6.870  0.1312E+01  0.1087E+02
   6.880  0.1303E+01  0.1088E+02
   6.890  0.1298E+01  0.1089E+02
   6.900  0.1297E+01  0.1090E+02
   6.910  0.1300E+01  0.1092E+02
   6.920  0.1305E+01  0.1093E+02
   6.930  0.1312E+01  0.1094E+02
   6.940  0.1319E+01  0.1096E+02
   6.950  0.1325E+01  0.1097E+02
   6.960  0.1330E+01  0.1098E+02
   6.970  0.1332E+01  0.1100E+02
   6.980  0.1331E+01  0.1101E+02
   6.990  0.1326E+01  0.1102E+02
   7.000  0.1316E+01  0.1104E+02
   7.010  0.1303E+01  0.1105E+02
   7.020  0.1286E+01  0.1106E+02
   7.030  0.1266E+01  0.1108E+02
   7.040  0.1243E+01  0.1109E+02
   7.050  0.1221E+01  0.1110E+02
   7.060  0.1198E+01  0.1111E+02
   7.070  0.1178E+01  0.1112E+02
   7.080  0.1162E+01  0.1114E+02
   7.090  0.1151E+01  0.1115E+02
   7.100  0.1145E+01  0.1116E+02
   7.110  0.1147E+01  0.1117E+02
   7.120  0.1156E+01  0.1118E+02
   7.130  0.1174E+01  0.1119E+02
   7.140  0.1199E+01  0.1120E+02
   7.150  0.1232E+01  0.1122E+02
   7.160  0.1271E+01  0.1123E+02
   7.170  0.1317E+01  0.1124E+02
   7.180  0.1366E+01  0.1126E+02
   7.190  0.1420E+01  0.1127E+02
   7.200  0.1475E+01  0.1129E+02
   7.210  0.1530E+01  0.1130E+02
   7.220  0.1585E+01  0.1132E+02
   7.230  0.1638E+01  0.1133E+02
   7.240  0.1688E+01  0.1135E+02
   7.250  0.1735E+01  0.1137E+02
   7.260  0.1778E+01  0.1139E+02
   7.270  0.1817E+01  0.1140E+02
   7.280  0.1851E+01  0.1142E+02
   7.290  0.1882E+01  0.1144E+02
   7.300  0.1909E+01  0.1146E+02
   7.310  0.1932E+01  0.1148E+02
   7.320  0.1952E+01  0.1150E+02
   7.330  0.1969E+01  0.1152E+02
   7.340  0.1983E+01  0.1154E+02
   7.350  0.1995E+01  0.1156E+02
   7.360  0.2004E+01  0.1158E+02
   7.370  0.2010E+01  0.1160E+02
   7.380  0.2013E+01  0.1162E+02
   7.390  0.2012E+01  0.1164E+02
   7.400  0.2008E+01  0.1166E+02
   7.410  0.2000E+01  0.1168E+02
   7.420  0.1987E+01  0.1170E+02
   7.430  0.1970E+01  0.1172E+02
   7.440  0.1948E+01  0.1174E+02
   7.450  0.1922E+01  0.1176E+02
   7.460  0.1892E+01  0.1178E+02
   7.470  0.1859E+01  0.1179E+02
   7.480  0.1822E+01  0.1181E+02
   7.490  0.1784E+01  0.1183E+02
   7.500  0.1744E+01  0.1185E+02
   7.510  0.1705E+01  0.1186E+02
   7.520  0.1666E+01  0.1188E+02
   7.530  0.1629E+01  0.1190E+02
   7.540  0.1594E+01  0.1191E+02
   7.550  0.1562E+01  0.1193E+02
   7.560  0.1535E+01  0.1194E+02
   7.570  0.1511E+01  0.1196E+02
   7.580  0.1491E+01  0.1197E+02
   7.590  0.1476E+01  0.1199E+02
   7.600  0.1464E+01  0.1200E+02
   7.610  0.1455E+01  0.1202E+02
   7.620  0.1449E+01  0.1203E+02
   7.630  0.1445E+01  0.1205E+02
   7.640  0.1443E+01  0.1206E+02
   7.650  0.1441E+01  0.1208E+02
   7.660  0.1439E+01  0.1209E+02
   7.670  0.1437E+01  0.1211E+02
   7.680  0.1433E+01  0.1212E+02
   7.690  0.1427E+01  0.1213E+02
   7.700  0.1419E+01  0.1215E+02
   7.710  0.1408E+01  0.1216E+02
   7.720  0.1394E+01  0.1218E+02
   7.730  0.1377E+01  0.1219E+02
   7.740  0.1357E+01  0.1220E+02
   7.750  0.1334E+01  0.1222E+02
   7.760  0.1308E+01  0.1223E+02
   7.770  0.1279E+01  0.1224E+02
   7.780  0.1248E+01  0.1226E+02
   7.790  0.1216E+01  0.1227E+02
   7.800  0.1182E+01  0.1228E+02
   7.810  0.1147E+01  0.1229E+02
   7.820  0.1112E+01  0.1230E+02
   7.830  0.1078E+01  0.1231E+02
   7.840  0.1045E+01  0.1232E+02
   7.850  0.1014E+01  0.1233E+02
   7.860  0.9853E+00  0.1234E+02
   7.870  0.9593E+00  0.1235E+02
   7.880  0.9366E+00  0.1236E+02
   7.890  0.9174E+00  0.1237E+02
   7.900  0.9019E+00  0.1238E+02
   7.910  0.8900E+00  0.1239E+02
   7.920  0.8817E+00  0.1240E+02
   7.930  0.8767E+00  0.1241E+02
   7.940  0.8745E+00  0.1242E+02
   7.950  0.8748E+00  0.1242E+02
   7.960  0.8770E+00  0.1243E+02
   7.970  0.8805E+00  0.1244E+02
   7.980  0.8851E+00  0.1245E+02
   7.990  0.8901E+00  0.1246E+02
   8.000  0.8952E+00  0.1247E+02
   8.010  0.9002E+00  0.1248E+02
   8.020  0.9051E+00  0.1249E+02
   8.030  0.9099E+00  0.1250E+02
   8.040  0.9146E+00  0.1250E+02
   8.050  0.9197E+00  0.1251E+02
   8.060  0.9253E+00  0.1252E+02
   8.070  0.9320E+00  0.1253E+02
   8.080  0.9401E+00  0.1254E+02
   8.090  0.9499E+00  0.1255E+02
   8.100  0.9617E+00  0.1256E+02
   8.110  0.9757E+00  0.1257E+02
   8.120  0.9920E+00  0.1258E+02
   8.130  0.1011E+01  0.1259E+02
   8.140  0.1031E+01  0.1260E+02
   8.150  0.1054E+01  0.1261E+02
   8.160  0.1078E+01  0.1262E+02
   8.170  0.1103E+01  0.1263E+02
   8.180  0.1128E+01  0.1264E+02
   8.190  0.1154E+01  0.1266E+02
   8.200  0.1179E+01  0.1267E+02
   8.210  0.1204E+01  0.1268E+02
   8.220  0.1227E+01  0.1269E+02
   8.230  0.1249E+01  0.1270E+02
   8.240  0.1269E+01  0.1272E+02
   8.250  0.1287E+01  0.1273E+02
   8.260  0.1302E+01  0.1274E+02
   8.270  0.1316E+01  0.1276E+02
   8.280  0.1327E+01  0.1277E+02
   8.290  0.1336E+01  0.1278E+02
   8.300  0.1343E+01  0.1280E+02
   8.310  0.1347E+01  0.1281E+02
   8.320  0.1349E+01  0.1282E+02
   8.330  0.1350E+01  0.1284E+02
   8.340  0.1348E+01  0.1285E+02
   8.350  0.1345E+01  0.1286E+02
   8.360  0.1340E+01  0.1288E+02
   8.370  0.1334E+01  0.1289E+02
   8.380  0.1327E+01  0.1290E+02
   8.390  0.1320E+01  0.1292E+02
   8.400  0.1312E+01  0.1293E+02
   8.410  0.1304E+01  0.1294E+02
   8.420  0.1297E+01  0.1296E+02
   8.430  0.1292E+01  0.1297E+02
   8.440  0.1288E+01  0.1298E+02
   8.450  0.1286E+01  0.1299E+02
   8.460  0.1288E+01  0.1301E+02
   8.470  0.1293E+01  0.1302E+02
   8.480  0.1302E+01  0.1303E+02
   8.490  0.1314E+01  0.1305E+02
   8.500  0.1331E+01  0.1306E+02
   8.510  0.1352E+01  0.1307E+02
   8.520  0.1376E+01  0.1309E+02
   8.530  0.1403E+01  0.1310E+02
   8.540  0.1433E+01  0.1312E+02
   8.550  0.1463E+01  0.1313E+02
   8.560  0.1493E+01  0.1315E+02
   8.570  0.1522E+01  0.1316E+02
   8.580  0.1547E+01  0.1318E+02
   8.590  0.1569E+01  0.1319E+02
   8.600  0.1585E+01  0.1321E+02
   8.610  0.1594E+01  0.1322E+02
   8.620  0.1596E+01  0.1324E+02
   8.630  0.1589E+01  0.1326E+02
   8.640  0.1575E+01  0.1327E+02
   8.650  0.1552E+01  0.1329E+02
   8.660  0.1520E+01  0.1330E+02
   8.670  0.1482E+01  0.1332E+02
   8.680  0.1437E+01  0.1333E+02
   8.690  0.1387E+01  0.1334E+02
   8.700  0.1333E+01  0.1336E+02
   8.710  0.1276E+01  0.1337E+02
   8.720  0.1217E+01  0.1338E+02
   8.730  0.1158E+01  0.1339E+02
   8.740  0.1100E+01  0.1341E+02
   8.750  0.1044E+01  0.1342E+02
   8.760  0.9905E+00  0.1343E+02
   8.770  0.9401E+00  0.1344E+02
   8.780  0.8935E+00  0.1344E+02
   8.790  0.8510E+00  0.1345E+02
   8.800  0.8129E+00  0.1346E+02
   8.810  0.7796E+00  0.1347E+02
   8.820  0.7513E+00  0.1348E+02
   8.830  0.7282E+00  0.1348E+02
   8.840  0.7109E+00  0.1349E+02
   8.850  0.6997E+00  0.1350E+02
   8.860  0.6950E+00  0.1350E+02
   8.870  0.6975E+00  0.1351E+02
   8.880  0.7078E+00  0.1352E+02
   8.890  0.7263E+00  0.1353E+02
   8.900  0.7536E+00  0.1353E+02
   8.910  0.7900E+00  0.1354E+02
   8.920  0.8358E+00  0.1355E+02
   8.930  0.8911E+00  0.1356E+02
   8.940  0.9556E+00  0.1357E+02
   8.950  0.1029E+01  0.1358E+02
   8.960  0.1111E+01  0.1359E+02
   8.970  0.1199E+01  0.1360E+02
   8.980  0.1294E+01  0.1361E+02
   8.990  0.1394E+01  0.1363E+02
   9.000  0.1498E+01  0.1364E+02
   9.010  0.1603E+01  0.1366E+02
   9.020  0.1708E+01  0.1368E+02
   9.030  0.1812E+01  0.1369E+02
   9.040  0.1914E+01  0.1371E+02
   9.050  0.2011E+01  0.1373E+02
   9.060  0.2102E+01  0.1376E+02
   9.070  0.2187E+01  0.1378E+02
   9.080  0.2263E+01  0.1380E+02
   9.090  0.2332E+01  0.1382E+02
   9.100  0.2390E+01  0.1385E+02
   9.110  0.2439E+01  0.1387E+02
   9.120  0.2478E+01  0.1390E+02
   9.130  0.2505E+01  0.1392E+02
   9.140  0.2522E+01  0.1395E+02
   9.150  0.2527E+01  0.1397E+02
   9.160  0.2521E+01  0.1400E+02
   9.170  0.2503E+01  0.1402E+02
   9.180  0.2474E+01  0.1405E+02
   9.190  0.2434E+01  0.1407E+02
   9.200  0.2382E+01  0.1409E+02
   9.210  0.2320E+01  0.1412E+02
   9.220  0.2248E+01  0.1414E+02
   9.230  0.2166E+01  0.1416E+02
   9.240  0.2076E+01  0.1418E+02
   9.250  0.1978E+01  0.1420E+02
   9.260  0.1873E+01  0.1422E+02
   9.270  0.1763E+01  0.1424E+02
   9.280  0.1650E+01  0.1426E+02
   9.290  0.1534E+01  0.1427E+02
   9.300  0.1417E+01  0.1428E+02
   9.310  0.1302E+01  0.1430E+02
   9.320  0.1188E+01  0.1431E+02
   9.330  0.1079E+01  0.1432E+02
   9.340  0.9743E+00  0.1433E+02
   9.350  0.8763E+00  0.1434E+02
   9.360  0.7857E+00  0.1435E+02
   9.370  0.7035E+00  0.1435E+02
   9.380  0.6302E+00  0.1436E+02
   9.390  0.5663E+00  0.1437E+02
   9.400  0.5120E+00  0.1437E+02
   9.410  0.4675E+00  0.1438E+02
   9.420  0.4324E+00  0.1438E+02
   9.430  0.4066E+00  0.1438E+02
   9.440  0.3894E+00  0.1439E+02
   9.450  0.3801E+00  0.1439E+02
   9.460  0.3781E+00  0.1440E+02
   9.470  0.3825E+00  0.1440E+02
   9.480  0.3923E+00  0.1440E+02
   9.490  0.4065E+00  0.1441E+02
   9.500  0.4243E+00  0.1441E+02
   9.510  0.4447E+00  0.1442E+02
   9.520  0.4669E+00  0.1442E+02
   9.530  0.4903E+00  0.1443E+02
   9.540  0.5141E+00  0.1443E+02
   9.550  0.5380E+00  0.1444E+02
   9.560  0.5616E+00  0.1444E+02
   9.570  0.5849E+00  0.1445E+02
   9.580  0.6077E+00  0.1445E+02
   9.590  0.6304E+00  0.1446E+02
   9.600  0.6529E+00  0.1447E+02
   9.610  0.6757E+00  0.1447E+02
   9.620  0.6991E+00  0.1448E+02
   9.630  0.7233E+00  0.1449E+02
   9.640  0.7486E+00  0.1450E+02
   9.650  0.7751E+00  0.1450E+02
   9.660  0.8030E+00  0.1451E+02
   9.670  0.8321E+00  0.1452E+02
   9.680  0.8622E+00  0.1453E+02
   9.690  0.8932E+00  0.1454E+02
   9.700  0.9245E+00  0.1455E+02
   9.710  0.9558E+00  0.1456E+02
   9.720  0.9865E+00  0.1457E+02
   9.730  0.1016E+01  0.1458E+02
   9.740  0.1044E+01  0.1459E+02
   9.750  0.1070E+01  0.1460E+02
   9.760  0.1094E+01  0.1461E+02
   9.770  0.1114E+01  0.1462E+02
   9.780  0.1133E+01  0.1463E+02
   9.790  0.1148E+01  0.1464E+02
   9.800  0.1161E+01  0.1465E+02
   9.810  0.1172E+01  0.1466E+02
   9.820  0.1181E+01  0.1468E+02
   9.830  0.1188E+01  0.1469E+02
   9.840  0.1195E+01  0.1470E+02
   9.850  0.1201E+01  0.1471E+02
   9.860  0.1208E+01  0.1472E+02
   9.870  0.1216E+01  0.1474E+02
   9.880  0.1225E+01  0.1475E+02
   9.890  0.1237E+01  0.1476E+02
   9.900  0.1251E+01  0.1477E+02
   9.910  0.1269E+01  0.1479E+02
   9.920  0.1289E+01  0.1480E+02
   9.930  0.1313E+01  0.1481E+02
   9.940  0.1339E+01  0.1483E+02
   9.950  0.1368E+01  0.1484E+02
   9.960  0.1398E+01  0.1485E+02
   9.970  0.1429E+01  0.1487E+02
   9.980  0.1461E+01  0.1488E+02
   9.990  0.1491E+01  0.1490E+02
  10.000  0.1519E+01  0.1491E+02
