#  E (eV)   dos(E)     Int dos(E) EFermi =   -1.792 eV
 -10.000  0.4863E+00  0.4863E-02
  -9.990  0.4887E+00  0.9749E-02
  -9.980  0.4914E+00  0.1466E-01
  -9.970  0.4944E+00  0.1961E-01
  -9.960  0.4974E+00  0.2458E-01
  -9.950  0.5005E+00  0.2959E-01
  -9.940  0.5033E+00  0.3462E-01
  -9.930  0.5056E+00  0.3967E-01
  -9.920  0.5072E+00  0.4475E-01
  -9.910  0.5079E+00  0.4982E-01
  -9.900  0.5075E+00  0.5490E-01
  -9.890  0.5058E+00  0.5996E-01
  -9.880  0.5026E+00  0.6498E-01
  -9.870  0.4980E+00  0.6996E-01
  -9.860  0.4920E+00  0.7488E-01
  -9.850  0.4846E+00  0.7973E-01
  -9.840  0.4759E+00  0.8449E-01
  -9.830  0.4662E+00  0.8915E-01
  -9.820  0.4558E+00  0.9371E-01
  -9.810  0.4449E+00  0.9816E-01
  -9.800  0.4339E+00  0.1025E+00
  -9.790  0.4232E+00  0.1067E+00
  -9.780  0.4131E+00  0.1109E+00
  -9.770  0.4039E+00  0.1149E+00
  -9.760  0.3959E+00  0.1189E+00
  -9.750  0.3894E+00  0.1228E+00
  -9.740  0.3844E+00  0.1266E+00
  -9.730  0.3811E+00  0.1304E+00
  -9.720  0.3797E+00  0.1342E+00
  -9.710  0.3799E+00  0.1380E+00
  -9.700  0.3819E+00  0.1418E+00
  -9.690  0.3854E+00  0.1457E+00
  -9.680  0.3903E+00  0.1496E+00
  -9.670  0.3964E+00  0.1535E+00
  -9.660  0.4035E+00  0.1576E+00
  -9.650  0.4115E+00  0.1617E+00
  -9.640  0.4200E+00  0.1659E+00
  -9.630  0.4288E+00  0.1702E+00
  -9.620  0.4379E+00  0.1746E+00
  -9.610  0.4470E+00  0.1790E+00
  -9.600  0.4559E+00  0.1836E+00
  -9.590  0.4647E+00  0.1882E+00
  -9.580  0.4731E+00  0.1930E+00
  -9.570  0.4813E+00  0.1978E+00
  -9.560  0.4891E+00  0.2027E+00
  -9.550  0.4967E+00  0.2076E+00
  -9.540  0.5040E+00  0.2127E+00
  -9.530  0.5113E+00  0.2178E+00
  -9.520  0.5186E+00  0.2230E+00
  -9.510  0.5259E+00  0.2282E+00
  -9.500  0.5335E+00  0.2336E+00
  -9.490  0.5414E+00  0.2390E+00
  -9.480  0.5497E+00  0.2445E+00
  -9.470  0.5585E+00  0.2501E+00
  -9.460  0.5679E+00  0.2557E+00
  -9.450  0.5777E+00  0.2615E+00
  -9.440  0.5881E+00  0.2674E+00
  -9.430  0.5990E+00  0.2734E+00
  -9.420  0.6103E+00  0.2795E+00
  -9.410  0.6219E+00  0.2857E+00
  -9.400  0.6337E+00  0.2921E+00
  -9.390  0.6455E+00  0.2985E+00
  -9.380  0.6571E+00  0.3051E+00
  -9.370  0.6685E+00  0.3118E+00
  -9.360  0.6793E+00  0.3186E+00
  -9.350  0.6895E+00  0.3255E+00
  -9.340  0.6990E+00  0.3324E+00
  -9.330  0.7075E+00  0.3395E+00
  -9.320  0.7152E+00  0.3467E+00
  -9.310  0.7219E+00  0.3539E+00
  -9.300  0.7278E+00  0.3612E+00
  -9.290  0.7328E+00  0.3685E+00
  -9.280  0.7372E+00  0.3759E+00
  -9.270  0.7412E+00  0.3833E+00
  -9.260  0.7450E+00  0.3907E+00
  -9.250  0.7488E+00  0.3982E+00
  -9.240  0.7529E+00  0.4057E+00
  -9.230  0.7575E+00  0.4133E+00
  -9.220  0.7628E+00  0.4209E+00
  -9.210  0.7689E+00  0.4286E+00
  -9.200  0.7759E+00  0.4364E+00
  -9.190  0.7838E+00  0.4442E+00
  -9.180  0.7925E+00  0.4522E+00
  -9.170  0.8018E+00  0.4602E+00
  -9.160  0.8114E+00  0.4683E+00
  -9.150  0.8211E+00  0.4765E+00
  -9.140  0.8305E+00  0.4848E+00
  -9.130  0.8391E+00  0.4932E+00
  -9.120  0.8466E+00  0.5017E+00
  -9.110  0.8527E+00  0.5102E+00
  -9.100  0.8569E+00  0.5188E+00
  -9.090  0.8591E+00  0.5273E+00
  -9.080  0.8590E+00  0.5359E+00
  -9.070  0.8565E+00  0.5445E+00
  -9.060  0.8515E+00  0.5530E+00
  -9.050  0.8442E+00  0.5615E+00
  -9.040  0.8347E+00  0.5698E+00
  -9.030  0.8231E+00  0.5780E+00
  -9.020  0.8098E+00  0.5861E+00
  -9.010  0.7950E+00  0.5941E+00
  -9.000  0.7790E+00  0.6019E+00
  -8.990  0.7623E+00  0.6095E+00
  -8.980  0.7451E+00  0.6170E+00
  -8.970  0.7278E+00  0.6242E+00
  -8.960  0.7107E+00  0.6313E+00
  -8.950  0.6942E+00  0.6383E+00
  -8.940  0.6786E+00  0.6451E+00
  -8.930  0.6641E+00  0.6517E+00
  -8.920  0.6512E+00  0.6582E+00
  -8.910  0.6401E+00  0.6646E+00
  -8.900  0.6310E+00  0.6709E+00
  -8.890  0.6244E+00  0.6772E+00
  -8.880  0.6204E+00  0.6834E+00
  -8.870  0.6193E+00  0.6896E+00
  -8.860  0.6214E+00  0.6958E+00
  -8.850  0.6269E+00  0.7021E+00
  -8.840  0.6360E+00  0.7084E+00
  -8.830  0.6486E+00  0.7149E+00
  -8.820  0.6648E+00  0.7215E+00
  -8.810  0.6845E+00  0.7284E+00
  -8.800  0.7075E+00  0.7355E+00
  -8.790  0.7334E+00  0.7428E+00
  -8.780  0.7619E+00  0.7504E+00
  -8.770  0.7925E+00  0.7583E+00
  -8.760  0.8245E+00  0.7666E+00
  -8.750  0.8572E+00  0.7752E+00
  -8.740  0.8901E+00  0.7841E+00
  -8.730  0.9223E+00  0.7933E+00
  -8.720  0.9532E+00  0.8028E+00
  -8.710  0.9821E+00  0.8126E+00
  -8.700  0.1009E+01  0.8227E+00
  -8.690  0.1032E+01  0.8330E+00
  -8.680  0.1052E+01  0.8436E+00
  -8.670  0.1068E+01  0.8542E+00
  -8.660  0.1080E+01  0.8650E+00
  -8.650  0.1089E+01  0.8759E+00
  -8.640  0.1093E+01  0.8869E+00
  -8.630  0.1094E+01  0.8978E+00
  -8.620  0.1091E+01  0.9087E+00
  -8.610  0.1086E+01  0.9196E+00
  -8.600  0.1077E+01  0.9303E+00
  -8.590  0.1066E+01  0.9410E+00
  -8.580  0.1053E+01  0.9515E+00
  -8.570  0.1038E+01  0.9619E+00
  -8.560  0.1021E+01  0.9721E+00
  -8.550  0.1004E+01  0.9822E+00
  -8.540  0.9865E+00  0.9920E+00
  -8.530  0.9687E+00  0.1002E+01
  -8.520  0.9512E+00  0.1011E+01
  -8.510  0.9345E+00  0.1021E+01
  -8.500  0.9189E+00  0.1030E+01
  -8.490  0.9049E+00  0.1039E+01
  -8.480  0.8930E+00  0.1048E+01
  -8.470  0.8834E+00  0.1057E+01
  -8.460  0.8766E+00  0.1065E+01
  -8.450  0.8727E+00  0.1074E+01
  -8.440  0.8721E+00  0.1083E+01
  -8.430  0.8748E+00  0.1092E+01
  -8.420  0.8807E+00  0.1100E+01
  -8.410  0.8897E+00  0.1109E+01
  -8.400  0.9016E+00  0.1118E+01
  -8.390  0.9159E+00  0.1127E+01
  -8.380  0.9322E+00  0.1137E+01
  -8.370  0.9498E+00  0.1146E+01
  -8.360  0.9682E+00  0.1156E+01
  -8.350  0.9867E+00  0.1166E+01
  -8.340  0.1005E+01  0.1176E+01
  -8.330  0.1021E+01  0.1186E+01
  -8.320  0.1036E+01  0.1196E+01
  -8.310  0.1049E+01  0.1207E+01
  -8.300  0.1059E+01  0.1217E+01
  -8.290  0.1066E+01  0.1228E+01
  -8.280  0.1070E+01  0.1239E+01
  -8.270  0.1071E+01  0.1250E+01
  -8.260  0.1069E+01  0.1260E+01
  -8.250  0.1066E+01  0.1271E+01
  -8.240  0.1060E+01  0.1281E+01
  -8.230  0.1053E+01  0.1292E+01
  -8.220  0.1046E+01  0.1302E+01
  -8.210  0.1038E+01  0.1313E+01
  -8.200  0.1031E+01  0.1323E+01
  -8.190  0.1024E+01  0.1333E+01
  -8.180  0.1019E+01  0.1344E+01
  -8.170  0.1016E+01  0.1354E+01
  -8.160  0.1015E+01  0.1364E+01
  -8.150  0.1015E+01  0.1374E+01
  -8.140  0.1018E+01  0.1384E+01
  -8.130  0.1021E+01  0.1394E+01
  -8.120  0.1026E+01  0.1405E+01
  -8.110  0.1032E+01  0.1415E+01
  -8.100  0.1037E+01  0.1425E+01
  -8.090  0.1042E+01  0.1436E+01
  -8.080  0.1045E+01  0.1446E+01
  -8.070  0.1048E+01  0.1457E+01
  -8.060  0.1048E+01  0.1467E+01
  -8.050  0.1046E+01  0.1478E+01
  -8.040  0.1041E+01  0.1488E+01
  -8.030  0.1035E+01  0.1498E+01
  -8.020  0.1026E+01  0.1509E+01
  -8.010  0.1015E+01  0.1519E+01
  -8.000  0.1003E+01  0.1529E+01
  -7.990  0.9893E+00  0.1539E+01
  -7.980  0.9755E+00  0.1549E+01
  -7.970  0.9617E+00  0.1558E+01
  -7.960  0.9484E+00  0.1568E+01
  -7.950  0.9359E+00  0.1577E+01
  -7.940  0.9246E+00  0.1586E+01
  -7.930  0.9145E+00  0.1595E+01
  -7.920  0.9059E+00  0.1604E+01
  -7.910  0.8986E+00  0.1613E+01
  -7.900  0.8924E+00  0.1622E+01
  -7.890  0.8871E+00  0.1631E+01
  -7.880  0.8823E+00  0.1640E+01
  -7.870  0.8775E+00  0.1649E+01
  -7.860  0.8725E+00  0.1658E+01
  -7.850  0.8668E+00  0.1666E+01
  -7.840  0.8600E+00  0.1675E+01
  -7.830  0.8519E+00  0.1683E+01
  -7.820  0.8423E+00  0.1692E+01
  -7.810  0.8311E+00  0.1700E+01
  -7.800  0.8182E+00  0.1708E+01
  -7.790  0.8039E+00  0.1716E+01
  -7.780  0.7883E+00  0.1724E+01
  -7.770  0.7717E+00  0.1732E+01
  -7.760  0.7546E+00  0.1739E+01
  -7.750  0.7373E+00  0.1747E+01
  -7.740  0.7204E+00  0.1754E+01
  -7.730  0.7043E+00  0.1761E+01
  -7.720  0.6895E+00  0.1768E+01
  -7.710  0.6763E+00  0.1775E+01
  -7.700  0.6653E+00  0.1781E+01
  -7.690  0.6566E+00  0.1788E+01
  -7.680  0.6504E+00  0.1794E+01
  -7.670  0.6470E+00  0.1801E+01
  -7.660  0.6463E+00  0.1807E+01
  -7.650  0.6482E+00  0.1814E+01
  -7.640  0.6525E+00  0.1820E+01
  -7.630  0.6589E+00  0.1827E+01
  -7.620  0.6671E+00  0.1834E+01
  -7.610  0.6766E+00  0.1840E+01
  -7.600  0.6870E+00  0.1847E+01
  -7.590  0.6976E+00  0.1854E+01
  -7.580  0.7079E+00  0.1861E+01
  -7.570  0.7175E+00  0.1868E+01
  -7.560  0.7258E+00  0.1876E+01
  -7.550  0.7325E+00  0.1883E+01
  -7.540  0.7372E+00  0.1890E+01
  -7.530  0.7397E+00  0.1898E+01
  -7.520  0.7399E+00  0.1905E+01
  -7.510  0.7379E+00  0.1913E+01
  -7.500  0.7338E+00  0.1920E+01
  -7.490  0.7279E+00  0.1927E+01
  -7.480  0.7206E+00  0.1934E+01
  -7.470  0.7123E+00  0.1942E+01
  -7.460  0.7035E+00  0.1949E+01
  -7.450  0.6949E+00  0.1956E+01
  -7.440  0.6869E+00  0.1962E+01
  -7.430  0.6802E+00  0.1969E+01
  -7.420  0.6752E+00  0.1976E+01
  -7.410  0.6723E+00  0.1983E+01
  -7.400  0.6720E+00  0.1989E+01
  -7.390  0.6744E+00  0.1996E+01
  -7.380  0.6796E+00  0.2003E+01
  -7.370  0.6877E+00  0.2010E+01
  -7.360  0.6986E+00  0.2017E+01
  -7.350  0.7120E+00  0.2024E+01
  -7.340  0.7276E+00  0.2031E+01
  -7.330  0.7450E+00  0.2039E+01
  -7.320  0.7636E+00  0.2046E+01
  -7.310  0.7830E+00  0.2054E+01
  -7.300  0.8025E+00  0.2062E+01
  -7.290  0.8214E+00  0.2070E+01
  -7.280  0.8392E+00  0.2079E+01
  -7.270  0.8553E+00  0.2087E+01
  -7.260  0.8689E+00  0.2096E+01
  -7.250  0.8798E+00  0.2105E+01
  -7.240  0.8873E+00  0.2114E+01
  -7.230  0.8912E+00  0.2123E+01
  -7.220  0.8912E+00  0.2131E+01
  -7.210  0.8871E+00  0.2140E+01
  -7.200  0.8789E+00  0.2149E+01
  -7.190  0.8666E+00  0.2158E+01
  -7.180  0.8506E+00  0.2166E+01
  -7.170  0.8310E+00  0.2175E+01
  -7.160  0.8082E+00  0.2183E+01
  -7.150  0.7828E+00  0.2191E+01
  -7.140  0.7551E+00  0.2198E+01
  -7.130  0.7258E+00  0.2205E+01
  -7.120  0.6956E+00  0.2212E+01
  -7.110  0.6648E+00  0.2219E+01
  -7.100  0.6342E+00  0.2225E+01
  -7.090  0.6043E+00  0.2231E+01
  -7.080  0.5756E+00  0.2237E+01
  -7.070  0.5484E+00  0.2243E+01
  -7.060  0.5232E+00  0.2248E+01
  -7.050  0.5003E+00  0.2253E+01
  -7.040  0.4799E+00  0.2258E+01
  -7.030  0.4622E+00  0.2262E+01
  -7.020  0.4473E+00  0.2267E+01
  -7.010  0.4352E+00  0.2271E+01
  -7.000  0.4261E+00  0.2275E+01
  -6.990  0.4199E+00  0.2280E+01
  -6.980  0.4166E+00  0.2284E+01
  -6.970  0.4163E+00  0.2288E+01
  -6.960  0.4189E+00  0.2292E+01
  -6.950  0.4244E+00  0.2296E+01
  -6.940  0.4329E+00  0.2301E+01
  -6.930  0.4443E+00  0.2305E+01
  -6.920  0.4585E+00  0.2310E+01
  -6.910  0.4756E+00  0.2314E+01
  -6.900  0.4953E+00  0.2319E+01
  -6.890  0.5175E+00  0.2325E+01
  -6.880  0.5421E+00  0.2330E+01
  -6.870  0.5686E+00  0.2336E+01
  -6.860  0.5969E+00  0.2342E+01
  -6.850  0.6263E+00  0.2348E+01
  -6.840  0.6566E+00  0.2354E+01
  -6.830  0.6870E+00  0.2361E+01
  -6.820  0.7171E+00  0.2368E+01
  -6.810  0.7463E+00  0.2376E+01
  -6.800  0.7740E+00  0.2384E+01
  -6.790  0.7995E+00  0.2392E+01
  -6.780  0.8224E+00  0.2400E+01
  -6.770  0.8421E+00  0.2408E+01
  -6.760  0.8582E+00  0.2417E+01
  -6.750  0.8704E+00  0.2426E+01
  -6.740  0.8784E+00  0.2434E+01
  -6.730  0.8821E+00  0.2443E+01
  -6.720  0.8814E+00  0.2452E+01
  -6.710  0.8763E+00  0.2461E+01
  -6.700  0.8671E+00  0.2469E+01
  -6.690  0.8540E+00  0.2478E+01
  -6.680  0.8373E+00  0.2486E+01
  -6.670  0.8173E+00  0.2495E+01
  -6.660  0.7946E+00  0.2502E+01
  -6.650  0.7697E+00  0.2510E+01
  -6.640  0.7430E+00  0.2518E+01
  -6.630  0.7150E+00  0.2525E+01
  -6.620  0.6863E+00  0.2532E+01
  -6.610  0.6573E+00  0.2538E+01
  -6.600  0.6286E+00  0.2544E+01
  -6.590  0.6005E+00  0.2550E+01
  -6.580  0.5733E+00  0.2556E+01
  -6.570  0.5475E+00  0.2562E+01
  -6.560  0.5233E+00  0.2567E+01
  -6.550  0.5009E+00  0.2572E+01
  -6.540  0.4806E+00  0.2577E+01
  -6.530  0.4626E+00  0.2581E+01
  -6.520  0.4470E+00  0.2586E+01
  -6.510  0.4340E+00  0.2590E+01
  -6.500  0.4237E+00  0.2594E+01
  -6.490  0.4162E+00  0.2599E+01
  -6.480  0.4117E+00  0.2603E+01
  -6.470  0.4103E+00  0.2607E+01
  -6.460  0.4119E+00  0.2611E+01
  -6.450  0.4166E+00  0.2615E+01
  -6.440  0.4244E+00  0.2619E+01
  -6.430  0.4352E+00  0.2624E+01
  -6.420  0.4488E+00  0.2628E+01
  -6.410  0.4651E+00  0.2633E+01
  -6.400  0.4837E+00  0.2638E+01
  -6.390  0.5042E+00  0.2643E+01
  -6.380  0.5263E+00  0.2648E+01
  -6.370  0.5494E+00  0.2653E+01
  -6.360  0.5731E+00  0.2659E+01
  -6.350  0.5966E+00  0.2665E+01
  -6.340  0.6196E+00  0.2671E+01
  -6.330  0.6414E+00  0.2678E+01
  -6.320  0.6615E+00  0.2684E+01
  -6.310  0.6795E+00  0.2691E+01
  -6.300  0.6948E+00  0.2698E+01
  -6.290  0.7073E+00  0.2705E+01
  -6.280  0.7166E+00  0.2712E+01
  -6.270  0.7227E+00  0.2720E+01
  -6.260  0.7255E+00  0.2727E+01
  -6.250  0.7251E+00  0.2734E+01
  -6.240  0.7217E+00  0.2741E+01
  -6.230  0.7153E+00  0.2748E+01
  -6.220  0.7064E+00  0.2756E+01
  -6.210  0.6953E+00  0.2762E+01
  -6.200  0.6824E+00  0.2769E+01
  -6.190  0.6680E+00  0.2776E+01
  -6.180  0.6526E+00  0.2783E+01
  -6.170  0.6366E+00  0.2789E+01
  -6.160  0.6205E+00  0.2795E+01
  -6.150  0.6046E+00  0.2801E+01
  -6.140  0.5892E+00  0.2807E+01
  -6.130  0.5749E+00  0.2813E+01
  -6.120  0.5618E+00  0.2818E+01
  -6.110  0.5502E+00  0.2824E+01
  -6.100  0.5404E+00  0.2829E+01
  -6.090  0.5325E+00  0.2835E+01
  -6.080  0.5268E+00  0.2840E+01
  -6.070  0.5234E+00  0.2845E+01
  -6.060  0.5222E+00  0.2850E+01
  -6.050  0.5233E+00  0.2856E+01
  -6.040  0.5268E+00  0.2861E+01
  -6.030  0.5325E+00  0.2866E+01
  -6.020  0.5402E+00  0.2872E+01
  -6.010  0.5499E+00  0.2877E+01
  -6.000  0.5613E+00  0.2883E+01
  -5.990  0.5740E+00  0.2888E+01
  -5.980  0.5877E+00  0.2894E+01
  -5.970  0.6020E+00  0.2900E+01
  -5.960  0.6163E+00  0.2906E+01
  -5.950  0.6303E+00  0.2913E+01
  -5.940  0.6433E+00  0.2919E+01
  -5.930  0.6548E+00  0.2926E+01
  -5.920  0.6643E+00  0.2932E+01
  -5.910  0.6711E+00  0.2939E+01
  -5.900  0.6749E+00  0.2946E+01
  -5.890  0.6752E+00  0.2953E+01
  -5.880  0.6718E+00  0.2959E+01
  -5.870  0.6644E+00  0.2966E+01
  -5.860  0.6532E+00  0.2973E+01
  -5.850  0.6382E+00  0.2979E+01
  -5.840  0.6197E+00  0.2985E+01
  -5.830  0.5980E+00  0.2991E+01
  -5.820  0.5739E+00  0.2997E+01
  -5.810  0.5479E+00  0.3002E+01
  -5.800  0.5209E+00  0.3008E+01
  -5.790  0.4936E+00  0.3012E+01
  -5.780  0.4670E+00  0.3017E+01
  -5.770  0.4418E+00  0.3022E+01
  -5.760  0.4188E+00  0.3026E+01
  -5.750  0.3989E+00  0.3030E+01
  -5.740  0.3827E+00  0.3034E+01
  -5.730  0.3706E+00  0.3037E+01
  -5.720  0.3630E+00  0.3041E+01
  -5.710  0.3602E+00  0.3044E+01
  -5.700  0.3623E+00  0.3048E+01
  -5.690  0.3691E+00  0.3052E+01
  -5.680  0.3805E+00  0.3056E+01
  -5.670  0.3961E+00  0.3060E+01
  -5.660  0.4155E+00  0.3064E+01
  -5.650  0.4380E+00  0.3068E+01
  -5.640  0.4632E+00  0.3073E+01
  -5.630  0.4903E+00  0.3078E+01
  -5.620  0.5186E+00  0.3083E+01
  -5.610  0.5475E+00  0.3088E+01
  -5.600  0.5761E+00  0.3094E+01
  -5.590  0.6040E+00  0.3100E+01
  -5.580  0.6305E+00  0.3106E+01
  -5.570  0.6550E+00  0.3113E+01
  -5.560  0.6771E+00  0.3120E+01
  -5.550  0.6965E+00  0.3127E+01
  -5.540  0.7129E+00  0.3134E+01
  -5.530  0.7260E+00  0.3141E+01
  -5.520  0.7359E+00  0.3148E+01
  -5.510  0.7425E+00  0.3156E+01
  -5.500  0.7459E+00  0.3163E+01
  -5.490  0.7462E+00  0.3171E+01
  -5.480  0.7436E+00  0.3178E+01
  -5.470  0.7384E+00  0.3186E+01
  -5.460  0.7308E+00  0.3193E+01
  -5.450  0.7212E+00  0.3200E+01
  -5.440  0.7098E+00  0.3207E+01
  -5.430  0.6970E+00  0.3214E+01
  -5.420  0.6830E+00  0.3221E+01
  -5.410  0.6682E+00  0.3228E+01
  -5.400  0.6529E+00  0.3234E+01
  -5.390  0.6372E+00  0.3241E+01
  -5.380  0.6213E+00  0.3247E+01
  -5.370  0.6056E+00  0.3253E+01
  -5.360  0.5902E+00  0.3259E+01
  -5.350  0.5753E+00  0.3265E+01
  -5.340  0.5609E+00  0.3270E+01
  -5.330  0.5474E+00  0.3276E+01
  -5.320  0.5347E+00  0.3281E+01
  -5.310  0.5230E+00  0.3286E+01
  -5.300  0.5123E+00  0.3291E+01
  -5.290  0.5027E+00  0.3296E+01
  -5.280  0.4942E+00  0.3301E+01
  -5.270  0.4867E+00  0.3306E+01
  -5.260  0.4802E+00  0.3311E+01
  -5.250  0.4745E+00  0.3316E+01
  -5.240  0.4695E+00  0.3320E+01
  -5.230  0.4651E+00  0.3325E+01
  -5.220  0.4611E+00  0.3330E+01
  -5.210  0.4572E+00  0.3334E+01
  -5.200  0.4535E+00  0.3339E+01
  -5.190  0.4496E+00  0.3343E+01
  -5.180  0.4456E+00  0.3348E+01
  -5.170  0.4414E+00  0.3352E+01
  -5.160  0.4370E+00  0.3356E+01
  -5.150  0.4326E+00  0.3361E+01
  -5.140  0.4281E+00  0.3365E+01
  -5.130  0.4240E+00  0.3369E+01
  -5.120  0.4203E+00  0.3374E+01
  -5.110  0.4173E+00  0.3378E+01
  -5.100  0.4154E+00  0.3382E+01
  -5.090  0.4148E+00  0.3386E+01
  -5.080  0.4156E+00  0.3390E+01
  -5.070  0.4182E+00  0.3394E+01
  -5.060  0.4226E+00  0.3399E+01
  -5.050  0.4290E+00  0.3403E+01
  -5.040  0.4373E+00  0.3407E+01
  -5.030  0.4474E+00  0.3412E+01
  -5.020  0.4592E+00  0.3416E+01
  -5.010  0.4724E+00  0.3421E+01
  -5.000  0.4867E+00  0.3426E+01
  -4.990  0.5017E+00  0.3431E+01
  -4.980  0.5170E+00  0.3436E+01
  -4.970  0.5321E+00  0.3441E+01
  -4.960  0.5466E+00  0.3447E+01
  -4.950  0.5601E+00  0.3452E+01
  -4.940  0.5721E+00  0.3458E+01
  -4.930  0.5822E+00  0.3464E+01
  -4.920  0.5902E+00  0.3470E+01
  -4.910  0.5959E+00  0.3476E+01
  -4.900  0.5991E+00  0.3482E+01
  -4.890  0.5998E+00  0.3488E+01
  -4.880  0.5980E+00  0.3494E+01
  -4.870  0.5939E+00  0.3500E+01
  -4.860  0.5876E+00  0.3506E+01
  -4.850  0.5794E+00  0.3511E+01
  -4.840  0.5695E+00  0.3517E+01
  -4.830  0.5584E+00  0.3523E+01
  -4.820  0.5464E+00  0.3528E+01
  -4.810  0.5338E+00  0.3534E+01
  -4.800  0.5208E+00  0.3539E+01
  -4.790  0.5079E+00  0.3544E+01
  -4.780  0.4952E+00  0.3549E+01
  -4.770  0.4830E+00  0.3554E+01
  -4.760  0.4712E+00  0.3558E+01
  -4.750  0.4602E+00  0.3563E+01
  -4.740  0.4498E+00  0.3567E+01
  -4.730  0.4400E+00  0.3572E+01
  -4.720  0.4308E+00  0.3576E+01
  -4.710  0.4221E+00  0.3580E+01
  -4.700  0.4137E+00  0.3584E+01
  -4.690  0.4057E+00  0.3589E+01
  -4.680  0.3978E+00  0.3593E+01
  -4.670  0.3900E+00  0.3596E+01
  -4.660  0.3823E+00  0.3600E+01
  -4.650  0.3745E+00  0.3604E+01
  -4.640  0.3667E+00  0.3608E+01
  -4.630  0.3588E+00  0.3611E+01
  -4.620  0.3509E+00  0.3615E+01
  -4.610  0.3430E+00  0.3618E+01
  -4.600  0.3351E+00  0.3622E+01
  -4.590  0.3273E+00  0.3625E+01
  -4.580  0.3197E+00  0.3628E+01
  -4.570  0.3124E+00  0.3631E+01
  -4.560  0.3053E+00  0.3634E+01
  -4.550  0.2986E+00  0.3637E+01
  -4.540  0.2923E+00  0.3640E+01
  -4.530  0.2865E+00  0.3643E+01
  -4.520  0.2812E+00  0.3646E+01
  -4.510  0.2766E+00  0.3649E+01
  -4.500  0.2726E+00  0.3651E+01
  -4.490  0.2693E+00  0.3654E+01
  -4.480  0.2669E+00  0.3657E+01
  -4.470  0.2653E+00  0.3659E+01
  -4.460  0.2646E+00  0.3662E+01
  -4.450  0.2649E+00  0.3665E+01
  -4.440  0.2663E+00  0.3667E+01
  -4.430  0.2689E+00  0.3670E+01
  -4.420  0.2728E+00  0.3673E+01
  -4.410  0.2781E+00  0.3675E+01
  -4.400  0.2850E+00  0.3678E+01
  -4.390  0.2936E+00  0.3681E+01
  -4.380  0.3041E+00  0.3684E+01
  -4.370  0.3167E+00  0.3687E+01
  -4.360  0.3315E+00  0.3691E+01
  -4.350  0.3489E+00  0.3694E+01
  -4.340  0.3688E+00  0.3698E+01
  -4.330  0.3914E+00  0.3702E+01
  -4.320  0.4168E+00  0.3706E+01
  -4.310  0.4449E+00  0.3710E+01
  -4.300  0.4756E+00  0.3715E+01
  -4.290  0.5086E+00  0.3720E+01
  -4.280  0.5437E+00  0.3726E+01
  -4.270  0.5803E+00  0.3732E+01
  -4.260  0.6178E+00  0.3738E+01
  -4.250  0.6556E+00  0.3744E+01
  -4.240  0.6929E+00  0.3751E+01
  -4.230  0.7289E+00  0.3758E+01
  -4.220  0.7626E+00  0.3766E+01
  -4.210  0.7932E+00  0.3774E+01
  -4.200  0.8198E+00  0.3782E+01
  -4.190  0.8416E+00  0.3791E+01
  -4.180  0.8579E+00  0.3799E+01
  -4.170  0.8681E+00  0.3808E+01
  -4.160  0.8719E+00  0.3817E+01
  -4.150  0.8689E+00  0.3825E+01
  -4.140  0.8591E+00  0.3834E+01
  -4.130  0.8427E+00  0.3842E+01
  -4.120  0.8198E+00  0.3851E+01
  -4.110  0.7911E+00  0.3858E+01
  -4.100  0.7572E+00  0.3866E+01
  -4.090  0.7189E+00  0.3873E+01
  -4.080  0.6769E+00  0.3880E+01
  -4.070  0.6324E+00  0.3886E+01
  -4.060  0.5862E+00  0.3892E+01
  -4.050  0.5393E+00  0.3898E+01
  -4.040  0.4927E+00  0.3902E+01
  -4.030  0.4472E+00  0.3907E+01
  -4.020  0.4036E+00  0.3911E+01
  -4.010  0.3624E+00  0.3915E+01
  -4.000  0.3243E+00  0.3918E+01
  -3.990  0.2897E+00  0.3921E+01
  -3.980  0.2586E+00  0.3923E+01
  -3.970  0.2314E+00  0.3926E+01
  -3.960  0.2079E+00  0.3928E+01
  -3.950  0.1881E+00  0.3930E+01
  -3.940  0.1718E+00  0.3931E+01
  -3.930  0.1587E+00  0.3933E+01
  -3.920  0.1486E+00  0.3934E+01
  -3.910  0.1412E+00  0.3936E+01
  -3.900  0.1361E+00  0.3937E+01
  -3.890  0.1332E+00  0.3938E+01
  -3.880  0.1320E+00  0.3940E+01
  -3.870  0.1325E+00  0.3941E+01
  -3.860  0.1343E+00  0.3942E+01
  -3.850  0.1375E+00  0.3944E+01
  -3.840  0.1418E+00  0.3945E+01
  -3.830  0.1472E+00  0.3947E+01
  -3.820  0.1536E+00  0.3948E+01
  -3.810  0.1611E+00  0.3950E+01
  -3.800  0.1697E+00  0.3952E+01
  -3.790  0.1792E+00  0.3953E+01
  -3.780  0.1898E+00  0.3955E+01
  -3.770  0.2014E+00  0.3957E+01
  -3.760  0.2140E+00  0.3959E+01
  -3.750  0.2275E+00  0.3962E+01
  -3.740  0.2418E+00  0.3964E+01
  -3.730  0.2569E+00  0.3967E+01
  -3.720  0.2727E+00  0.3969E+01
  -3.710  0.2889E+00  0.3972E+01
  -3.700  0.3055E+00  0.3975E+01
  -3.690  0.3222E+00  0.3979E+01
  -3.680  0.3390E+00  0.3982E+01
  -3.670  0.3554E+00  0.3986E+01
  -3.660  0.3713E+00  0.3989E+01
  -3.650  0.3865E+00  0.3993E+01
  -3.640  0.4007E+00  0.3997E+01
  -3.630  0.4135E+00  0.4001E+01
  -3.620  0.4247E+00  0.4006E+01
  -3.610  0.4340E+00  0.4010E+01
  -3.600  0.4411E+00  0.4014E+01
  -3.590  0.4458E+00  0.4019E+01
  -3.580  0.4480E+00  0.4023E+01
  -3.570  0.4473E+00  0.4028E+01
  -3.560  0.4439E+00  0.4032E+01
  -3.550  0.4376E+00  0.4036E+01
  -3.540  0.4285E+00  0.4041E+01
  -3.530  0.4167E+00  0.4045E+01
  -3.520  0.4026E+00  0.4049E+01
  -3.510  0.3863E+00  0.4053E+01
  -3.500  0.3682E+00  0.4057E+01
  -3.490  0.3488E+00  0.4060E+01
  -3.480  0.3284E+00  0.4063E+01
  -3.470  0.3075E+00  0.4066E+01
  -3.460  0.2866E+00  0.4069E+01
  -3.450  0.2660E+00  0.4072E+01
  -3.440  0.2461E+00  0.4074E+01
  -3.430  0.2272E+00  0.4077E+01
  -3.420  0.2095E+00  0.4079E+01
  -3.410  0.1933E+00  0.4081E+01
  -3.400  0.1786E+00  0.4082E+01
  -3.390  0.1654E+00  0.4084E+01
  -3.380  0.1537E+00  0.4086E+01
  -3.370  0.1434E+00  0.4087E+01
  -3.360  0.1344E+00  0.4088E+01
  -3.350  0.1264E+00  0.4090E+01
  -3.340  0.1194E+00  0.4091E+01
  -3.330  0.1131E+00  0.4092E+01
  -3.320  0.1074E+00  0.4093E+01
  -3.310  0.1021E+00  0.4094E+01
  -3.300  0.9719E-01  0.4095E+01
  -3.290  0.9252E-01  0.4096E+01
  -3.280  0.8809E-01  0.4097E+01
  -3.270  0.8391E-01  0.4098E+01
  -3.260  0.8004E-01  0.4098E+01
  -3.250  0.7655E-01  0.4099E+01
  -3.240  0.7355E-01  0.4100E+01
  -3.230  0.7117E-01  0.4101E+01
  -3.220  0.6953E-01  0.4101E+01
  -3.210  0.6876E-01  0.4102E+01
  -3.200  0.6899E-01  0.4103E+01
  -3.190  0.7029E-01  0.4103E+01
  -3.180  0.7275E-01  0.4104E+01
  -3.170  0.7640E-01  0.4105E+01
  -3.160  0.8125E-01  0.4106E+01
  -3.150  0.8724E-01  0.4107E+01
  -3.140  0.9430E-01  0.4108E+01
  -3.130  0.1023E+00  0.4109E+01
  -3.120  0.1111E+00  0.4110E+01
  -3.110  0.1206E+00  0.4111E+01
  -3.100  0.1304E+00  0.4112E+01
  -3.090  0.1405E+00  0.4114E+01
  -3.080  0.1506E+00  0.4115E+01
  -3.070  0.1604E+00  0.4117E+01
  -3.060  0.1699E+00  0.4118E+01
  -3.050  0.1787E+00  0.4120E+01
  -3.040  0.1869E+00  0.4122E+01
  -3.030  0.1943E+00  0.4124E+01
  -3.020  0.2008E+00  0.4126E+01
  -3.010  0.2065E+00  0.4128E+01
  -3.000  0.2112E+00  0.4130E+01
  -2.990  0.2151E+00  0.4132E+01
  -2.980  0.2181E+00  0.4135E+01
  -2.970  0.2204E+00  0.4137E+01
  -2.960  0.2219E+00  0.4139E+01
  -2.950  0.2227E+00  0.4141E+01
  -2.940  0.2228E+00  0.4143E+01
  -2.930  0.2223E+00  0.4146E+01
  -2.920  0.2210E+00  0.4148E+01
  -2.910  0.2190E+00  0.4150E+01
  -2.900  0.2162E+00  0.4152E+01
  -2.890  0.2126E+00  0.4154E+01
  -2.880  0.2081E+00  0.4156E+01
  -2.870  0.2027E+00  0.4158E+01
  -2.860  0.1964E+00  0.4160E+01
  -2.850  0.1891E+00  0.4162E+01
  -2.840  0.1809E+00  0.4164E+01
  -2.830  0.1718E+00  0.4166E+01
  -2.820  0.1620E+00  0.4167E+01
  -2.810  0.1517E+00  0.4169E+01
  -2.800  0.1409E+00  0.4170E+01
  -2.790  0.1298E+00  0.4172E+01
  -2.780  0.1186E+00  0.4173E+01
  -2.770  0.1076E+00  0.4174E+01
  -2.760  0.9694E-01  0.4175E+01
  -2.750  0.8678E-01  0.4176E+01
  -2.740  0.7730E-01  0.4177E+01
  -2.730  0.6865E-01  0.4177E+01
  -2.720  0.6096E-01  0.4178E+01
  -2.710  0.5432E-01  0.4178E+01
  -2.700  0.4880E-01  0.4179E+01
  -2.690  0.4443E-01  0.4179E+01
  -2.680  0.4123E-01  0.4180E+01
  -2.670  0.3918E-01  0.4180E+01
  -2.660  0.3824E-01  0.4181E+01
  -2.650  0.3834E-01  0.4181E+01
  -2.640  0.3941E-01  0.4181E+01
  -2.630  0.4133E-01  0.4182E+01
  -2.620  0.4399E-01  0.4182E+01
  -2.610  0.4726E-01  0.4183E+01
  -2.600  0.5098E-01  0.4183E+01
  -2.590  0.5501E-01  0.4184E+01
  -2.580  0.5918E-01  0.4184E+01
  -2.570  0.6334E-01  0.4185E+01
  -2.560  0.6732E-01  0.4186E+01
  -2.550  0.7098E-01  0.4186E+01
  -2.540  0.7418E-01  0.4187E+01
  -2.530  0.7680E-01  0.4188E+01
  -2.520  0.7876E-01  0.4189E+01
  -2.510  0.7998E-01  0.4189E+01
  -2.500  0.8043E-01  0.4190E+01
  -2.490  0.8010E-01  0.4191E+01
  -2.480  0.7902E-01  0.4192E+01
  -2.470  0.7726E-01  0.4193E+01
  -2.460  0.7490E-01  0.4193E+01
  -2.450  0.7206E-01  0.4194E+01
  -2.440  0.6886E-01  0.4195E+01
  -2.430  0.6546E-01  0.4195E+01
  -2.420  0.6201E-01  0.4196E+01
  -2.410  0.5866E-01  0.4197E+01
  -2.400  0.5556E-01  0.4197E+01
  -2.390  0.5286E-01  0.4198E+01
  -2.380  0.5066E-01  0.4198E+01
  -2.370  0.4906E-01  0.4199E+01
  -2.360  0.4815E-01  0.4199E+01
  -2.350  0.4794E-01  0.4200E+01
  -2.340  0.4845E-01  0.4200E+01
  -2.330  0.4967E-01  0.4201E+01
  -2.320  0.5153E-01  0.4201E+01
  -2.310  0.5396E-01  0.4202E+01
  -2.300  0.5685E-01  0.4202E+01
  -2.290  0.6007E-01  0.4203E+01
  -2.280  0.6348E-01  0.4203E+01
  -2.270  0.6693E-01  0.4204E+01
  -2.260  0.7026E-01  0.4205E+01
  -2.250  0.7331E-01  0.4206E+01
  -2.240  0.7595E-01  0.4206E+01
  -2.230  0.7805E-01  0.4207E+01
  -2.220  0.7950E-01  0.4208E+01
  -2.210  0.8022E-01  0.4209E+01
  -2.200  0.8017E-01  0.4210E+01
  -2.190  0.7931E-01  0.4210E+01
  -2.180  0.7766E-01  0.4211E+01
  -2.170  0.7527E-01  0.4212E+01
  -2.160  0.7218E-01  0.4213E+01
  -2.150  0.6849E-01  0.4213E+01
  -2.140  0.6430E-01  0.4214E+01
  -2.130  0.5972E-01  0.4214E+01
  -2.120  0.5488E-01  0.4215E+01
  -2.110  0.4989E-01  0.4216E+01
  -2.100  0.4487E-01  0.4216E+01
  -2.090  0.3992E-01  0.4216E+01
  -2.080  0.3514E-01  0.4217E+01
  -2.070  0.3060E-01  0.4217E+01
  -2.060  0.2636E-01  0.4217E+01
  -2.050  0.2246E-01  0.4218E+01
  -2.040  0.1893E-01  0.4218E+01
  -2.030  0.1579E-01  0.4218E+01
  -2.020  0.1303E-01  0.4218E+01
  -2.010  0.1063E-01  0.4218E+01
  -2.000  0.8584E-02  0.4218E+01
  -1.990  0.6856E-02  0.4218E+01
  -1.980  0.5417E-02  0.4218E+01
  -1.970  0.4234E-02  0.4218E+01
  -1.960  0.3274E-02  0.4218E+01
  -1.950  0.2504E-02  0.4218E+01
  -1.940  0.1895E-02  0.4218E+01
  -1.930  0.1418E-02  0.4218E+01
  -1.920  0.1050E-02  0.4218E+01
  -1.910  0.7697E-03  0.4218E+01
  -1.900  0.5581E-03  0.4218E+01
  -1.890  0.4006E-03  0.4218E+01
  -1.880  0.2849E-03  0.4218E+01
  -1.870  0.2011E-03  0.4218E+01
  -1.860  0.1416E-03  0.4218E+01
  -1.850  0.1005E-03  0.4218E+01
  -1.840  0.7334E-04  0.4218E+01
  -1.830  0.5715E-04  0.4218E+01
  -1.820  0.5005E-04  0.4218E+01
  -1.810  0.5121E-04  0.4218E+01
  -1.800  0.6075E-04  0.4218E+01
  -1.790  0.7981E-04  0.4218E+01
  -1.780  0.1106E-03  0.4218E+01
  -1.770  0.1564E-03  0.4218E+01
  -1.760  0.2221E-03  0.4218E+01
  -1.750  0.3140E-03  0.4218E+01
  -1.740  0.4405E-03  0.4218E+01
  -1.730  0.6119E-03  0.4219E+01
  -1.720  0.8415E-03  0.4219E+01
  -1.710  0.1145E-02  0.4219E+01
  -1.700  0.1541E-02  0.4219E+01
  -1.690  0.2053E-02  0.4219E+01
  -1.680  0.2705E-02  0.4219E+01
  -1.670  0.3525E-02  0.4219E+01
  -1.660  0.4545E-02  0.4219E+01
  -1.650  0.5797E-02  0.4219E+01
  -1.640  0.7315E-02  0.4219E+01
  -1.630  0.9131E-02  0.4219E+01
  -1.620  0.1127E-01  0.4219E+01
  -1.610  0.1377E-01  0.4219E+01
  -1.600  0.1664E-01  0.4219E+01
  -1.590  0.1990E-01  0.4220E+01
  -1.580  0.2353E-01  0.4220E+01
  -1.570  0.2753E-01  0.4220E+01
  -1.560  0.3187E-01  0.4220E+01
  -1.550  0.3649E-01  0.4221E+01
  -1.540  0.4133E-01  0.4221E+01
  -1.530  0.4632E-01  0.4222E+01
  -1.520  0.5135E-01  0.4222E+01
  -1.510  0.5633E-01  0.4223E+01
  -1.500  0.6113E-01  0.4223E+01
  -1.490  0.6564E-01  0.4224E+01
  -1.480  0.6975E-01  0.4225E+01
  -1.470  0.7334E-01  0.4225E+01
  -1.460  0.7632E-01  0.4226E+01
  -1.450  0.7862E-01  0.4227E+01
  -1.440  0.8018E-01  0.4228E+01
  -1.430  0.8099E-01  0.4229E+01
  -1.420  0.8104E-01  0.4229E+01
  -1.410  0.8038E-01  0.4230E+01
  -1.400  0.7907E-01  0.4231E+01
  -1.390  0.7721E-01  0.4232E+01
  -1.380  0.7491E-01  0.4232E+01
  -1.370  0.7232E-01  0.4233E+01
  -1.360  0.6958E-01  0.4234E+01
  -1.350  0.6684E-01  0.4235E+01
  -1.340  0.6425E-01  0.4235E+01
  -1.330  0.6196E-01  0.4236E+01
  -1.320  0.6008E-01  0.4236E+01
  -1.310  0.5872E-01  0.4237E+01
  -1.300  0.5795E-01  0.4238E+01
  -1.290  0.5781E-01  0.4238E+01
  -1.280  0.5830E-01  0.4239E+01
  -1.270  0.5941E-01  0.4239E+01
  -1.260  0.6107E-01  0.4240E+01
  -1.250  0.6319E-01  0.4241E+01
  -1.240  0.6567E-01  0.4241E+01
  -1.230  0.6836E-01  0.4242E+01
  -1.220  0.7112E-01  0.4243E+01
  -1.210  0.7381E-01  0.4243E+01
  -1.200  0.7626E-01  0.4244E+01
  -1.190  0.7834E-01  0.4245E+01
  -1.180  0.7992E-01  0.4246E+01
  -1.170  0.8090E-01  0.4246E+01
  -1.160  0.8120E-01  0.4247E+01
  -1.150  0.8078E-01  0.4248E+01
  -1.140  0.7963E-01  0.4249E+01
  -1.130  0.7775E-01  0.4250E+01
  -1.120  0.7520E-01  0.4250E+01
  -1.110  0.7206E-01  0.4251E+01
  -1.100  0.6844E-01  0.4252E+01
  -1.090  0.6446E-01  0.4252E+01
  -1.080  0.6026E-01  0.4253E+01
  -1.070  0.5600E-01  0.4254E+01
  -1.060  0.5183E-01  0.4254E+01
  -1.050  0.4792E-01  0.4255E+01
  -1.040  0.4442E-01  0.4255E+01
  -1.030  0.4148E-01  0.4256E+01
  -1.020  0.3926E-01  0.4256E+01
  -1.010  0.3788E-01  0.4256E+01
  -1.000  0.3748E-01  0.4257E+01
  -0.990  0.3817E-01  0.4257E+01
  -0.980  0.4003E-01  0.4257E+01
  -0.970  0.4315E-01  0.4258E+01
  -0.960  0.4760E-01  0.4258E+01
  -0.950  0.5342E-01  0.4259E+01
  -0.940  0.6063E-01  0.4259E+01
  -0.930  0.6922E-01  0.4260E+01
  -0.920  0.7916E-01  0.4261E+01
  -0.910  0.9038E-01  0.4262E+01
  -0.900  0.1028E+00  0.4263E+01
  -0.890  0.1163E+00  0.4264E+01
  -0.880  0.1306E+00  0.4265E+01
  -0.870  0.1456E+00  0.4267E+01
  -0.860  0.1612E+00  0.4268E+01
  -0.850  0.1769E+00  0.4270E+01
  -0.840  0.1925E+00  0.4272E+01
  -0.830  0.2078E+00  0.4274E+01
  -0.820  0.2225E+00  0.4276E+01
  -0.810  0.2362E+00  0.4279E+01
  -0.800  0.2488E+00  0.4281E+01
  -0.790  0.2599E+00  0.4284E+01
  -0.780  0.2694E+00  0.4287E+01
  -0.770  0.2770E+00  0.4289E+01
  -0.760  0.2827E+00  0.4292E+01
  -0.750  0.2863E+00  0.4295E+01
  -0.740  0.2878E+00  0.4298E+01
  -0.730  0.2873E+00  0.4301E+01
  -0.720  0.2849E+00  0.4304E+01
  -0.710  0.2805E+00  0.4306E+01
  -0.700  0.2745E+00  0.4309E+01
  -0.690  0.2671E+00  0.4312E+01
  -0.680  0.2584E+00  0.4314E+01
  -0.670  0.2487E+00  0.4317E+01
  -0.660  0.2384E+00  0.4319E+01
  -0.650  0.2276E+00  0.4322E+01
  -0.640  0.2166E+00  0.4324E+01
  -0.630  0.2056E+00  0.4326E+01
  -0.620  0.1948E+00  0.4328E+01
  -0.610  0.1845E+00  0.4330E+01
  -0.600  0.1746E+00  0.4331E+01
  -0.590  0.1654E+00  0.4333E+01
  -0.580  0.1568E+00  0.4335E+01
  -0.570  0.1489E+00  0.4336E+01
  -0.560  0.1417E+00  0.4337E+01
  -0.550  0.1351E+00  0.4339E+01
  -0.540  0.1292E+00  0.4340E+01
  -0.530  0.1240E+00  0.4341E+01
  -0.520  0.1193E+00  0.4343E+01
  -0.510  0.1153E+00  0.4344E+01
  -0.500  0.1120E+00  0.4345E+01
  -0.490  0.1095E+00  0.4346E+01
  -0.480  0.1080E+00  0.4347E+01
  -0.470  0.1075E+00  0.4348E+01
  -0.460  0.1083E+00  0.4349E+01
  -0.450  0.1107E+00  0.4350E+01
  -0.440  0.1148E+00  0.4351E+01
  -0.430  0.1209E+00  0.4353E+01
  -0.420  0.1292E+00  0.4354E+01
  -0.410  0.1401E+00  0.4355E+01
  -0.400  0.1536E+00  0.4357E+01
  -0.390  0.1699E+00  0.4359E+01
  -0.380  0.1892E+00  0.4360E+01
  -0.370  0.2115E+00  0.4363E+01
  -0.360  0.2367E+00  0.4365E+01
  -0.350  0.2646E+00  0.4368E+01
  -0.340  0.2952E+00  0.4371E+01
  -0.330  0.3282E+00  0.4374E+01
  -0.320  0.3631E+00  0.4377E+01
  -0.310  0.3996E+00  0.4381E+01
  -0.300  0.4372E+00  0.4386E+01
  -0.290  0.4754E+00  0.4391E+01
  -0.280  0.5136E+00  0.4396E+01
  -0.270  0.5513E+00  0.4401E+01
  -0.260  0.5879E+00  0.4407E+01
  -0.250  0.6229E+00  0.4413E+01
  -0.240  0.6556E+00  0.4420E+01
  -0.230  0.6856E+00  0.4427E+01
  -0.220  0.7124E+00  0.4434E+01
  -0.210  0.7356E+00  0.4441E+01
  -0.200  0.7548E+00  0.4449E+01
  -0.190  0.7699E+00  0.4456E+01
  -0.180  0.7805E+00  0.4464E+01
  -0.170  0.7865E+00  0.4472E+01
  -0.160  0.7881E+00  0.4480E+01
  -0.150  0.7851E+00  0.4488E+01
  -0.140  0.7779E+00  0.4496E+01
  -0.130  0.7665E+00  0.4503E+01
  -0.120  0.7515E+00  0.4511E+01
  -0.110  0.7332E+00  0.4518E+01
  -0.100  0.7122E+00  0.4525E+01
  -0.090  0.6889E+00  0.4532E+01
  -0.080  0.6639E+00  0.4539E+01
  -0.070  0.6379E+00  0.4545E+01
  -0.060  0.6115E+00  0.4551E+01
  -0.050  0.5851E+00  0.4557E+01
  -0.040  0.5594E+00  0.4563E+01
  -0.030  0.5348E+00  0.4568E+01
  -0.020  0.5117E+00  0.4573E+01
  -0.010  0.4904E+00  0.4578E+01
   0.000  0.4710E+00  0.4583E+01
   0.010  0.4537E+00  0.4587E+01
   0.020  0.4386E+00  0.4592E+01
   0.030  0.4254E+00  0.4596E+01
   0.040  0.4140E+00  0.4600E+01
   0.050  0.4044E+00  0.4604E+01
   0.060  0.3961E+00  0.4608E+01
   0.070  0.3890E+00  0.4612E+01
   0.080  0.3828E+00  0.4616E+01
   0.090  0.3772E+00  0.4620E+01
   0.100  0.3720E+00  0.4623E+01
   0.110  0.3671E+00  0.4627E+01
   0.120  0.3622E+00  0.4631E+01
   0.130  0.3572E+00  0.4634E+01
   0.140  0.3521E+00  0.4638E+01
   0.150  0.3469E+00  0.4641E+01
   0.160  0.3415E+00  0.4645E+01
   0.170  0.3361E+00  0.4648E+01
   0.180  0.3306E+00  0.4651E+01
   0.190  0.3251E+00  0.4655E+01
   0.200  0.3198E+00  0.4658E+01
   0.210  0.3148E+00  0.4661E+01
   0.220  0.3101E+00  0.4664E+01
   0.230  0.3060E+00  0.4667E+01
   0.240  0.3025E+00  0.4670E+01
   0.250  0.2998E+00  0.4673E+01
   0.260  0.2981E+00  0.4676E+01
   0.270  0.2974E+00  0.4679E+01
   0.280  0.2979E+00  0.4682E+01
   0.290  0.2998E+00  0.4685E+01
   0.300  0.3032E+00  0.4688E+01
   0.310  0.3081E+00  0.4691E+01
   0.320  0.3146E+00  0.4694E+01
   0.330  0.3227E+00  0.4697E+01
   0.340  0.3324E+00  0.4701E+01
   0.350  0.3435E+00  0.4704E+01
   0.360  0.3558E+00  0.4708E+01
   0.370  0.3691E+00  0.4711E+01
   0.380  0.3832E+00  0.4715E+01
   0.390  0.3975E+00  0.4719E+01
   0.400  0.4117E+00  0.4723E+01
   0.410  0.4254E+00  0.4728E+01
   0.420  0.4382E+00  0.4732E+01
   0.430  0.4495E+00  0.4737E+01
   0.440  0.4591E+00  0.4741E+01
   0.450  0.4666E+00  0.4746E+01
   0.460  0.4718E+00  0.4751E+01
   0.470  0.4744E+00  0.4755E+01
   0.480  0.4744E+00  0.4760E+01
   0.490  0.4718E+00  0.4765E+01
   0.500  0.4666E+00  0.4769E+01
   0.510  0.4592E+00  0.4774E+01
   0.520  0.4495E+00  0.4778E+01
   0.530  0.4381E+00  0.4783E+01
   0.540  0.4252E+00  0.4787E+01
   0.550  0.4111E+00  0.4791E+01
   0.560  0.3962E+00  0.4795E+01
   0.570  0.3809E+00  0.4799E+01
   0.580  0.3655E+00  0.4803E+01
   0.590  0.3503E+00  0.4806E+01
   0.600  0.3357E+00  0.4810E+01
   0.610  0.3220E+00  0.4813E+01
   0.620  0.3093E+00  0.4816E+01
   0.630  0.2980E+00  0.4819E+01
   0.640  0.2881E+00  0.4822E+01
   0.650  0.2798E+00  0.4824E+01
   0.660  0.2731E+00  0.4827E+01
   0.670  0.2682E+00  0.4830E+01
   0.680  0.2649E+00  0.4833E+01
   0.690  0.2633E+00  0.4835E+01
   0.700  0.2632E+00  0.4838E+01
   0.710  0.2645E+00  0.4840E+01
   0.720  0.2669E+00  0.4843E+01
   0.730  0.2703E+00  0.4846E+01
   0.740  0.2743E+00  0.4849E+01
   0.750  0.2786E+00  0.4851E+01
   0.760  0.2830E+00  0.4854E+01
   0.770  0.2872E+00  0.4857E+01
   0.780  0.2909E+00  0.4860E+01
   0.790  0.2938E+00  0.4863E+01
   0.800  0.2956E+00  0.4866E+01
   0.810  0.2963E+00  0.4869E+01
   0.820  0.2956E+00  0.4872E+01
   0.830  0.2936E+00  0.4875E+01
   0.840  0.2901E+00  0.4878E+01
   0.850  0.2853E+00  0.4880E+01
   0.860  0.2793E+00  0.4883E+01
   0.870  0.2721E+00  0.4886E+01
   0.880  0.2642E+00  0.4889E+01
   0.890  0.2557E+00  0.4891E+01
   0.900  0.2469E+00  0.4894E+01
   0.910  0.2381E+00  0.4896E+01
   0.920  0.2297E+00  0.4898E+01
   0.930  0.2220E+00  0.4901E+01
   0.940  0.2153E+00  0.4903E+01
   0.950  0.2098E+00  0.4905E+01
   0.960  0.2058E+00  0.4907E+01
   0.970  0.2034E+00  0.4909E+01
   0.980  0.2027E+00  0.4911E+01
   0.990  0.2037E+00  0.4913E+01
   1.000  0.2065E+00  0.4915E+01
   1.010  0.2110E+00  0.4917E+01
   1.020  0.2170E+00  0.4919E+01
   1.030  0.2244E+00  0.4922E+01
   1.040  0.2330E+00  0.4924E+01
   1.050  0.2427E+00  0.4926E+01
   1.060  0.2532E+00  0.4929E+01
   1.070  0.2645E+00  0.4931E+01
   1.080  0.2764E+00  0.4934E+01
   1.090  0.2888E+00  0.4937E+01
   1.100  0.3018E+00  0.4940E+01
   1.110  0.3153E+00  0.4943E+01
   1.120  0.3295E+00  0.4947E+01
   1.130  0.3445E+00  0.4950E+01
   1.140  0.3603E+00  0.4954E+01
   1.150  0.3772E+00  0.4957E+01
   1.160  0.3951E+00  0.4961E+01
   1.170  0.4142E+00  0.4966E+01
   1.180  0.4345E+00  0.4970E+01
   1.190  0.4559E+00  0.4974E+01
   1.200  0.4782E+00  0.4979E+01
   1.210  0.5013E+00  0.4984E+01
   1.220  0.5247E+00  0.4989E+01
   1.230  0.5481E+00  0.4995E+01
   1.240  0.5710E+00  0.5001E+01
   1.250  0.5928E+00  0.5007E+01
   1.260  0.6130E+00  0.5013E+01
   1.270  0.6311E+00  0.5019E+01
   1.280  0.6466E+00  0.5025E+01
   1.290  0.6589E+00  0.5032E+01
   1.300  0.6678E+00  0.5039E+01
   1.310  0.6729E+00  0.5045E+01
   1.320  0.6743E+00  0.5052E+01
   1.330  0.6717E+00  0.5059E+01
   1.340  0.6654E+00  0.5066E+01
   1.350  0.6556E+00  0.5072E+01
   1.360  0.6425E+00  0.5079E+01
   1.370  0.6266E+00  0.5085E+01
   1.380  0.6084E+00  0.5091E+01
   1.390  0.5883E+00  0.5097E+01
   1.400  0.5668E+00  0.5102E+01
   1.410  0.5445E+00  0.5108E+01
   1.420  0.5218E+00  0.5113E+01
   1.430  0.4991E+00  0.5118E+01
   1.440  0.4768E+00  0.5123E+01
   1.450  0.4553E+00  0.5127E+01
   1.460  0.4347E+00  0.5132E+01
   1.470  0.4154E+00  0.5136E+01
   1.480  0.3975E+00  0.5140E+01
   1.490  0.3811E+00  0.5144E+01
   1.500  0.3665E+00  0.5147E+01
   1.510  0.3536E+00  0.5151E+01
   1.520  0.3427E+00  0.5154E+01
   1.530  0.3337E+00  0.5158E+01
   1.540  0.3267E+00  0.5161E+01
   1.550  0.3218E+00  0.5164E+01
   1.560  0.3191E+00  0.5167E+01
   1.570  0.3186E+00  0.5171E+01
   1.580  0.3202E+00  0.5174E+01
   1.590  0.3241E+00  0.5177E+01
   1.600  0.3300E+00  0.5180E+01
   1.610  0.3380E+00  0.5184E+01
   1.620  0.3479E+00  0.5187E+01
   1.630  0.3594E+00  0.5191E+01
   1.640  0.3724E+00  0.5194E+01
   1.650  0.3865E+00  0.5198E+01
   1.660  0.4015E+00  0.5202E+01
   1.670  0.4170E+00  0.5207E+01
   1.680  0.4326E+00  0.5211E+01
   1.690  0.4480E+00  0.5215E+01
   1.700  0.4626E+00  0.5220E+01
   1.710  0.4763E+00  0.5225E+01
   1.720  0.4885E+00  0.5230E+01
   1.730  0.4989E+00  0.5235E+01
   1.740  0.5073E+00  0.5240E+01
   1.750  0.5136E+00  0.5245E+01
   1.760  0.5174E+00  0.5250E+01
   1.770  0.5188E+00  0.5255E+01
   1.780  0.5177E+00  0.5260E+01
   1.790  0.5143E+00  0.5265E+01
   1.800  0.5087E+00  0.5271E+01
   1.810  0.5011E+00  0.5276E+01
   1.820  0.4919E+00  0.5281E+01
   1.830  0.4814E+00  0.5285E+01
   1.840  0.4700E+00  0.5290E+01
   1.850  0.4581E+00  0.5295E+01
   1.860  0.4462E+00  0.5299E+01
   1.870  0.4346E+00  0.5303E+01
   1.880  0.4239E+00  0.5308E+01
   1.890  0.4142E+00  0.5312E+01
   1.900  0.4060E+00  0.5316E+01
   1.910  0.3995E+00  0.5320E+01
   1.920  0.3949E+00  0.5324E+01
   1.930  0.3923E+00  0.5328E+01
   1.940  0.3917E+00  0.5332E+01
   1.950  0.3933E+00  0.5336E+01
   1.960  0.3969E+00  0.5340E+01
   1.970  0.4025E+00  0.5344E+01
   1.980  0.4100E+00  0.5348E+01
   1.990  0.4191E+00  0.5352E+01
   2.000  0.4299E+00  0.5356E+01
   2.010  0.4420E+00  0.5361E+01
   2.020  0.4554E+00  0.5365E+01
   2.030  0.4700E+00  0.5370E+01
   2.040  0.4855E+00  0.5375E+01
   2.050  0.5019E+00  0.5380E+01
   2.060  0.5189E+00  0.5385E+01
   2.070  0.5365E+00  0.5390E+01
   2.080  0.5546E+00  0.5396E+01
   2.090  0.5729E+00  0.5402E+01
   2.100  0.5913E+00  0.5407E+01
   2.110  0.6096E+00  0.5414E+01
   2.120  0.6276E+00  0.5420E+01
   2.130  0.6451E+00  0.5426E+01
   2.140  0.6618E+00  0.5433E+01
   2.150  0.6775E+00  0.5440E+01
   2.160  0.6920E+00  0.5447E+01
   2.170  0.7050E+00  0.5454E+01
   2.180  0.7164E+00  0.5461E+01
   2.190  0.7259E+00  0.5468E+01
   2.200  0.7334E+00  0.5475E+01
   2.210  0.7388E+00  0.5483E+01
   2.220  0.7420E+00  0.5490E+01
   2.230  0.7430E+00  0.5498E+01
   2.240  0.7419E+00  0.5505E+01
   2.250  0.7387E+00  0.5512E+01
   2.260  0.7336E+00  0.5520E+01
   2.270  0.7267E+00  0.5527E+01
   2.280  0.7182E+00  0.5534E+01
   2.290  0.7083E+00  0.5541E+01
   2.300  0.6974E+00  0.5548E+01
   2.310  0.6857E+00  0.5555E+01
   2.320  0.6734E+00  0.5562E+01
   2.330  0.6609E+00  0.5568E+01
   2.340  0.6485E+00  0.5575E+01
   2.350  0.6365E+00  0.5581E+01
   2.360  0.6252E+00  0.5588E+01
   2.370  0.6147E+00  0.5594E+01
   2.380  0.6053E+00  0.5600E+01
   2.390  0.5971E+00  0.5606E+01
   2.400  0.5904E+00  0.5612E+01
   2.410  0.5850E+00  0.5617E+01
   2.420  0.5810E+00  0.5623E+01
   2.430  0.5784E+00  0.5629E+01
   2.440  0.5770E+00  0.5635E+01
   2.450  0.5766E+00  0.5641E+01
   2.460  0.5771E+00  0.5646E+01
   2.470  0.5782E+00  0.5652E+01
   2.480  0.5798E+00  0.5658E+01
   2.490  0.5816E+00  0.5664E+01
   2.500  0.5834E+00  0.5670E+01
   2.510  0.5851E+00  0.5675E+01
   2.520  0.5866E+00  0.5681E+01
   2.530  0.5879E+00  0.5687E+01
   2.540  0.5889E+00  0.5693E+01
   2.550  0.5898E+00  0.5699E+01
   2.560  0.5905E+00  0.5705E+01
   2.570  0.5914E+00  0.5711E+01
   2.580  0.5924E+00  0.5717E+01
   2.590  0.5938E+00  0.5723E+01
   2.600  0.5957E+00  0.5729E+01
   2.610  0.5980E+00  0.5735E+01
   2.620  0.6010E+00  0.5741E+01
   2.630  0.6046E+00  0.5747E+01
   2.640  0.6087E+00  0.5753E+01
   2.650  0.6132E+00  0.5759E+01
   2.660  0.6179E+00  0.5765E+01
   2.670  0.6227E+00  0.5771E+01
   2.680  0.6274E+00  0.5778E+01
   2.690  0.6317E+00  0.5784E+01
   2.700  0.6355E+00  0.5790E+01
   2.710  0.6385E+00  0.5797E+01
   2.720  0.6409E+00  0.5803E+01
   2.730  0.6424E+00  0.5809E+01
   2.740  0.6432E+00  0.5816E+01
   2.750  0.6434E+00  0.5822E+01
   2.760  0.6432E+00  0.5829E+01
   2.770  0.6429E+00  0.5835E+01
   2.780  0.6427E+00  0.5842E+01
   2.790  0.6430E+00  0.5848E+01
   2.800  0.6442E+00  0.5855E+01
   2.810  0.6466E+00  0.5861E+01
   2.820  0.6505E+00  0.5867E+01
   2.830  0.6562E+00  0.5874E+01
   2.840  0.6640E+00  0.5881E+01
   2.850  0.6740E+00  0.5887E+01
   2.860  0.6861E+00  0.5894E+01
   2.870  0.7005E+00  0.5901E+01
   2.880  0.7169E+00  0.5908E+01
   2.890  0.7353E+00  0.5916E+01
   2.900  0.7552E+00  0.5923E+01
   2.910  0.7764E+00  0.5931E+01
   2.920  0.7984E+00  0.5939E+01
   2.930  0.8209E+00  0.5947E+01
   2.940  0.8434E+00  0.5956E+01
   2.950  0.8655E+00  0.5964E+01
   2.960  0.8867E+00  0.5973E+01
   2.970  0.9067E+00  0.5982E+01
   2.980  0.9251E+00  0.5992E+01
   2.990  0.9416E+00  0.6001E+01
   3.000  0.9559E+00  0.6011E+01
   3.010  0.9677E+00  0.6020E+01
   3.020  0.9770E+00  0.6030E+01
   3.030  0.9836E+00  0.6040E+01
   3.040  0.9874E+00  0.6050E+01
   3.050  0.9883E+00  0.6060E+01
   3.060  0.9865E+00  0.6069E+01
   3.070  0.9819E+00  0.6079E+01
   3.080  0.9747E+00  0.6089E+01
   3.090  0.9650E+00  0.6099E+01
   3.100  0.9531E+00  0.6108E+01
   3.110  0.9392E+00  0.6118E+01
   3.120  0.9237E+00  0.6127E+01
   3.130  0.9070E+00  0.6136E+01
   3.140  0.8894E+00  0.6145E+01
   3.150  0.8714E+00  0.6154E+01
   3.160  0.8535E+00  0.6162E+01
   3.170  0.8362E+00  0.6170E+01
   3.180  0.8199E+00  0.6179E+01
   3.190  0.8049E+00  0.6187E+01
   3.200  0.7917E+00  0.6195E+01
   3.210  0.7804E+00  0.6202E+01
   3.220  0.7713E+00  0.6210E+01
   3.230  0.7643E+00  0.6218E+01
   3.240  0.7594E+00  0.6225E+01
   3.250  0.7565E+00  0.6233E+01
   3.260  0.7553E+00  0.6240E+01
   3.270  0.7556E+00  0.6248E+01
   3.280  0.7568E+00  0.6256E+01
   3.290  0.7586E+00  0.6263E+01
   3.300  0.7606E+00  0.6271E+01
   3.310  0.7624E+00  0.6278E+01
   3.320  0.7637E+00  0.6286E+01
   3.330  0.7642E+00  0.6294E+01
   3.340  0.7637E+00  0.6301E+01
   3.350  0.7622E+00  0.6309E+01
   3.360  0.7597E+00  0.6317E+01
   3.370  0.7564E+00  0.6324E+01
   3.380  0.7525E+00  0.6332E+01
   3.390  0.7485E+00  0.6339E+01
   3.400  0.7446E+00  0.6347E+01
   3.410  0.7414E+00  0.6354E+01
   3.420  0.7393E+00  0.6361E+01
   3.430  0.7387E+00  0.6369E+01
   3.440  0.7402E+00  0.6376E+01
   3.450  0.7440E+00  0.6384E+01
   3.460  0.7503E+00  0.6391E+01
   3.470  0.7593E+00  0.6399E+01
   3.480  0.7711E+00  0.6406E+01
   3.490  0.7854E+00  0.6414E+01
   3.500  0.8021E+00  0.6422E+01
   3.510  0.8209E+00  0.6430E+01
   3.520  0.8412E+00  0.6439E+01
   3.530  0.8625E+00  0.6448E+01
   3.540  0.8842E+00  0.6456E+01
   3.550  0.9058E+00  0.6465E+01
   3.560  0.9265E+00  0.6475E+01
   3.570  0.9459E+00  0.6484E+01
   3.580  0.9633E+00  0.6494E+01
   3.590  0.9783E+00  0.6504E+01
   3.600  0.9905E+00  0.6513E+01
   3.610  0.9996E+00  0.6523E+01
   3.620  0.1005E+01  0.6534E+01
   3.630  0.1008E+01  0.6544E+01
   3.640  0.1007E+01  0.6554E+01
   3.650  0.1003E+01  0.6564E+01
   3.660  0.9951E+00  0.6574E+01
   3.670  0.9846E+00  0.6583E+01
   3.680  0.9715E+00  0.6593E+01
   3.690  0.9559E+00  0.6603E+01
   3.700  0.9382E+00  0.6612E+01
   3.710  0.9189E+00  0.6621E+01
   3.720  0.8983E+00  0.6630E+01
   3.730  0.8769E+00  0.6639E+01
   3.740  0.8553E+00  0.6648E+01
   3.750  0.8339E+00  0.6656E+01
   3.760  0.8133E+00  0.6664E+01
   3.770  0.7941E+00  0.6672E+01
   3.780  0.7769E+00  0.6680E+01
   3.790  0.7624E+00  0.6687E+01
   3.800  0.7510E+00  0.6695E+01
   3.810  0.7432E+00  0.6702E+01
   3.820  0.7395E+00  0.6710E+01
   3.830  0.7402E+00  0.6717E+01
   3.840  0.7454E+00  0.6725E+01
   3.850  0.7551E+00  0.6732E+01
   3.860  0.7692E+00  0.6740E+01
   3.870  0.7873E+00  0.6748E+01
   3.880  0.8090E+00  0.6756E+01
   3.890  0.8335E+00  0.6764E+01
   3.900  0.8601E+00  0.6773E+01
   3.910  0.8878E+00  0.6782E+01
   3.920  0.9157E+00  0.6791E+01
   3.930  0.9428E+00  0.6800E+01
   3.940  0.9681E+00  0.6810E+01
   3.950  0.9906E+00  0.6820E+01
   3.960  0.1009E+01  0.6830E+01
   3.970  0.1024E+01  0.6840E+01
   3.980  0.1034E+01  0.6850E+01
   3.990  0.1038E+01  0.6861E+01
   4.000  0.1037E+01  0.6871E+01
   4.010  0.1030E+01  0.6882E+01
   4.020  0.1018E+01  0.6892E+01
   4.030  0.1001E+01  0.6902E+01
   4.040  0.9792E+00  0.6912E+01
   4.050  0.9540E+00  0.6921E+01
   4.060  0.9259E+00  0.6930E+01
   4.070  0.8958E+00  0.6939E+01
   4.080  0.8645E+00  0.6948E+01
   4.090  0.8331E+00  0.6956E+01
   4.100  0.8026E+00  0.6964E+01
   4.110  0.7737E+00  0.6972E+01
   4.120  0.7474E+00  0.6979E+01
   4.130  0.7243E+00  0.6987E+01
   4.140  0.7052E+00  0.6994E+01
   4.150  0.6904E+00  0.7001E+01
   4.160  0.6804E+00  0.7007E+01
   4.170  0.6753E+00  0.7014E+01
   4.180  0.6752E+00  0.7021E+01
   4.190  0.6800E+00  0.7028E+01
   4.200  0.6895E+00  0.7035E+01
   4.210  0.7033E+00  0.7042E+01
   4.220  0.7210E+00  0.7049E+01
   4.230  0.7419E+00  0.7056E+01
   4.240  0.7654E+00  0.7064E+01
   4.250  0.7909E+00  0.7072E+01
   4.260  0.8174E+00  0.7080E+01
   4.270  0.8444E+00  0.7089E+01
   4.280  0.8708E+00  0.7097E+01
   4.290  0.8961E+00  0.7106E+01
   4.300  0.9194E+00  0.7115E+01
   4.310  0.9402E+00  0.7125E+01
   4.320  0.9578E+00  0.7134E+01
   4.330  0.9718E+00  0.7144E+01
   4.340  0.9819E+00  0.7154E+01
   4.350  0.9880E+00  0.7164E+01
   4.360  0.9899E+00  0.7174E+01
   4.370  0.9879E+00  0.7184E+01
   4.380  0.9821E+00  0.7193E+01
   4.390  0.9729E+00  0.7203E+01
   4.400  0.9608E+00  0.7213E+01
   4.410  0.9464E+00  0.7222E+01
   4.420  0.9302E+00  0.7231E+01
   4.430  0.9128E+00  0.7241E+01
   4.440  0.8948E+00  0.7250E+01
   4.450  0.8768E+00  0.7258E+01
   4.460  0.8590E+00  0.7267E+01
   4.470  0.8418E+00  0.7275E+01
   4.480  0.8253E+00  0.7284E+01
   4.490  0.8096E+00  0.7292E+01
   4.500  0.7946E+00  0.7300E+01
   4.510  0.7800E+00  0.7307E+01
   4.520  0.7657E+00  0.7315E+01
   4.530  0.7513E+00  0.7323E+01
   4.540  0.7366E+00  0.7330E+01
   4.550  0.7212E+00  0.7337E+01
   4.560  0.7051E+00  0.7344E+01
   4.570  0.6882E+00  0.7351E+01
   4.580  0.6707E+00  0.7358E+01
   4.590  0.6526E+00  0.7364E+01
   4.600  0.6346E+00  0.7371E+01
   4.610  0.6172E+00  0.7377E+01
   4.620  0.6009E+00  0.7383E+01
   4.630  0.5867E+00  0.7389E+01
   4.640  0.5754E+00  0.7394E+01
   4.650  0.5678E+00  0.7400E+01
   4.660  0.5646E+00  0.7406E+01
   4.670  0.5667E+00  0.7411E+01
   4.680  0.5745E+00  0.7417E+01
   4.690  0.5885E+00  0.7423E+01
   4.700  0.6088E+00  0.7429E+01
   4.710  0.6355E+00  0.7436E+01
   4.720  0.6681E+00  0.7442E+01
   4.730  0.7063E+00  0.7449E+01
   4.740  0.7493E+00  0.7457E+01
   4.750  0.7961E+00  0.7465E+01
   4.760  0.8458E+00  0.7473E+01
   4.770  0.8969E+00  0.7482E+01
   4.780  0.9484E+00  0.7492E+01
   4.790  0.9989E+00  0.7502E+01
   4.800  0.1047E+01  0.7512E+01
   4.810  0.1092E+01  0.7523E+01
   4.820  0.1133E+01  0.7534E+01
   4.830  0.1168E+01  0.7546E+01
   4.840  0.1197E+01  0.7558E+01
   4.850  0.1220E+01  0.7570E+01
   4.860  0.1237E+01  0.7583E+01
   4.870  0.1247E+01  0.7595E+01
   4.880  0.1251E+01  0.7608E+01
   4.890  0.1249E+01  0.7620E+01
   4.900  0.1242E+01  0.7632E+01
   4.910  0.1231E+01  0.7645E+01
   4.920  0.1216E+01  0.7657E+01
   4.930  0.1198E+01  0.7669E+01
   4.940  0.1179E+01  0.7681E+01
   4.950  0.1159E+01  0.7692E+01
   4.960  0.1140E+01  0.7704E+01
   4.970  0.1121E+01  0.7715E+01
   4.980  0.1104E+01  0.7726E+01
   4.990  0.1089E+01  0.7737E+01
   5.000  0.1077E+01  0.7748E+01
   5.010  0.1068E+01  0.7758E+01
   5.020  0.1062E+01  0.7769E+01
   5.030  0.1059E+01  0.7780E+01
   5.040  0.1059E+01  0.7790E+01
   5.050  0.1061E+01  0.7801E+01
   5.060  0.1066E+01  0.7811E+01
   5.070  0.1072E+01  0.7822E+01
   5.080  0.1080E+01  0.7833E+01
   5.090  0.1088E+01  0.7844E+01
   5.100  0.1096E+01  0.7855E+01
   5.110  0.1103E+01  0.7866E+01
   5.120  0.1108E+01  0.7877E+01
   5.130  0.1111E+01  0.7888E+01
   5.140  0.1112E+01  0.7899E+01
   5.150  0.1110E+01  0.7910E+01
   5.160  0.1105E+01  0.7921E+01
   5.170  0.1097E+01  0.7932E+01
   5.180  0.1087E+01  0.7943E+01
   5.190  0.1073E+01  0.7954E+01
   5.200  0.1058E+01  0.7964E+01
   5.210  0.1041E+01  0.7975E+01
   5.220  0.1024E+01  0.7985E+01
   5.230  0.1006E+01  0.7995E+01
   5.240  0.9887E+00  0.8005E+01
   5.250  0.9727E+00  0.8015E+01
   5.260  0.9586E+00  0.8024E+01
   5.270  0.9471E+00  0.8034E+01
   5.280  0.9385E+00  0.8043E+01
   5.290  0.9332E+00  0.8052E+01
   5.300  0.9313E+00  0.8062E+01
   5.310  0.9330E+00  0.8071E+01
   5.320  0.9381E+00  0.8080E+01
   5.330  0.9464E+00  0.8090E+01
   5.340  0.9576E+00  0.8100E+01
   5.350  0.9710E+00  0.8109E+01
   5.360  0.9863E+00  0.8119E+01
   5.370  0.1003E+01  0.8129E+01
   5.380  0.1020E+01  0.8139E+01
   5.390  0.1038E+01  0.8150E+01
   5.400  0.1055E+01  0.8160E+01
   5.410  0.1071E+01  0.8171E+01
   5.420  0.1086E+01  0.8182E+01
   5.430  0.1099E+01  0.8193E+01
   5.440  0.1111E+01  0.8204E+01
   5.450  0.1121E+01  0.8215E+01
   5.460  0.1130E+01  0.8226E+01
   5.470  0.1137E+01  0.8238E+01
   5.480  0.1143E+01  0.8249E+01
   5.490  0.1149E+01  0.8261E+01
   5.500  0.1154E+01  0.8272E+01
   5.510  0.1159E+01  0.8284E+01
   5.520  0.1165E+01  0.8296E+01
   5.530  0.1173E+01  0.8307E+01
   5.540  0.1182E+01  0.8319E+01
   5.550  0.1194E+01  0.8331E+01
   5.560  0.1209E+01  0.8343E+01
   5.570  0.1227E+01  0.8355E+01
   5.580  0.1249E+01  0.8368E+01
   5.590  0.1275E+01  0.8381E+01
   5.600  0.1304E+01  0.8394E+01
   5.610  0.1336E+01  0.8407E+01
   5.620  0.1372E+01  0.8421E+01
   5.630  0.1410E+01  0.8435E+01
   5.640  0.1451E+01  0.8449E+01
   5.650  0.1493E+01  0.8464E+01
   5.660  0.1536E+01  0.8480E+01
   5.670  0.1579E+01  0.8495E+01
   5.680  0.1621E+01  0.8512E+01
   5.690  0.1662E+01  0.8528E+01
   5.700  0.1700E+01  0.8545E+01
   5.710  0.1736E+01  0.8563E+01
   5.720  0.1769E+01  0.8580E+01
   5.730  0.1798E+01  0.8598E+01
   5.740  0.1824E+01  0.8617E+01
   5.750  0.1845E+01  0.8635E+01
   5.760  0.1863E+01  0.8654E+01
   5.770  0.1876E+01  0.8672E+01
   5.780  0.1886E+01  0.8691E+01
   5.790  0.1892E+01  0.8710E+01
   5.800  0.1894E+01  0.8729E+01
   5.810  0.1892E+01  0.8748E+01
   5.820  0.1888E+01  0.8767E+01
   5.830  0.1881E+01  0.8786E+01
   5.840  0.1871E+01  0.8804E+01
   5.850  0.1859E+01  0.8823E+01
   5.860  0.1845E+01  0.8841E+01
   5.870  0.1830E+01  0.8860E+01
   5.880  0.1813E+01  0.8878E+01
   5.890  0.1797E+01  0.8896E+01
   5.900  0.1780E+01  0.8914E+01
   5.910  0.1763E+01  0.8931E+01
   5.920  0.1748E+01  0.8949E+01
   5.930  0.1734E+01  0.8966E+01
   5.940  0.1721E+01  0.8983E+01
   5.950  0.1711E+01  0.9000E+01
   5.960  0.1703E+01  0.9017E+01
   5.970  0.1697E+01  0.9034E+01
   5.980  0.1694E+01  0.9051E+01
   5.990  0.1693E+01  0.9068E+01
   6.000  0.1695E+01  0.9085E+01
   6.010  0.1700E+01  0.9102E+01
   6.020  0.1707E+01  0.9119E+01
   6.030  0.1715E+01  0.9136E+01
   6.040  0.1725E+01  0.9154E+01
   6.050  0.1737E+01  0.9171E+01
   6.060  0.1749E+01  0.9189E+01
   6.070  0.1763E+01  0.9206E+01
   6.080  0.1776E+01  0.9224E+01
   6.090  0.1790E+01  0.9242E+01
   6.100  0.1803E+01  0.9260E+01
   6.110  0.1817E+01  0.9278E+01
   6.120  0.1830E+01  0.9296E+01
   6.130  0.1843E+01  0.9315E+01
   6.140  0.1856E+01  0.9333E+01
   6.150  0.1868E+01  0.9352E+01
   6.160  0.1881E+01  0.9371E+01
   6.170  0.1893E+01  0.9390E+01
   6.180  0.1906E+01  0.9409E+01
   6.190  0.1918E+01  0.9428E+01
   6.200  0.1930E+01  0.9447E+01
   6.210  0.1942E+01  0.9467E+01
   6.220  0.1953E+01  0.9486E+01
   6.230  0.1964E+01  0.9506E+01
   6.240  0.1973E+01  0.9526E+01
   6.250  0.1981E+01  0.9545E+01
   6.260  0.1988E+01  0.9565E+01
   6.270  0.1992E+01  0.9585E+01
   6.280  0.1994E+01  0.9605E+01
   6.290  0.1994E+01  0.9625E+01
   6.300  0.1991E+01  0.9645E+01
   6.310  0.1985E+01  0.9665E+01
   6.320  0.1977E+01  0.9685E+01
   6.330  0.1967E+01  0.9704E+01
   6.340  0.1956E+01  0.9724E+01
   6.350  0.1943E+01  0.9743E+01
   6.360  0.1929E+01  0.9763E+01
   6.370  0.1915E+01  0.9782E+01
   6.380  0.1902E+01  0.9801E+01
   6.390  0.1889E+01  0.9820E+01
   6.400  0.1877E+01  0.9838E+01
   6.410  0.1868E+01  0.9857E+01
   6.420  0.1861E+01  0.9876E+01
   6.430  0.1857E+01  0.9894E+01
   6.440  0.1856E+01  0.9913E+01
   6.450  0.1858E+01  0.9931E+01
   6.460  0.1864E+01  0.9950E+01
   6.470  0.1874E+01  0.9969E+01
   6.480  0.1888E+01  0.9988E+01
   6.490  0.1905E+01  0.1001E+02
   6.500  0.1926E+01  0.1003E+02
   6.510  0.1951E+01  0.1005E+02
   6.520  0.1979E+01  0.1007E+02
   6.530  0.2010E+01  0.1009E+02
   6.540  0.2044E+01  0.1011E+02
   6.550  0.2079E+01  0.1013E+02
   6.560  0.2116E+01  0.1015E+02
   6.570  0.2154E+01  0.1017E+02
   6.580  0.2193E+01  0.1019E+02
   6.590  0.2232E+01  0.1021E+02
   6.600  0.2270E+01  0.1024E+02
   6.610  0.2306E+01  0.1026E+02
   6.620  0.2342E+01  0.1028E+02
   6.630  0.2375E+01  0.1031E+02
   6.640  0.2407E+01  0.1033E+02
   6.650  0.2436E+01  0.1035E+02
   6.660  0.2461E+01  0.1038E+02
   6.670  0.2484E+01  0.1040E+02
   6.680  0.2504E+01  0.1043E+02
   6.690  0.2520E+01  0.1045E+02
   6.700  0.2532E+01  0.1048E+02
   6.710  0.2540E+01  0.1051E+02
   6.720  0.2544E+01  0.1053E+02
   6.730  0.2544E+01  0.1056E+02
   6.740  0.2539E+01  0.1058E+02
   6.750  0.2529E+01  0.1061E+02
   6.760  0.2514E+01  0.1063E+02
   6.770  0.2495E+01  0.1066E+02
   6.780  0.2471E+01  0.1068E+02
   6.790  0.2442E+01  0.1071E+02
   6.800  0.2409E+01  0.1073E+02
   6.810  0.2373E+01  0.1075E+02
   6.820  0.2334E+01  0.1078E+02
   6.830  0.2292E+01  0.1080E+02
   6.840  0.2249E+01  0.1082E+02
   6.850  0.2205E+01  0.1084E+02
   6.860  0.2160E+01  0.1087E+02
   6.870  0.2116E+01  0.1089E+02
   6.880  0.2072E+01  0.1091E+02
   6.890  0.2030E+01  0.1093E+02
   6.900  0.1990E+01  0.1095E+02
   6.910  0.1952E+01  0.1097E+02
   6.920  0.1916E+01  0.1099E+02
   6.930  0.1881E+01  0.1101E+02
   6.940  0.1849E+01  0.1102E+02
   6.950  0.1818E+01  0.1104E+02
   6.960  0.1789E+01  0.1106E+02
   6.970  0.1760E+01  0.1108E+02
   6.980  0.1732E+01  0.1110E+02
   6.990  0.1704E+01  0.1111E+02
   7.000  0.1676E+01  0.1113E+02
   7.010  0.1647E+01  0.1115E+02
   7.020  0.1618E+01  0.1116E+02
   7.030  0.1589E+01  0.1118E+02
   7.040  0.1559E+01  0.1119E+02
   7.050  0.1529E+01  0.1121E+02
   7.060  0.1499E+01  0.1122E+02
   7.070  0.1470E+01  0.1124E+02
   7.080  0.1442E+01  0.1125E+02
   7.090  0.1414E+01  0.1127E+02
   7.100  0.1389E+01  0.1128E+02
   7.110  0.1365E+01  0.1129E+02
   7.120  0.1344E+01  0.1131E+02
   7.130  0.1326E+01  0.1132E+02
   7.140  0.1311E+01  0.1133E+02
   7.150  0.1298E+01  0.1135E+02
   7.160  0.1288E+01  0.1136E+02
   7.170  0.1281E+01  0.1137E+02
   7.180  0.1277E+01  0.1139E+02
   7.190  0.1275E+01  0.1140E+02
   7.200  0.1275E+01  0.1141E+02
   7.210  0.1277E+01  0.1142E+02
   7.220  0.1281E+01  0.1144E+02
   7.230  0.1286E+01  0.1145E+02
   7.240  0.1292E+01  0.1146E+02
   7.250  0.1299E+01  0.1148E+02
   7.260  0.1306E+01  0.1149E+02
   7.270  0.1315E+01  0.1150E+02
   7.280  0.1324E+01  0.1151E+02
   7.290  0.1334E+01  0.1153E+02
   7.300  0.1344E+01  0.1154E+02
   7.310  0.1355E+01  0.1156E+02
   7.320  0.1365E+01  0.1157E+02
   7.330  0.1375E+01  0.1158E+02
   7.340  0.1385E+01  0.1160E+02
   7.350  0.1394E+01  0.1161E+02
   7.360  0.1402E+01  0.1162E+02
   7.370  0.1408E+01  0.1164E+02
   7.380  0.1413E+01  0.1165E+02
   7.390  0.1415E+01  0.1167E+02
   7.400  0.1415E+01  0.1168E+02
   7.410  0.1413E+01  0.1170E+02
   7.420  0.1408E+01  0.1171E+02
   7.430  0.1401E+01  0.1172E+02
   7.440  0.1391E+01  0.1174E+02
   7.450  0.1378E+01  0.1175E+02
   7.460  0.1364E+01  0.1176E+02
   7.470  0.1348E+01  0.1178E+02
   7.480  0.1331E+01  0.1179E+02
   7.490  0.1313E+01  0.1180E+02
   7.500  0.1295E+01  0.1182E+02
   7.510  0.1277E+01  0.1183E+02
   7.520  0.1259E+01  0.1184E+02
   7.530  0.1243E+01  0.1186E+02
   7.540  0.1229E+01  0.1187E+02
   7.550  0.1217E+01  0.1188E+02
   7.560  0.1206E+01  0.1189E+02
   7.570  0.1199E+01  0.1190E+02
   7.580  0.1194E+01  0.1192E+02
   7.590  0.1192E+01  0.1193E+02
   7.600  0.1193E+01  0.1194E+02
   7.610  0.1196E+01  0.1195E+02
   7.620  0.1202E+01  0.1196E+02
   7.630  0.1209E+01  0.1198E+02
   7.640  0.1219E+01  0.1199E+02
   7.650  0.1229E+01  0.1200E+02
   7.660  0.1241E+01  0.1201E+02
   7.670  0.1253E+01  0.1203E+02
   7.680  0.1265E+01  0.1204E+02
   7.690  0.1276E+01  0.1205E+02
   7.700  0.1286E+01  0.1206E+02
   7.710  0.1296E+01  0.1208E+02
   7.720  0.1303E+01  0.1209E+02
   7.730  0.1309E+01  0.1210E+02
   7.740  0.1313E+01  0.1212E+02
   7.750  0.1315E+01  0.1213E+02
   7.760  0.1315E+01  0.1214E+02
   7.770  0.1313E+01  0.1215E+02
   7.780  0.1309E+01  0.1217E+02
   7.790  0.1303E+01  0.1218E+02
   7.800  0.1296E+01  0.1219E+02
   7.810  0.1288E+01  0.1221E+02
   7.820  0.1278E+01  0.1222E+02
   7.830  0.1269E+01  0.1223E+02
   7.840  0.1259E+01  0.1224E+02
   7.850  0.1249E+01  0.1226E+02
   7.860  0.1240E+01  0.1227E+02
   7.870  0.1233E+01  0.1228E+02
   7.880  0.1226E+01  0.1229E+02
   7.890  0.1221E+01  0.1231E+02
   7.900  0.1218E+01  0.1232E+02
   7.910  0.1217E+01  0.1233E+02
   7.920  0.1217E+01  0.1234E+02
   7.930  0.1219E+01  0.1236E+02
   7.940  0.1222E+01  0.1237E+02
   7.950  0.1227E+01  0.1238E+02
   7.960  0.1232E+01  0.1239E+02
   7.970  0.1238E+01  0.1240E+02
   7.980  0.1243E+01  0.1242E+02
   7.990  0.1249E+01  0.1243E+02
   8.000  0.1254E+01  0.1244E+02
   8.010  0.1258E+01  0.1245E+02
   8.020  0.1262E+01  0.1247E+02
   8.030  0.1264E+01  0.1248E+02
   8.040  0.1266E+01  0.1249E+02
   8.050  0.1266E+01  0.1251E+02
   8.060  0.1266E+01  0.1252E+02
   8.070  0.1265E+01  0.1253E+02
   8.080  0.1264E+01  0.1254E+02
   8.090  0.1262E+01  0.1256E+02
   8.100  0.1260E+01  0.1257E+02
   8.110  0.1258E+01  0.1258E+02
   8.120  0.1256E+01  0.1259E+02
   8.130  0.1254E+01  0.1261E+02
   8.140  0.1253E+01  0.1262E+02
   8.150  0.1251E+01  0.1263E+02
   8.160  0.1251E+01  0.1264E+02
   8.170  0.1250E+01  0.1266E+02
   8.180  0.1250E+01  0.1267E+02
   8.190  0.1251E+01  0.1268E+02
   8.200  0.1252E+01  0.1269E+02
   8.210  0.1253E+01  0.1271E+02
   8.220  0.1254E+01  0.1272E+02
   8.230  0.1256E+01  0.1273E+02
   8.240  0.1258E+01  0.1274E+02
   8.250  0.1259E+01  0.1276E+02
   8.260  0.1261E+01  0.1277E+02
   8.270  0.1262E+01  0.1278E+02
   8.280  0.1263E+01  0.1279E+02
   8.290  0.1262E+01  0.1281E+02
   8.300  0.1261E+01  0.1282E+02
   8.310  0.1259E+01  0.1283E+02
   8.320  0.1256E+01  0.1284E+02
   8.330  0.1251E+01  0.1286E+02
   8.340  0.1246E+01  0.1287E+02
   8.350  0.1239E+01  0.1288E+02
   8.360  0.1231E+01  0.1289E+02
   8.370  0.1223E+01  0.1291E+02
   8.380  0.1214E+01  0.1292E+02
   8.390  0.1205E+01  0.1293E+02
   8.400  0.1197E+01  0.1294E+02
   8.410  0.1191E+01  0.1295E+02
   8.420  0.1185E+01  0.1297E+02
   8.430  0.1182E+01  0.1298E+02
   8.440  0.1181E+01  0.1299E+02
   8.450  0.1183E+01  0.1300E+02
   8.460  0.1188E+01  0.1301E+02
   8.470  0.1195E+01  0.1303E+02
   8.480  0.1206E+01  0.1304E+02
   8.490  0.1220E+01  0.1305E+02
   8.500  0.1236E+01  0.1306E+02
   8.510  0.1255E+01  0.1307E+02
   8.520  0.1275E+01  0.1309E+02
   8.530  0.1298E+01  0.1310E+02
   8.540  0.1321E+01  0.1311E+02
   8.550  0.1346E+01  0.1313E+02
   8.560  0.1371E+01  0.1314E+02
   8.570  0.1396E+01  0.1316E+02
   8.580  0.1421E+01  0.1317E+02
   8.590  0.1445E+01  0.1318E+02
   8.600  0.1468E+01  0.1320E+02
   8.610  0.1489E+01  0.1321E+02
   8.620  0.1510E+01  0.1323E+02
   8.630  0.1529E+01  0.1324E+02
   8.640  0.1545E+01  0.1326E+02
   8.650  0.1560E+01  0.1327E+02
   8.660  0.1572E+01  0.1329E+02
   8.670  0.1581E+01  0.1331E+02
   8.680  0.1587E+01  0.1332E+02
   8.690  0.1589E+01  0.1334E+02
   8.700  0.1588E+01  0.1335E+02
   8.710  0.1582E+01  0.1337E+02
   8.720  0.1573E+01  0.1339E+02
   8.730  0.1559E+01  0.1340E+02
   8.740  0.1541E+01  0.1342E+02
   8.750  0.1519E+01  0.1343E+02
   8.760  0.1493E+01  0.1345E+02
   8.770  0.1464E+01  0.1346E+02
   8.780  0.1433E+01  0.1348E+02
   8.790  0.1401E+01  0.1349E+02
   8.800  0.1367E+01  0.1350E+02
   8.810  0.1335E+01  0.1352E+02
   8.820  0.1303E+01  0.1353E+02
   8.830  0.1275E+01  0.1354E+02
   8.840  0.1250E+01  0.1355E+02
   8.850  0.1230E+01  0.1357E+02
   8.860  0.1216E+01  0.1358E+02
   8.870  0.1208E+01  0.1359E+02
   8.880  0.1207E+01  0.1360E+02
   8.890  0.1212E+01  0.1362E+02
   8.900  0.1224E+01  0.1363E+02
   8.910  0.1242E+01  0.1364E+02
   8.920  0.1266E+01  0.1365E+02
   8.930  0.1294E+01  0.1367E+02
   8.940  0.1326E+01  0.1368E+02
   8.950  0.1360E+01  0.1369E+02
   8.960  0.1395E+01  0.1371E+02
   8.970  0.1429E+01  0.1372E+02
   8.980  0.1461E+01  0.1374E+02
   8.990  0.1490E+01  0.1375E+02
   9.000  0.1514E+01  0.1377E+02
   9.010  0.1532E+01  0.1378E+02
   9.020  0.1544E+01  0.1380E+02
   9.030  0.1549E+01  0.1381E+02
   9.040  0.1547E+01  0.1383E+02
   9.050  0.1538E+01  0.1384E+02
   9.060  0.1522E+01  0.1386E+02
   9.070  0.1501E+01  0.1387E+02
   9.080  0.1474E+01  0.1389E+02
   9.090  0.1444E+01  0.1390E+02
   9.100  0.1411E+01  0.1392E+02
   9.110  0.1377E+01  0.1393E+02
   9.120  0.1342E+01  0.1394E+02
   9.130  0.1308E+01  0.1396E+02
   9.140  0.1276E+01  0.1397E+02
   9.150  0.1247E+01  0.1398E+02
   9.160  0.1221E+01  0.1399E+02
   9.170  0.1199E+01  0.1401E+02
   9.180  0.1181E+01  0.1402E+02
   9.190  0.1168E+01  0.1403E+02
   9.200  0.1158E+01  0.1404E+02
   9.210  0.1153E+01  0.1405E+02
   9.220  0.1151E+01  0.1406E+02
   9.230  0.1152E+01  0.1408E+02
   9.240  0.1156E+01  0.1409E+02
   9.250  0.1162E+01  0.1410E+02
   9.260  0.1170E+01  0.1411E+02
   9.270  0.1178E+01  0.1412E+02
   9.280  0.1187E+01  0.1413E+02
   9.290  0.1196E+01  0.1415E+02
   9.300  0.1205E+01  0.1416E+02
   9.310  0.1213E+01  0.1417E+02
   9.320  0.1221E+01  0.1418E+02
   9.330  0.1228E+01  0.1419E+02
   9.340  0.1234E+01  0.1421E+02
   9.350  0.1238E+01  0.1422E+02
   9.360  0.1241E+01  0.1423E+02
   9.370  0.1243E+01  0.1424E+02
   9.380  0.1243E+01  0.1426E+02
   9.390  0.1242E+01  0.1427E+02
   9.400  0.1239E+01  0.1428E+02
   9.410  0.1234E+01  0.1429E+02
   9.420  0.1228E+01  0.1431E+02
   9.430  0.1221E+01  0.1432E+02
   9.440  0.1212E+01  0.1433E+02
   9.450  0.1203E+01  0.1434E+02
   9.460  0.1192E+01  0.1435E+02
   9.470  0.1181E+01  0.1437E+02
   9.480  0.1170E+01  0.1438E+02
   9.490  0.1158E+01  0.1439E+02
   9.500  0.1146E+01  0.1440E+02
   9.510  0.1135E+01  0.1441E+02
   9.520  0.1123E+01  0.1442E+02
   9.530  0.1112E+01  0.1443E+02
   9.540  0.1101E+01  0.1445E+02
   9.550  0.1090E+01  0.1446E+02
   9.560  0.1078E+01  0.1447E+02
   9.570  0.1067E+01  0.1448E+02
   9.580  0.1056E+01  0.1449E+02
   9.590  0.1044E+01  0.1450E+02
   9.600  0.1031E+01  0.1451E+02
   9.610  0.1019E+01  0.1452E+02
   9.620  0.1005E+01  0.1453E+02
   9.630  0.9921E+00  0.1454E+02
   9.640  0.9787E+00  0.1455E+02
   9.650  0.9654E+00  0.1456E+02
   9.660  0.9526E+00  0.1457E+02
   9.670  0.9406E+00  0.1458E+02
   9.680  0.9298E+00  0.1459E+02
   9.690  0.9206E+00  0.1460E+02
   9.700  0.9133E+00  0.1461E+02
   9.710  0.9083E+00  0.1461E+02
   9.720  0.9057E+00  0.1462E+02
   9.730  0.9058E+00  0.1463E+02
   9.740  0.9087E+00  0.1464E+02
   9.750  0.9144E+00  0.1465E+02
   9.760  0.9228E+00  0.1466E+02
   9.770  0.9337E+00  0.1467E+02
   9.780  0.9467E+00  0.1468E+02
   9.790  0.9615E+00  0.1469E+02
   9.800  0.9775E+00  0.1470E+02
   9.810  0.9942E+00  0.1471E+02
   9.820  0.1011E+01  0.1472E+02
   9.830  0.1027E+01  0.1473E+02
   9.840  0.1042E+01  0.1474E+02
   9.850  0.1055E+01  0.1475E+02
   9.860  0.1065E+01  0.1476E+02
   9.870  0.1072E+01  0.1477E+02
   9.880  0.1075E+01  0.1478E+02
   9.890  0.1075E+01  0.1479E+02
   9.900  0.1071E+01  0.1480E+02
   9.910  0.1063E+01  0.1481E+02
   9.920  0.1051E+01  0.1482E+02
   9.930  0.1036E+01  0.1483E+02
   9.940  0.1018E+01  0.1484E+02
   9.950  0.9985E+00  0.1485E+02
   9.960  0.9776E+00  0.1486E+02
   9.970  0.9566E+00  0.1487E+02
   9.980  0.9364E+00  0.1488E+02
   9.990  0.9180E+00  0.1489E+02
  10.000  0.9024E+00  0.1490E+02
