#  E (eV)   dos(E)     Int dos(E) EFermi =   -1.633 eV
 -10.000  0.4068E+00  0.4068E-02
  -9.990  0.4075E+00  0.8143E-02
  -9.980  0.4085E+00  0.1223E-01
  -9.970  0.4096E+00  0.1632E-01
  -9.960  0.4107E+00  0.2043E-01
  -9.950  0.4117E+00  0.2455E-01
  -9.940  0.4126E+00  0.2867E-01
  -9.930  0.4133E+00  0.3281E-01
  -9.920  0.4138E+00  0.3695E-01
  -9.910  0.4142E+00  0.4109E-01
  -9.900  0.4146E+00  0.4523E-01
  -9.890  0.4149E+00  0.4938E-01
  -9.880  0.4154E+00  0.5354E-01
  -9.870  0.4161E+00  0.5770E-01
  -9.860  0.4171E+00  0.6187E-01
  -9.850  0.4186E+00  0.6605E-01
  -9.840  0.4205E+00  0.7026E-01
  -9.830  0.4229E+00  0.7449E-01
  -9.820  0.4257E+00  0.7874E-01
  -9.810  0.4291E+00  0.8303E-01
  -9.800  0.4328E+00  0.8736E-01
  -9.790  0.4368E+00  0.9173E-01
  -9.780  0.4408E+00  0.9614E-01
  -9.770  0.4448E+00  0.1006E+00
  -9.760  0.4485E+00  0.1051E+00
  -9.750  0.4518E+00  0.1096E+00
  -9.740  0.4545E+00  0.1141E+00
  -9.730  0.4564E+00  0.1187E+00
  -9.720  0.4573E+00  0.1233E+00
  -9.710  0.4573E+00  0.1278E+00
  -9.700  0.4562E+00  0.1324E+00
  -9.690  0.4541E+00  0.1369E+00
  -9.680  0.4511E+00  0.1415E+00
  -9.670  0.4472E+00  0.1459E+00
  -9.660  0.4427E+00  0.1504E+00
  -9.650  0.4378E+00  0.1547E+00
  -9.640  0.4327E+00  0.1591E+00
  -9.630  0.4276E+00  0.1633E+00
  -9.620  0.4230E+00  0.1676E+00
  -9.610  0.4190E+00  0.1718E+00
  -9.600  0.4159E+00  0.1759E+00
  -9.590  0.4139E+00  0.1801E+00
  -9.580  0.4132E+00  0.1842E+00
  -9.570  0.4139E+00  0.1883E+00
  -9.560  0.4160E+00  0.1925E+00
  -9.550  0.4196E+00  0.1967E+00
  -9.540  0.4246E+00  0.2009E+00
  -9.530  0.4307E+00  0.2052E+00
  -9.520  0.4380E+00  0.2096E+00
  -9.510  0.4461E+00  0.2141E+00
  -9.500  0.4548E+00  0.2186E+00
  -9.490  0.4638E+00  0.2233E+00
  -9.480  0.4729E+00  0.2280E+00
  -9.470  0.4819E+00  0.2328E+00
  -9.460  0.4904E+00  0.2377E+00
  -9.450  0.4985E+00  0.2427E+00
  -9.440  0.5058E+00  0.2478E+00
  -9.430  0.5125E+00  0.2529E+00
  -9.420  0.5184E+00  0.2581E+00
  -9.410  0.5236E+00  0.2633E+00
  -9.400  0.5283E+00  0.2686E+00
  -9.390  0.5324E+00  0.2739E+00
  -9.380  0.5363E+00  0.2793E+00
  -9.370  0.5401E+00  0.2847E+00
  -9.360  0.5440E+00  0.2901E+00
  -9.350  0.5483E+00  0.2956E+00
  -9.340  0.5532E+00  0.3011E+00
  -9.330  0.5588E+00  0.3067E+00
  -9.320  0.5653E+00  0.3124E+00
  -9.310  0.5729E+00  0.3181E+00
  -9.300  0.5816E+00  0.3239E+00
  -9.290  0.5915E+00  0.3298E+00
  -9.280  0.6025E+00  0.3359E+00
  -9.270  0.6146E+00  0.3420E+00
  -9.260  0.6275E+00  0.3483E+00
  -9.250  0.6411E+00  0.3547E+00
  -9.240  0.6552E+00  0.3612E+00
  -9.230  0.6694E+00  0.3679E+00
  -9.220  0.6835E+00  0.3748E+00
  -9.210  0.6971E+00  0.3817E+00
  -9.200  0.7099E+00  0.3888E+00
  -9.190  0.7216E+00  0.3961E+00
  -9.180  0.7320E+00  0.4034E+00
  -9.170  0.7407E+00  0.4108E+00
  -9.160  0.7476E+00  0.4183E+00
  -9.150  0.7527E+00  0.4258E+00
  -9.140  0.7558E+00  0.4333E+00
  -9.130  0.7571E+00  0.4409E+00
  -9.120  0.7567E+00  0.4485E+00
  -9.110  0.7548E+00  0.4560E+00
  -9.100  0.7518E+00  0.4635E+00
  -9.090  0.7478E+00  0.4710E+00
  -9.080  0.7433E+00  0.4785E+00
  -9.070  0.7387E+00  0.4858E+00
  -9.060  0.7344E+00  0.4932E+00
  -9.050  0.7306E+00  0.5005E+00
  -9.040  0.7276E+00  0.5078E+00
  -9.030  0.7259E+00  0.5150E+00
  -9.020  0.7254E+00  0.5223E+00
  -9.010  0.7264E+00  0.5295E+00
  -9.000  0.7288E+00  0.5368E+00
  -8.990  0.7327E+00  0.5442E+00
  -8.980  0.7378E+00  0.5515E+00
  -8.970  0.7441E+00  0.5590E+00
  -8.960  0.7511E+00  0.5665E+00
  -8.950  0.7588E+00  0.5741E+00
  -8.940  0.7666E+00  0.5817E+00
  -8.930  0.7744E+00  0.5895E+00
  -8.920  0.7818E+00  0.5973E+00
  -8.910  0.7886E+00  0.6052E+00
  -8.900  0.7944E+00  0.6131E+00
  -8.890  0.7992E+00  0.6211E+00
  -8.880  0.8027E+00  0.6292E+00
  -8.870  0.8049E+00  0.6372E+00
  -8.860  0.8058E+00  0.6453E+00
  -8.850  0.8055E+00  0.6533E+00
  -8.840  0.8041E+00  0.6614E+00
  -8.830  0.8017E+00  0.6694E+00
  -8.820  0.7986E+00  0.6774E+00
  -8.810  0.7950E+00  0.6853E+00
  -8.800  0.7912E+00  0.6932E+00
  -8.790  0.7874E+00  0.7011E+00
  -8.780  0.7839E+00  0.7089E+00
  -8.770  0.7809E+00  0.7168E+00
  -8.760  0.7786E+00  0.7245E+00
  -8.750  0.7771E+00  0.7323E+00
  -8.740  0.7767E+00  0.7401E+00
  -8.730  0.7774E+00  0.7478E+00
  -8.720  0.7791E+00  0.7556E+00
  -8.710  0.7820E+00  0.7635E+00
  -8.700  0.7859E+00  0.7713E+00
  -8.690  0.7908E+00  0.7792E+00
  -8.680  0.7964E+00  0.7872E+00
  -8.670  0.8027E+00  0.7952E+00
  -8.660  0.8095E+00  0.8033E+00
  -8.650  0.8165E+00  0.8115E+00
  -8.640  0.8236E+00  0.8197E+00
  -8.630  0.8305E+00  0.8280E+00
  -8.620  0.8372E+00  0.8364E+00
  -8.610  0.8435E+00  0.8448E+00
  -8.600  0.8492E+00  0.8533E+00
  -8.590  0.8543E+00  0.8619E+00
  -8.580  0.8587E+00  0.8704E+00
  -8.570  0.8625E+00  0.8791E+00
  -8.560  0.8656E+00  0.8877E+00
  -8.550  0.8682E+00  0.8964E+00
  -8.540  0.8704E+00  0.9051E+00
  -8.530  0.8722E+00  0.9138E+00
  -8.520  0.8738E+00  0.9226E+00
  -8.510  0.8754E+00  0.9313E+00
  -8.500  0.8769E+00  0.9401E+00
  -8.490  0.8787E+00  0.9489E+00
  -8.480  0.8807E+00  0.9577E+00
  -8.470  0.8829E+00  0.9665E+00
  -8.460  0.8856E+00  0.9754E+00
  -8.450  0.8885E+00  0.9843E+00
  -8.440  0.8919E+00  0.9932E+00
  -8.430  0.8956E+00  0.1002E+01
  -8.420  0.8997E+00  0.1011E+01
  -8.410  0.9042E+00  0.1020E+01
  -8.400  0.9089E+00  0.1029E+01
  -8.390  0.9140E+00  0.1038E+01
  -8.380  0.9195E+00  0.1048E+01
  -8.370  0.9254E+00  0.1057E+01
  -8.360  0.9317E+00  0.1066E+01
  -8.350  0.9386E+00  0.1076E+01
  -8.340  0.9461E+00  0.1085E+01
  -8.330  0.9543E+00  0.1095E+01
  -8.320  0.9632E+00  0.1104E+01
  -8.310  0.9730E+00  0.1114E+01
  -8.300  0.9836E+00  0.1124E+01
  -8.290  0.9951E+00  0.1134E+01
  -8.280  0.1007E+01  0.1144E+01
  -8.270  0.1020E+01  0.1154E+01
  -8.260  0.1034E+01  0.1164E+01
  -8.250  0.1048E+01  0.1175E+01
  -8.240  0.1062E+01  0.1185E+01
  -8.230  0.1075E+01  0.1196E+01
  -8.220  0.1089E+01  0.1207E+01
  -8.210  0.1101E+01  0.1218E+01
  -8.200  0.1113E+01  0.1229E+01
  -8.190  0.1123E+01  0.1240E+01
  -8.180  0.1131E+01  0.1252E+01
  -8.170  0.1138E+01  0.1263E+01
  -8.160  0.1142E+01  0.1275E+01
  -8.150  0.1144E+01  0.1286E+01
  -8.140  0.1143E+01  0.1297E+01
  -8.130  0.1140E+01  0.1309E+01
  -8.120  0.1135E+01  0.1320E+01
  -8.110  0.1128E+01  0.1331E+01
  -8.100  0.1118E+01  0.1343E+01
  -8.090  0.1107E+01  0.1354E+01
  -8.080  0.1095E+01  0.1365E+01
  -8.070  0.1081E+01  0.1375E+01
  -8.060  0.1067E+01  0.1386E+01
  -8.050  0.1053E+01  0.1397E+01
  -8.040  0.1038E+01  0.1407E+01
  -8.030  0.1024E+01  0.1417E+01
  -8.020  0.1010E+01  0.1427E+01
  -8.010  0.9979E+00  0.1437E+01
  -8.000  0.9864E+00  0.1447E+01
  -7.990  0.9761E+00  0.1457E+01
  -7.980  0.9671E+00  0.1467E+01
  -7.970  0.9593E+00  0.1476E+01
  -7.960  0.9528E+00  0.1486E+01
  -7.950  0.9473E+00  0.1495E+01
  -7.940  0.9427E+00  0.1505E+01
  -7.930  0.9388E+00  0.1514E+01
  -7.920  0.9354E+00  0.1523E+01
  -7.910  0.9322E+00  0.1533E+01
  -7.900  0.9289E+00  0.1542E+01
  -7.890  0.9254E+00  0.1551E+01
  -7.880  0.9215E+00  0.1560E+01
  -7.870  0.9170E+00  0.1570E+01
  -7.860  0.9117E+00  0.1579E+01
  -7.850  0.9058E+00  0.1588E+01
  -7.840  0.8992E+00  0.1597E+01
  -7.830  0.8919E+00  0.1606E+01
  -7.820  0.8841E+00  0.1615E+01
  -7.810  0.8759E+00  0.1623E+01
  -7.800  0.8675E+00  0.1632E+01
  -7.790  0.8591E+00  0.1641E+01
  -7.780  0.8509E+00  0.1649E+01
  -7.770  0.8430E+00  0.1658E+01
  -7.760  0.8357E+00  0.1666E+01
  -7.750  0.8290E+00  0.1674E+01
  -7.740  0.8230E+00  0.1682E+01
  -7.730  0.8178E+00  0.1691E+01
  -7.720  0.8134E+00  0.1699E+01
  -7.710  0.8097E+00  0.1707E+01
  -7.700  0.8066E+00  0.1715E+01
  -7.690  0.8040E+00  0.1723E+01
  -7.680  0.8017E+00  0.1731E+01
  -7.670  0.7998E+00  0.1739E+01
  -7.660  0.7979E+00  0.1747E+01
  -7.650  0.7960E+00  0.1755E+01
  -7.640  0.7940E+00  0.1763E+01
  -7.630  0.7917E+00  0.1771E+01
  -7.620  0.7893E+00  0.1779E+01
  -7.610  0.7865E+00  0.1787E+01
  -7.600  0.7836E+00  0.1794E+01
  -7.590  0.7804E+00  0.1802E+01
  -7.580  0.7772E+00  0.1810E+01
  -7.570  0.7739E+00  0.1818E+01
  -7.560  0.7708E+00  0.1825E+01
  -7.550  0.7678E+00  0.1833E+01
  -7.540  0.7650E+00  0.1841E+01
  -7.530  0.7626E+00  0.1848E+01
  -7.520  0.7607E+00  0.1856E+01
  -7.510  0.7591E+00  0.1864E+01
  -7.500  0.7579E+00  0.1871E+01
  -7.490  0.7571E+00  0.1879E+01
  -7.480  0.7566E+00  0.1886E+01
  -7.470  0.7564E+00  0.1894E+01
  -7.460  0.7562E+00  0.1901E+01
  -7.450  0.7559E+00  0.1909E+01
  -7.440  0.7555E+00  0.1916E+01
  -7.430  0.7548E+00  0.1924E+01
  -7.420  0.7536E+00  0.1932E+01
  -7.410  0.7519E+00  0.1939E+01
  -7.400  0.7496E+00  0.1947E+01
  -7.390  0.7468E+00  0.1954E+01
  -7.380  0.7434E+00  0.1961E+01
  -7.370  0.7394E+00  0.1969E+01
  -7.360  0.7350E+00  0.1976E+01
  -7.350  0.7303E+00  0.1984E+01
  -7.340  0.7255E+00  0.1991E+01
  -7.330  0.7207E+00  0.1998E+01
  -7.320  0.7161E+00  0.2005E+01
  -7.310  0.7118E+00  0.2012E+01
  -7.300  0.7080E+00  0.2019E+01
  -7.290  0.7048E+00  0.2026E+01
  -7.280  0.7023E+00  0.2033E+01
  -7.270  0.7005E+00  0.2040E+01
  -7.260  0.6993E+00  0.2047E+01
  -7.250  0.6988E+00  0.2054E+01
  -7.240  0.6988E+00  0.2061E+01
  -7.230  0.6991E+00  0.2068E+01
  -7.220  0.6997E+00  0.2075E+01
  -7.210  0.7004E+00  0.2082E+01
  -7.200  0.7010E+00  0.2089E+01
  -7.190  0.7013E+00  0.2096E+01
  -7.180  0.7013E+00  0.2103E+01
  -7.170  0.7010E+00  0.2110E+01
  -7.160  0.7001E+00  0.2117E+01
  -7.150  0.6988E+00  0.2124E+01
  -7.140  0.6971E+00  0.2131E+01
  -7.130  0.6950E+00  0.2138E+01
  -7.120  0.6927E+00  0.2145E+01
  -7.110  0.6902E+00  0.2152E+01
  -7.100  0.6877E+00  0.2159E+01
  -7.090  0.6853E+00  0.2166E+01
  -7.080  0.6831E+00  0.2173E+01
  -7.070  0.6811E+00  0.2180E+01
  -7.060  0.6795E+00  0.2186E+01
  -7.050  0.6782E+00  0.2193E+01
  -7.040  0.6773E+00  0.2200E+01
  -7.030  0.6767E+00  0.2207E+01
  -7.020  0.6764E+00  0.2213E+01
  -7.010  0.6762E+00  0.2220E+01
  -7.000  0.6762E+00  0.2227E+01
  -6.990  0.6761E+00  0.2234E+01
  -6.980  0.6759E+00  0.2240E+01
  -6.970  0.6755E+00  0.2247E+01
  -6.960  0.6748E+00  0.2254E+01
  -6.950  0.6737E+00  0.2261E+01
  -6.940  0.6723E+00  0.2267E+01
  -6.930  0.6704E+00  0.2274E+01
  -6.920  0.6680E+00  0.2281E+01
  -6.910  0.6653E+00  0.2287E+01
  -6.900  0.6622E+00  0.2294E+01
  -6.890  0.6588E+00  0.2301E+01
  -6.880  0.6552E+00  0.2307E+01
  -6.870  0.6516E+00  0.2314E+01
  -6.860  0.6479E+00  0.2320E+01
  -6.850  0.6443E+00  0.2327E+01
  -6.840  0.6410E+00  0.2333E+01
  -6.830  0.6381E+00  0.2339E+01
  -6.820  0.6356E+00  0.2346E+01
  -6.810  0.6337E+00  0.2352E+01
  -6.800  0.6324E+00  0.2358E+01
  -6.790  0.6318E+00  0.2365E+01
  -6.780  0.6319E+00  0.2371E+01
  -6.770  0.6327E+00  0.2377E+01
  -6.760  0.6343E+00  0.2384E+01
  -6.750  0.6364E+00  0.2390E+01
  -6.740  0.6391E+00  0.2397E+01
  -6.730  0.6422E+00  0.2403E+01
  -6.720  0.6455E+00  0.2409E+01
  -6.710  0.6488E+00  0.2416E+01
  -6.700  0.6520E+00  0.2422E+01
  -6.690  0.6548E+00  0.2429E+01
  -6.680  0.6570E+00  0.2436E+01
  -6.670  0.6585E+00  0.2442E+01
  -6.660  0.6590E+00  0.2449E+01
  -6.650  0.6586E+00  0.2455E+01
  -6.640  0.6570E+00  0.2462E+01
  -6.630  0.6543E+00  0.2468E+01
  -6.620  0.6505E+00  0.2475E+01
  -6.610  0.6456E+00  0.2481E+01
  -6.600  0.6400E+00  0.2488E+01
  -6.590  0.6336E+00  0.2494E+01
  -6.580  0.6268E+00  0.2500E+01
  -6.570  0.6198E+00  0.2507E+01
  -6.560  0.6130E+00  0.2513E+01
  -6.550  0.6065E+00  0.2519E+01
  -6.540  0.6006E+00  0.2525E+01
  -6.530  0.5957E+00  0.2531E+01
  -6.520  0.5919E+00  0.2537E+01
  -6.510  0.5894E+00  0.2543E+01
  -6.500  0.5883E+00  0.2548E+01
  -6.490  0.5886E+00  0.2554E+01
  -6.480  0.5903E+00  0.2560E+01
  -6.470  0.5933E+00  0.2566E+01
  -6.460  0.5974E+00  0.2572E+01
  -6.450  0.6025E+00  0.2578E+01
  -6.440  0.6082E+00  0.2584E+01
  -6.430  0.6142E+00  0.2590E+01
  -6.420  0.6203E+00  0.2597E+01
  -6.410  0.6260E+00  0.2603E+01
  -6.400  0.6311E+00  0.2609E+01
  -6.390  0.6352E+00  0.2616E+01
  -6.380  0.6382E+00  0.2622E+01
  -6.370  0.6399E+00  0.2628E+01
  -6.360  0.6401E+00  0.2635E+01
  -6.350  0.6388E+00  0.2641E+01
  -6.340  0.6362E+00  0.2647E+01
  -6.330  0.6322E+00  0.2654E+01
  -6.320  0.6271E+00  0.2660E+01
  -6.310  0.6211E+00  0.2666E+01
  -6.300  0.6145E+00  0.2672E+01
  -6.290  0.6076E+00  0.2678E+01
  -6.280  0.6007E+00  0.2684E+01
  -6.270  0.5941E+00  0.2690E+01
  -6.260  0.5880E+00  0.2696E+01
  -6.250  0.5827E+00  0.2702E+01
  -6.240  0.5783E+00  0.2708E+01
  -6.230  0.5749E+00  0.2714E+01
  -6.220  0.5727E+00  0.2719E+01
  -6.210  0.5716E+00  0.2725E+01
  -6.200  0.5715E+00  0.2731E+01
  -6.190  0.5724E+00  0.2737E+01
  -6.180  0.5741E+00  0.2742E+01
  -6.170  0.5766E+00  0.2748E+01
  -6.160  0.5795E+00  0.2754E+01
  -6.150  0.5828E+00  0.2760E+01
  -6.140  0.5862E+00  0.2766E+01
  -6.130  0.5896E+00  0.2771E+01
  -6.120  0.5930E+00  0.2777E+01
  -6.110  0.5960E+00  0.2783E+01
  -6.100  0.5988E+00  0.2789E+01
  -6.090  0.6011E+00  0.2795E+01
  -6.080  0.6029E+00  0.2801E+01
  -6.070  0.6042E+00  0.2807E+01
  -6.060  0.6050E+00  0.2813E+01
  -6.050  0.6053E+00  0.2819E+01
  -6.040  0.6051E+00  0.2826E+01
  -6.030  0.6043E+00  0.2832E+01
  -6.020  0.6030E+00  0.2838E+01
  -6.010  0.6013E+00  0.2844E+01
  -6.000  0.5991E+00  0.2850E+01
  -5.990  0.5965E+00  0.2856E+01
  -5.980  0.5934E+00  0.2862E+01
  -5.970  0.5901E+00  0.2867E+01
  -5.960  0.5864E+00  0.2873E+01
  -5.950  0.5825E+00  0.2879E+01
  -5.940  0.5784E+00  0.2885E+01
  -5.930  0.5743E+00  0.2891E+01
  -5.920  0.5701E+00  0.2896E+01
  -5.910  0.5662E+00  0.2902E+01
  -5.900  0.5625E+00  0.2908E+01
  -5.890  0.5592E+00  0.2913E+01
  -5.880  0.5564E+00  0.2919E+01
  -5.870  0.5544E+00  0.2924E+01
  -5.860  0.5531E+00  0.2930E+01
  -5.850  0.5527E+00  0.2935E+01
  -5.840  0.5532E+00  0.2941E+01
  -5.830  0.5548E+00  0.2946E+01
  -5.820  0.5573E+00  0.2952E+01
  -5.810  0.5606E+00  0.2958E+01
  -5.800  0.5647E+00  0.2963E+01
  -5.790  0.5695E+00  0.2969E+01
  -5.780  0.5746E+00  0.2975E+01
  -5.770  0.5798E+00  0.2981E+01
  -5.760  0.5848E+00  0.2986E+01
  -5.750  0.5895E+00  0.2992E+01
  -5.740  0.5935E+00  0.2998E+01
  -5.730  0.5965E+00  0.3004E+01
  -5.720  0.5984E+00  0.3010E+01
  -5.710  0.5990E+00  0.3016E+01
  -5.700  0.5982E+00  0.3022E+01
  -5.690  0.5960E+00  0.3028E+01
  -5.680  0.5926E+00  0.3034E+01
  -5.670  0.5879E+00  0.3040E+01
  -5.660  0.5823E+00  0.3046E+01
  -5.650  0.5759E+00  0.3051E+01
  -5.640  0.5692E+00  0.3057E+01
  -5.630  0.5623E+00  0.3063E+01
  -5.620  0.5556E+00  0.3068E+01
  -5.610  0.5494E+00  0.3074E+01
  -5.600  0.5440E+00  0.3079E+01
  -5.590  0.5396E+00  0.3085E+01
  -5.580  0.5365E+00  0.3090E+01
  -5.570  0.5345E+00  0.3095E+01
  -5.560  0.5340E+00  0.3101E+01
  -5.550  0.5346E+00  0.3106E+01
  -5.540  0.5365E+00  0.3111E+01
  -5.530  0.5395E+00  0.3117E+01
  -5.520  0.5433E+00  0.3122E+01
  -5.510  0.5477E+00  0.3128E+01
  -5.500  0.5526E+00  0.3133E+01
  -5.490  0.5576E+00  0.3139E+01
  -5.480  0.5626E+00  0.3144E+01
  -5.470  0.5673E+00  0.3150E+01
  -5.460  0.5716E+00  0.3156E+01
  -5.450  0.5753E+00  0.3162E+01
  -5.440  0.5782E+00  0.3167E+01
  -5.430  0.5805E+00  0.3173E+01
  -5.420  0.5819E+00  0.3179E+01
  -5.410  0.5824E+00  0.3185E+01
  -5.400  0.5822E+00  0.3191E+01
  -5.390  0.5811E+00  0.3196E+01
  -5.380  0.5794E+00  0.3202E+01
  -5.370  0.5770E+00  0.3208E+01
  -5.360  0.5740E+00  0.3214E+01
  -5.350  0.5706E+00  0.3219E+01
  -5.340  0.5667E+00  0.3225E+01
  -5.330  0.5626E+00  0.3231E+01
  -5.320  0.5584E+00  0.3236E+01
  -5.310  0.5540E+00  0.3242E+01
  -5.300  0.5498E+00  0.3247E+01
  -5.290  0.5457E+00  0.3253E+01
  -5.280  0.5419E+00  0.3258E+01
  -5.270  0.5386E+00  0.3264E+01
  -5.260  0.5358E+00  0.3269E+01
  -5.250  0.5335E+00  0.3274E+01
  -5.240  0.5320E+00  0.3280E+01
  -5.230  0.5312E+00  0.3285E+01
  -5.220  0.5312E+00  0.3290E+01
  -5.210  0.5320E+00  0.3296E+01
  -5.200  0.5336E+00  0.3301E+01
  -5.190  0.5359E+00  0.3306E+01
  -5.180  0.5389E+00  0.3312E+01
  -5.170  0.5425E+00  0.3317E+01
  -5.160  0.5465E+00  0.3323E+01
  -5.150  0.5508E+00  0.3328E+01
  -5.140  0.5553E+00  0.3334E+01
  -5.130  0.5598E+00  0.3339E+01
  -5.120  0.5641E+00  0.3345E+01
  -5.110  0.5681E+00  0.3351E+01
  -5.100  0.5717E+00  0.3356E+01
  -5.090  0.5746E+00  0.3362E+01
  -5.080  0.5769E+00  0.3368E+01
  -5.070  0.5783E+00  0.3374E+01
  -5.060  0.5788E+00  0.3379E+01
  -5.050  0.5785E+00  0.3385E+01
  -5.040  0.5773E+00  0.3391E+01
  -5.030  0.5751E+00  0.3397E+01
  -5.020  0.5722E+00  0.3402E+01
  -5.010  0.5685E+00  0.3408E+01
  -5.000  0.5642E+00  0.3414E+01
  -4.990  0.5593E+00  0.3419E+01
  -4.980  0.5541E+00  0.3425E+01
  -4.970  0.5487E+00  0.3430E+01
  -4.960  0.5432E+00  0.3436E+01
  -4.950  0.5378E+00  0.3441E+01
  -4.940  0.5327E+00  0.3446E+01
  -4.930  0.5279E+00  0.3452E+01
  -4.920  0.5236E+00  0.3457E+01
  -4.910  0.5198E+00  0.3462E+01
  -4.900  0.5167E+00  0.3467E+01
  -4.890  0.5142E+00  0.3473E+01
  -4.880  0.5123E+00  0.3478E+01
  -4.870  0.5109E+00  0.3483E+01
  -4.860  0.5101E+00  0.3488E+01
  -4.850  0.5096E+00  0.3493E+01
  -4.840  0.5093E+00  0.3498E+01
  -4.830  0.5092E+00  0.3503E+01
  -4.820  0.5090E+00  0.3508E+01
  -4.810  0.5085E+00  0.3513E+01
  -4.800  0.5076E+00  0.3518E+01
  -4.790  0.5062E+00  0.3523E+01
  -4.780  0.5041E+00  0.3528E+01
  -4.770  0.5011E+00  0.3533E+01
  -4.760  0.4973E+00  0.3538E+01
  -4.750  0.4925E+00  0.3543E+01
  -4.740  0.4867E+00  0.3548E+01
  -4.730  0.4800E+00  0.3553E+01
  -4.720  0.4723E+00  0.3558E+01
  -4.710  0.4638E+00  0.3562E+01
  -4.700  0.4546E+00  0.3567E+01
  -4.690  0.4448E+00  0.3571E+01
  -4.680  0.4345E+00  0.3576E+01
  -4.670  0.4241E+00  0.3580E+01
  -4.660  0.4135E+00  0.3584E+01
  -4.650  0.4031E+00  0.3588E+01
  -4.640  0.3930E+00  0.3592E+01
  -4.630  0.3835E+00  0.3596E+01
  -4.620  0.3746E+00  0.3600E+01
  -4.610  0.3666E+00  0.3603E+01
  -4.600  0.3596E+00  0.3607E+01
  -4.590  0.3538E+00  0.3610E+01
  -4.580  0.3492E+00  0.3614E+01
  -4.570  0.3460E+00  0.3617E+01
  -4.560  0.3442E+00  0.3621E+01
  -4.550  0.3437E+00  0.3624E+01
  -4.540  0.3447E+00  0.3628E+01
  -4.530  0.3470E+00  0.3631E+01
  -4.520  0.3505E+00  0.3635E+01
  -4.510  0.3553E+00  0.3638E+01
  -4.500  0.3610E+00  0.3642E+01
  -4.490  0.3676E+00  0.3646E+01
  -4.480  0.3749E+00  0.3649E+01
  -4.470  0.3827E+00  0.3653E+01
  -4.460  0.3907E+00  0.3657E+01
  -4.450  0.3987E+00  0.3661E+01
  -4.440  0.4065E+00  0.3665E+01
  -4.430  0.4140E+00  0.3669E+01
  -4.420  0.4208E+00  0.3673E+01
  -4.410  0.4269E+00  0.3678E+01
  -4.400  0.4320E+00  0.3682E+01
  -4.390  0.4362E+00  0.3686E+01
  -4.380  0.4392E+00  0.3691E+01
  -4.370  0.4413E+00  0.3695E+01
  -4.360  0.4422E+00  0.3700E+01
  -4.350  0.4422E+00  0.3704E+01
  -4.340  0.4413E+00  0.3708E+01
  -4.330  0.4396E+00  0.3713E+01
  -4.320  0.4374E+00  0.3717E+01
  -4.310  0.4349E+00  0.3722E+01
  -4.300  0.4322E+00  0.3726E+01
  -4.290  0.4295E+00  0.3730E+01
  -4.280  0.4273E+00  0.3734E+01
  -4.270  0.4255E+00  0.3739E+01
  -4.260  0.4245E+00  0.3743E+01
  -4.250  0.4245E+00  0.3747E+01
  -4.240  0.4257E+00  0.3751E+01
  -4.230  0.4282E+00  0.3756E+01
  -4.220  0.4321E+00  0.3760E+01
  -4.210  0.4376E+00  0.3764E+01
  -4.200  0.4446E+00  0.3769E+01
  -4.190  0.4532E+00  0.3773E+01
  -4.180  0.4632E+00  0.3778E+01
  -4.170  0.4746E+00  0.3783E+01
  -4.160  0.4872E+00  0.3788E+01
  -4.150  0.5006E+00  0.3793E+01
  -4.140  0.5147E+00  0.3798E+01
  -4.130  0.5291E+00  0.3803E+01
  -4.120  0.5434E+00  0.3809E+01
  -4.110  0.5572E+00  0.3814E+01
  -4.100  0.5700E+00  0.3820E+01
  -4.090  0.5815E+00  0.3826E+01
  -4.080  0.5913E+00  0.3832E+01
  -4.070  0.5990E+00  0.3838E+01
  -4.060  0.6042E+00  0.3844E+01
  -4.050  0.6066E+00  0.3850E+01
  -4.040  0.6063E+00  0.3856E+01
  -4.030  0.6029E+00  0.3862E+01
  -4.020  0.5966E+00  0.3868E+01
  -4.010  0.5874E+00  0.3874E+01
  -4.000  0.5756E+00  0.3879E+01
  -3.990  0.5614E+00  0.3885E+01
  -3.980  0.5452E+00  0.3890E+01
  -3.970  0.5275E+00  0.3896E+01
  -3.960  0.5087E+00  0.3901E+01
  -3.950  0.4895E+00  0.3906E+01
  -3.940  0.4704E+00  0.3910E+01
  -3.930  0.4518E+00  0.3915E+01
  -3.920  0.4344E+00  0.3919E+01
  -3.910  0.4185E+00  0.3923E+01
  -3.900  0.4046E+00  0.3927E+01
  -3.890  0.3930E+00  0.3931E+01
  -3.880  0.3838E+00  0.3935E+01
  -3.870  0.3771E+00  0.3939E+01
  -3.860  0.3730E+00  0.3943E+01
  -3.850  0.3712E+00  0.3946E+01
  -3.840  0.3716E+00  0.3950E+01
  -3.830  0.3738E+00  0.3954E+01
  -3.820  0.3773E+00  0.3958E+01
  -3.810  0.3819E+00  0.3961E+01
  -3.800  0.3868E+00  0.3965E+01
  -3.790  0.3918E+00  0.3969E+01
  -3.780  0.3962E+00  0.3973E+01
  -3.770  0.3996E+00  0.3977E+01
  -3.760  0.4017E+00  0.3981E+01
  -3.750  0.4020E+00  0.3985E+01
  -3.740  0.4005E+00  0.3989E+01
  -3.730  0.3969E+00  0.3993E+01
  -3.720  0.3913E+00  0.3997E+01
  -3.710  0.3837E+00  0.4001E+01
  -3.700  0.3743E+00  0.4005E+01
  -3.690  0.3633E+00  0.4008E+01
  -3.680  0.3511E+00  0.4012E+01
  -3.670  0.3381E+00  0.4015E+01
  -3.660  0.3245E+00  0.4019E+01
  -3.650  0.3109E+00  0.4022E+01
  -3.640  0.2976E+00  0.4025E+01
  -3.630  0.2850E+00  0.4027E+01
  -3.620  0.2734E+00  0.4030E+01
  -3.610  0.2631E+00  0.4033E+01
  -3.600  0.2544E+00  0.4035E+01
  -3.590  0.2473E+00  0.4038E+01
  -3.580  0.2420E+00  0.4040E+01
  -3.570  0.2384E+00  0.4043E+01
  -3.560  0.2366E+00  0.4045E+01
  -3.550  0.2364E+00  0.4047E+01
  -3.540  0.2377E+00  0.4050E+01
  -3.530  0.2402E+00  0.4052E+01
  -3.520  0.2439E+00  0.4055E+01
  -3.510  0.2483E+00  0.4057E+01
  -3.500  0.2532E+00  0.4060E+01
  -3.490  0.2583E+00  0.4062E+01
  -3.480  0.2635E+00  0.4065E+01
  -3.470  0.2682E+00  0.4067E+01
  -3.460  0.2725E+00  0.4070E+01
  -3.450  0.2759E+00  0.4073E+01
  -3.440  0.2783E+00  0.4076E+01
  -3.430  0.2796E+00  0.4079E+01
  -3.420  0.2796E+00  0.4081E+01
  -3.410  0.2783E+00  0.4084E+01
  -3.400  0.2757E+00  0.4087E+01
  -3.390  0.2718E+00  0.4090E+01
  -3.380  0.2667E+00  0.4092E+01
  -3.370  0.2606E+00  0.4095E+01
  -3.360  0.2536E+00  0.4097E+01
  -3.350  0.2459E+00  0.4100E+01
  -3.340  0.2377E+00  0.4102E+01
  -3.330  0.2293E+00  0.4105E+01
  -3.320  0.2209E+00  0.4107E+01
  -3.310  0.2128E+00  0.4109E+01
  -3.300  0.2051E+00  0.4111E+01
  -3.290  0.1980E+00  0.4113E+01
  -3.280  0.1917E+00  0.4115E+01
  -3.270  0.1863E+00  0.4117E+01
  -3.260  0.1819E+00  0.4119E+01
  -3.250  0.1785E+00  0.4120E+01
  -3.240  0.1762E+00  0.4122E+01
  -3.230  0.1749E+00  0.4124E+01
  -3.220  0.1745E+00  0.4126E+01
  -3.210  0.1750E+00  0.4127E+01
  -3.200  0.1763E+00  0.4129E+01
  -3.190  0.1783E+00  0.4131E+01
  -3.180  0.1807E+00  0.4133E+01
  -3.170  0.1835E+00  0.4134E+01
  -3.160  0.1866E+00  0.4136E+01
  -3.150  0.1896E+00  0.4138E+01
  -3.140  0.1926E+00  0.4140E+01
  -3.130  0.1952E+00  0.4142E+01
  -3.120  0.1975E+00  0.4144E+01
  -3.110  0.1992E+00  0.4146E+01
  -3.100  0.2003E+00  0.4148E+01
  -3.090  0.2007E+00  0.4150E+01
  -3.080  0.2002E+00  0.4152E+01
  -3.070  0.1989E+00  0.4154E+01
  -3.060  0.1968E+00  0.4156E+01
  -3.050  0.1938E+00  0.4158E+01
  -3.040  0.1901E+00  0.4160E+01
  -3.030  0.1857E+00  0.4162E+01
  -3.020  0.1808E+00  0.4164E+01
  -3.010  0.1754E+00  0.4165E+01
  -3.000  0.1698E+00  0.4167E+01
  -2.990  0.1640E+00  0.4169E+01
  -2.980  0.1583E+00  0.4170E+01
  -2.970  0.1527E+00  0.4172E+01
  -2.960  0.1475E+00  0.4173E+01
  -2.950  0.1428E+00  0.4175E+01
  -2.940  0.1386E+00  0.4176E+01
  -2.930  0.1351E+00  0.4177E+01
  -2.920  0.1323E+00  0.4179E+01
  -2.910  0.1302E+00  0.4180E+01
  -2.900  0.1288E+00  0.4181E+01
  -2.890  0.1281E+00  0.4183E+01
  -2.880  0.1281E+00  0.4184E+01
  -2.870  0.1286E+00  0.4185E+01
  -2.860  0.1296E+00  0.4186E+01
  -2.850  0.1309E+00  0.4188E+01
  -2.840  0.1325E+00  0.4189E+01
  -2.830  0.1343E+00  0.4190E+01
  -2.820  0.1360E+00  0.4192E+01
  -2.810  0.1377E+00  0.4193E+01
  -2.800  0.1392E+00  0.4195E+01
  -2.790  0.1405E+00  0.4196E+01
  -2.780  0.1413E+00  0.4197E+01
  -2.770  0.1418E+00  0.4199E+01
  -2.760  0.1418E+00  0.4200E+01
  -2.750  0.1413E+00  0.4202E+01
  -2.740  0.1403E+00  0.4203E+01
  -2.730  0.1388E+00  0.4204E+01
  -2.720  0.1369E+00  0.4206E+01
  -2.710  0.1344E+00  0.4207E+01
  -2.700  0.1316E+00  0.4208E+01
  -2.690  0.1285E+00  0.4210E+01
  -2.680  0.1250E+00  0.4211E+01
  -2.670  0.1214E+00  0.4212E+01
  -2.660  0.1176E+00  0.4213E+01
  -2.650  0.1138E+00  0.4215E+01
  -2.640  0.1100E+00  0.4216E+01
  -2.630  0.1063E+00  0.4217E+01
  -2.620  0.1028E+00  0.4218E+01
  -2.610  0.9960E-01  0.4219E+01
  -2.600  0.9669E-01  0.4220E+01
  -2.590  0.9415E-01  0.4221E+01
  -2.580  0.9203E-01  0.4222E+01
  -2.570  0.9035E-01  0.4222E+01
  -2.560  0.8913E-01  0.4223E+01
  -2.550  0.8837E-01  0.4224E+01
  -2.540  0.8805E-01  0.4225E+01
  -2.530  0.8814E-01  0.4226E+01
  -2.520  0.8859E-01  0.4227E+01
  -2.510  0.8934E-01  0.4228E+01
  -2.500  0.9032E-01  0.4229E+01
  -2.490  0.9144E-01  0.4230E+01
  -2.480  0.9260E-01  0.4230E+01
  -2.470  0.9373E-01  0.4231E+01
  -2.460  0.9471E-01  0.4232E+01
  -2.450  0.9547E-01  0.4233E+01
  -2.440  0.9592E-01  0.4234E+01
  -2.430  0.9600E-01  0.4235E+01
  -2.420  0.9564E-01  0.4236E+01
  -2.410  0.9483E-01  0.4237E+01
  -2.400  0.9353E-01  0.4238E+01
  -2.390  0.9177E-01  0.4239E+01
  -2.380  0.8955E-01  0.4240E+01
  -2.370  0.8695E-01  0.4241E+01
  -2.360  0.8401E-01  0.4242E+01
  -2.350  0.8082E-01  0.4242E+01
  -2.340  0.7747E-01  0.4243E+01
  -2.330  0.7406E-01  0.4244E+01
  -2.320  0.7069E-01  0.4245E+01
  -2.310  0.6745E-01  0.4245E+01
  -2.300  0.6444E-01  0.4246E+01
  -2.290  0.6174E-01  0.4247E+01
  -2.280  0.5939E-01  0.4247E+01
  -2.270  0.5746E-01  0.4248E+01
  -2.260  0.5595E-01  0.4248E+01
  -2.250  0.5488E-01  0.4249E+01
  -2.240  0.5423E-01  0.4249E+01
  -2.230  0.5395E-01  0.4250E+01
  -2.220  0.5400E-01  0.4250E+01
  -2.210  0.5430E-01  0.4251E+01
  -2.200  0.5479E-01  0.4252E+01
  -2.190  0.5537E-01  0.4252E+01
  -2.180  0.5597E-01  0.4253E+01
  -2.170  0.5651E-01  0.4253E+01
  -2.160  0.5691E-01  0.4254E+01
  -2.150  0.5710E-01  0.4254E+01
  -2.140  0.5704E-01  0.4255E+01
  -2.130  0.5670E-01  0.4256E+01
  -2.120  0.5604E-01  0.4256E+01
  -2.110  0.5506E-01  0.4257E+01
  -2.100  0.5378E-01  0.4257E+01
  -2.090  0.5222E-01  0.4258E+01
  -2.080  0.5040E-01  0.4258E+01
  -2.070  0.4838E-01  0.4259E+01
  -2.060  0.4621E-01  0.4259E+01
  -2.050  0.4393E-01  0.4260E+01
  -2.040  0.4162E-01  0.4260E+01
  -2.030  0.3932E-01  0.4260E+01
  -2.020  0.3710E-01  0.4261E+01
  -2.010  0.3498E-01  0.4261E+01
  -2.000  0.3303E-01  0.4261E+01
  -1.990  0.3126E-01  0.4262E+01
  -1.980  0.2970E-01  0.4262E+01
  -1.970  0.2835E-01  0.4262E+01
  -1.960  0.2722E-01  0.4263E+01
  -1.950  0.2630E-01  0.4263E+01
  -1.940  0.2555E-01  0.4263E+01
  -1.930  0.2497E-01  0.4263E+01
  -1.920  0.2451E-01  0.4264E+01
  -1.910  0.2414E-01  0.4264E+01
  -1.900  0.2381E-01  0.4264E+01
  -1.890  0.2350E-01  0.4264E+01
  -1.880  0.2315E-01  0.4265E+01
  -1.870  0.2275E-01  0.4265E+01
  -1.860  0.2226E-01  0.4265E+01
  -1.850  0.2167E-01  0.4265E+01
  -1.840  0.2097E-01  0.4265E+01
  -1.830  0.2014E-01  0.4266E+01
  -1.820  0.1921E-01  0.4266E+01
  -1.810  0.1817E-01  0.4266E+01
  -1.800  0.1705E-01  0.4266E+01
  -1.790  0.1588E-01  0.4266E+01
  -1.780  0.1466E-01  0.4267E+01
  -1.770  0.1345E-01  0.4267E+01
  -1.760  0.1226E-01  0.4267E+01
  -1.750  0.1112E-01  0.4267E+01
  -1.740  0.1007E-01  0.4267E+01
  -1.730  0.9123E-02  0.4267E+01
  -1.720  0.8309E-02  0.4267E+01
  -1.710  0.7644E-02  0.4267E+01
  -1.700  0.7144E-02  0.4267E+01
  -1.690  0.6822E-02  0.4267E+01
  -1.680  0.6683E-02  0.4267E+01
  -1.670  0.6731E-02  0.4267E+01
  -1.660  0.6965E-02  0.4268E+01
  -1.650  0.7379E-02  0.4268E+01
  -1.640  0.7966E-02  0.4268E+01
  -1.630  0.8710E-02  0.4268E+01
  -1.620  0.9596E-02  0.4268E+01
  -1.610  0.1060E-01  0.4268E+01
  -1.600  0.1170E-01  0.4268E+01
  -1.590  0.1288E-01  0.4268E+01
  -1.580  0.1409E-01  0.4268E+01
  -1.570  0.1531E-01  0.4269E+01
  -1.560  0.1652E-01  0.4269E+01
  -1.550  0.1769E-01  0.4269E+01
  -1.540  0.1878E-01  0.4269E+01
  -1.530  0.1979E-01  0.4269E+01
  -1.520  0.2069E-01  0.4269E+01
  -1.510  0.2149E-01  0.4270E+01
  -1.500  0.2217E-01  0.4270E+01
  -1.490  0.2276E-01  0.4270E+01
  -1.480  0.2326E-01  0.4270E+01
  -1.470  0.2369E-01  0.4271E+01
  -1.460  0.2410E-01  0.4271E+01
  -1.450  0.2450E-01  0.4271E+01
  -1.440  0.2495E-01  0.4271E+01
  -1.430  0.2548E-01  0.4272E+01
  -1.420  0.2612E-01  0.4272E+01
  -1.410  0.2692E-01  0.4272E+01
  -1.400  0.2790E-01  0.4272E+01
  -1.390  0.2908E-01  0.4273E+01
  -1.380  0.3047E-01  0.4273E+01
  -1.370  0.3209E-01  0.4273E+01
  -1.360  0.3391E-01  0.4274E+01
  -1.350  0.3593E-01  0.4274E+01
  -1.340  0.3810E-01  0.4274E+01
  -1.330  0.4039E-01  0.4275E+01
  -1.320  0.4275E-01  0.4275E+01
  -1.310  0.4512E-01  0.4276E+01
  -1.300  0.4745E-01  0.4276E+01
  -1.290  0.4968E-01  0.4277E+01
  -1.280  0.5175E-01  0.4277E+01
  -1.270  0.5362E-01  0.4278E+01
  -1.260  0.5523E-01  0.4278E+01
  -1.250  0.5656E-01  0.4279E+01
  -1.240  0.5759E-01  0.4279E+01
  -1.230  0.5831E-01  0.4280E+01
  -1.220  0.5873E-01  0.4281E+01
  -1.210  0.5889E-01  0.4281E+01
  -1.200  0.5882E-01  0.4282E+01
  -1.190  0.5858E-01  0.4282E+01
  -1.180  0.5824E-01  0.4283E+01
  -1.170  0.5787E-01  0.4284E+01
  -1.160  0.5756E-01  0.4284E+01
  -1.150  0.5739E-01  0.4285E+01
  -1.140  0.5744E-01  0.4285E+01
  -1.130  0.5778E-01  0.4286E+01
  -1.120  0.5846E-01  0.4286E+01
  -1.110  0.5953E-01  0.4287E+01
  -1.100  0.6103E-01  0.4288E+01
  -1.090  0.6295E-01  0.4288E+01
  -1.080  0.6528E-01  0.4289E+01
  -1.070  0.6799E-01  0.4290E+01
  -1.060  0.7102E-01  0.4290E+01
  -1.050  0.7431E-01  0.4291E+01
  -1.040  0.7778E-01  0.4292E+01
  -1.030  0.8133E-01  0.4293E+01
  -1.020  0.8486E-01  0.4293E+01
  -1.010  0.8829E-01  0.4294E+01
  -1.000  0.9152E-01  0.4295E+01
  -0.990  0.9447E-01  0.4296E+01
  -0.980  0.9708E-01  0.4297E+01
  -0.970  0.9928E-01  0.4298E+01
  -0.960  0.1010E+00  0.4299E+01
  -0.950  0.1024E+00  0.4300E+01
  -0.940  0.1032E+00  0.4301E+01
  -0.930  0.1037E+00  0.4302E+01
  -0.920  0.1037E+00  0.4303E+01
  -0.910  0.1035E+00  0.4304E+01
  -0.900  0.1029E+00  0.4305E+01
  -0.890  0.1022E+00  0.4306E+01
  -0.880  0.1014E+00  0.4307E+01
  -0.870  0.1006E+00  0.4308E+01
  -0.860  0.9986E-01  0.4309E+01
  -0.850  0.9930E-01  0.4310E+01
  -0.840  0.9899E-01  0.4311E+01
  -0.830  0.9903E-01  0.4312E+01
  -0.820  0.9947E-01  0.4313E+01
  -0.810  0.1004E+00  0.4314E+01
  -0.800  0.1018E+00  0.4315E+01
  -0.790  0.1037E+00  0.4316E+01
  -0.780  0.1062E+00  0.4317E+01
  -0.770  0.1093E+00  0.4319E+01
  -0.760  0.1129E+00  0.4320E+01
  -0.750  0.1170E+00  0.4321E+01
  -0.740  0.1214E+00  0.4322E+01
  -0.730  0.1263E+00  0.4323E+01
  -0.720  0.1314E+00  0.4325E+01
  -0.710  0.1366E+00  0.4326E+01
  -0.700  0.1418E+00  0.4327E+01
  -0.690  0.1469E+00  0.4329E+01
  -0.680  0.1518E+00  0.4330E+01
  -0.670  0.1563E+00  0.4332E+01
  -0.660  0.1603E+00  0.4334E+01
  -0.650  0.1637E+00  0.4335E+01
  -0.640  0.1665E+00  0.4337E+01
  -0.630  0.1685E+00  0.4339E+01
  -0.620  0.1698E+00  0.4340E+01
  -0.610  0.1704E+00  0.4342E+01
  -0.600  0.1703E+00  0.4344E+01
  -0.590  0.1696E+00  0.4345E+01
  -0.580  0.1684E+00  0.4347E+01
  -0.570  0.1668E+00  0.4349E+01
  -0.560  0.1650E+00  0.4350E+01
  -0.550  0.1631E+00  0.4352E+01
  -0.540  0.1613E+00  0.4354E+01
  -0.530  0.1598E+00  0.4355E+01
  -0.520  0.1587E+00  0.4357E+01
  -0.510  0.1583E+00  0.4358E+01
  -0.500  0.1587E+00  0.4360E+01
  -0.490  0.1601E+00  0.4362E+01
  -0.480  0.1624E+00  0.4363E+01
  -0.470  0.1659E+00  0.4365E+01
  -0.460  0.1705E+00  0.4367E+01
  -0.450  0.1762E+00  0.4368E+01
  -0.440  0.1830E+00  0.4370E+01
  -0.430  0.1908E+00  0.4372E+01
  -0.420  0.1994E+00  0.4374E+01
  -0.410  0.2086E+00  0.4376E+01
  -0.400  0.2183E+00  0.4378E+01
  -0.390  0.2282E+00  0.4381E+01
  -0.380  0.2380E+00  0.4383E+01
  -0.370  0.2475E+00  0.4385E+01
  -0.360  0.2564E+00  0.4388E+01
  -0.350  0.2645E+00  0.4391E+01
  -0.340  0.2717E+00  0.4393E+01
  -0.330  0.2777E+00  0.4396E+01
  -0.320  0.2826E+00  0.4399E+01
  -0.310  0.2863E+00  0.4402E+01
  -0.300  0.2889E+00  0.4405E+01
  -0.290  0.2905E+00  0.4408E+01
  -0.280  0.2913E+00  0.4411E+01
  -0.270  0.2916E+00  0.4414E+01
  -0.260  0.2917E+00  0.4416E+01
  -0.250  0.2919E+00  0.4419E+01
  -0.240  0.2926E+00  0.4422E+01
  -0.230  0.2941E+00  0.4425E+01
  -0.220  0.2968E+00  0.4428E+01
  -0.210  0.3010E+00  0.4431E+01
  -0.200  0.3069E+00  0.4434E+01
  -0.190  0.3147E+00  0.4437E+01
  -0.180  0.3246E+00  0.4441E+01
  -0.170  0.3367E+00  0.4444E+01
  -0.160  0.3508E+00  0.4448E+01
  -0.150  0.3670E+00  0.4451E+01
  -0.140  0.3850E+00  0.4455E+01
  -0.130  0.4046E+00  0.4459E+01
  -0.120  0.4255E+00  0.4463E+01
  -0.110  0.4474E+00  0.4468E+01
  -0.100  0.4698E+00  0.4473E+01
  -0.090  0.4923E+00  0.4477E+01
  -0.080  0.5146E+00  0.4483E+01
  -0.070  0.5361E+00  0.4488E+01
  -0.060  0.5565E+00  0.4494E+01
  -0.050  0.5753E+00  0.4499E+01
  -0.040  0.5922E+00  0.4505E+01
  -0.030  0.6069E+00  0.4511E+01
  -0.020  0.6192E+00  0.4517E+01
  -0.010  0.6288E+00  0.4524E+01
   0.000  0.6357E+00  0.4530E+01
   0.010  0.6397E+00  0.4536E+01
   0.020  0.6411E+00  0.4543E+01
   0.030  0.6397E+00  0.4549E+01
   0.040  0.6360E+00  0.4556E+01
   0.050  0.6299E+00  0.4562E+01
   0.060  0.6219E+00  0.4568E+01
   0.070  0.6122E+00  0.4574E+01
   0.080  0.6012E+00  0.4580E+01
   0.090  0.5892E+00  0.4586E+01
   0.100  0.5766E+00  0.4592E+01
   0.110  0.5637E+00  0.4598E+01
   0.120  0.5507E+00  0.4603E+01
   0.130  0.5380E+00  0.4608E+01
   0.140  0.5259E+00  0.4614E+01
   0.150  0.5144E+00  0.4619E+01
   0.160  0.5039E+00  0.4624E+01
   0.170  0.4942E+00  0.4629E+01
   0.180  0.4857E+00  0.4634E+01
   0.190  0.4782E+00  0.4639E+01
   0.200  0.4717E+00  0.4643E+01
   0.210  0.4662E+00  0.4648E+01
   0.220  0.4617E+00  0.4653E+01
   0.230  0.4580E+00  0.4657E+01
   0.240  0.4549E+00  0.4662E+01
   0.250  0.4524E+00  0.4666E+01
   0.260  0.4503E+00  0.4671E+01
   0.270  0.4484E+00  0.4675E+01
   0.280  0.4467E+00  0.4680E+01
   0.290  0.4448E+00  0.4684E+01
   0.300  0.4429E+00  0.4688E+01
   0.310  0.4406E+00  0.4693E+01
   0.320  0.4379E+00  0.4697E+01
   0.330  0.4348E+00  0.4702E+01
   0.340  0.4311E+00  0.4706E+01
   0.350  0.4268E+00  0.4710E+01
   0.360  0.4220E+00  0.4714E+01
   0.370  0.4165E+00  0.4719E+01
   0.380  0.4106E+00  0.4723E+01
   0.390  0.4042E+00  0.4727E+01
   0.400  0.3974E+00  0.4731E+01
   0.410  0.3903E+00  0.4735E+01
   0.420  0.3830E+00  0.4738E+01
   0.430  0.3757E+00  0.4742E+01
   0.440  0.3684E+00  0.4746E+01
   0.450  0.3614E+00  0.4750E+01
   0.460  0.3548E+00  0.4753E+01
   0.470  0.3486E+00  0.4757E+01
   0.480  0.3430E+00  0.4760E+01
   0.490  0.3380E+00  0.4763E+01
   0.500  0.3339E+00  0.4767E+01
   0.510  0.3304E+00  0.4770E+01
   0.520  0.3278E+00  0.4773E+01
   0.530  0.3260E+00  0.4777E+01
   0.540  0.3250E+00  0.4780E+01
   0.550  0.3247E+00  0.4783E+01
   0.560  0.3250E+00  0.4786E+01
   0.570  0.3259E+00  0.4790E+01
   0.580  0.3272E+00  0.4793E+01
   0.590  0.3290E+00  0.4796E+01
   0.600  0.3309E+00  0.4799E+01
   0.610  0.3330E+00  0.4803E+01
   0.620  0.3352E+00  0.4806E+01
   0.630  0.3373E+00  0.4809E+01
   0.640  0.3393E+00  0.4813E+01
   0.650  0.3410E+00  0.4816E+01
   0.660  0.3425E+00  0.4820E+01
   0.670  0.3437E+00  0.4823E+01
   0.680  0.3444E+00  0.4827E+01
   0.690  0.3447E+00  0.4830E+01
   0.700  0.3445E+00  0.4833E+01
   0.710  0.3438E+00  0.4837E+01
   0.720  0.3425E+00  0.4840E+01
   0.730  0.3407E+00  0.4844E+01
   0.740  0.3382E+00  0.4847E+01
   0.750  0.3352E+00  0.4850E+01
   0.760  0.3316E+00  0.4854E+01
   0.770  0.3275E+00  0.4857E+01
   0.780  0.3229E+00  0.4860E+01
   0.790  0.3180E+00  0.4863E+01
   0.800  0.3127E+00  0.4867E+01
   0.810  0.3072E+00  0.4870E+01
   0.820  0.3016E+00  0.4873E+01
   0.830  0.2961E+00  0.4876E+01
   0.840  0.2908E+00  0.4879E+01
   0.850  0.2859E+00  0.4881E+01
   0.860  0.2815E+00  0.4884E+01
   0.870  0.2777E+00  0.4887E+01
   0.880  0.2745E+00  0.4890E+01
   0.890  0.2722E+00  0.4892E+01
   0.900  0.2707E+00  0.4895E+01
   0.910  0.2700E+00  0.4898E+01
   0.920  0.2701E+00  0.4901E+01
   0.930  0.2710E+00  0.4903E+01
   0.940  0.2726E+00  0.4906E+01
   0.950  0.2748E+00  0.4909E+01
   0.960  0.2775E+00  0.4912E+01
   0.970  0.2805E+00  0.4914E+01
   0.980  0.2836E+00  0.4917E+01
   0.990  0.2869E+00  0.4920E+01
   1.000  0.2901E+00  0.4923E+01
   1.010  0.2930E+00  0.4926E+01
   1.020  0.2957E+00  0.4929E+01
   1.030  0.2980E+00  0.4932E+01
   1.040  0.2998E+00  0.4935E+01
   1.050  0.3011E+00  0.4938E+01
   1.060  0.3019E+00  0.4941E+01
   1.070  0.3021E+00  0.4944E+01
   1.080  0.3019E+00  0.4947E+01
   1.090  0.3011E+00  0.4950E+01
   1.100  0.2999E+00  0.4953E+01
   1.110  0.2982E+00  0.4956E+01
   1.120  0.2962E+00  0.4959E+01
   1.130  0.2938E+00  0.4962E+01
   1.140  0.2912E+00  0.4965E+01
   1.150  0.2883E+00  0.4968E+01
   1.160  0.2852E+00  0.4970E+01
   1.170  0.2819E+00  0.4973E+01
   1.180  0.2785E+00  0.4976E+01
   1.190  0.2749E+00  0.4979E+01
   1.200  0.2712E+00  0.4981E+01
   1.210  0.2674E+00  0.4984E+01
   1.220  0.2636E+00  0.4987E+01
   1.230  0.2598E+00  0.4989E+01
   1.240  0.2561E+00  0.4992E+01
   1.250  0.2525E+00  0.4994E+01
   1.260  0.2491E+00  0.4997E+01
   1.270  0.2461E+00  0.4999E+01
   1.280  0.2434E+00  0.5002E+01
   1.290  0.2413E+00  0.5004E+01
   1.300  0.2398E+00  0.5007E+01
   1.310  0.2390E+00  0.5009E+01
   1.320  0.2389E+00  0.5011E+01
   1.330  0.2397E+00  0.5014E+01
   1.340  0.2413E+00  0.5016E+01
   1.350  0.2438E+00  0.5019E+01
   1.360  0.2471E+00  0.5021E+01
   1.370  0.2512E+00  0.5024E+01
   1.380  0.2561E+00  0.5026E+01
   1.390  0.2616E+00  0.5029E+01
   1.400  0.2677E+00  0.5032E+01
   1.410  0.2742E+00  0.5034E+01
   1.420  0.2811E+00  0.5037E+01
   1.430  0.2881E+00  0.5040E+01
   1.440  0.2951E+00  0.5043E+01
   1.450  0.3021E+00  0.5046E+01
   1.460  0.3090E+00  0.5049E+01
   1.470  0.3155E+00  0.5052E+01
   1.480  0.3218E+00  0.5055E+01
   1.490  0.3277E+00  0.5059E+01
   1.500  0.3332E+00  0.5062E+01
   1.510  0.3384E+00  0.5065E+01
   1.520  0.3433E+00  0.5069E+01
   1.530  0.3480E+00  0.5072E+01
   1.540  0.3524E+00  0.5076E+01
   1.550  0.3568E+00  0.5079E+01
   1.560  0.3612E+00  0.5083E+01
   1.570  0.3655E+00  0.5087E+01
   1.580  0.3701E+00  0.5090E+01
   1.590  0.3747E+00  0.5094E+01
   1.600  0.3796E+00  0.5098E+01
   1.610  0.3846E+00  0.5102E+01
   1.620  0.3898E+00  0.5106E+01
   1.630  0.3951E+00  0.5110E+01
   1.640  0.4005E+00  0.5114E+01
   1.650  0.4059E+00  0.5118E+01
   1.660  0.4112E+00  0.5122E+01
   1.670  0.4163E+00  0.5126E+01
   1.680  0.4212E+00  0.5130E+01
   1.690  0.4258E+00  0.5134E+01
   1.700  0.4300E+00  0.5139E+01
   1.710  0.4339E+00  0.5143E+01
   1.720  0.4373E+00  0.5147E+01
   1.730  0.4404E+00  0.5152E+01
   1.740  0.4432E+00  0.5156E+01
   1.750  0.4458E+00  0.5161E+01
   1.760  0.4481E+00  0.5165E+01
   1.770  0.4503E+00  0.5170E+01
   1.780  0.4525E+00  0.5174E+01
   1.790  0.4546E+00  0.5179E+01
   1.800  0.4569E+00  0.5183E+01
   1.810  0.4593E+00  0.5188E+01
   1.820  0.4618E+00  0.5193E+01
   1.830  0.4644E+00  0.5197E+01
   1.840  0.4672E+00  0.5202E+01
   1.850  0.4700E+00  0.5207E+01
   1.860  0.4728E+00  0.5211E+01
   1.870  0.4754E+00  0.5216E+01
   1.880  0.4779E+00  0.5221E+01
   1.890  0.4800E+00  0.5226E+01
   1.900  0.4816E+00  0.5230E+01
   1.910  0.4827E+00  0.5235E+01
   1.920  0.4831E+00  0.5240E+01
   1.930  0.4827E+00  0.5245E+01
   1.940  0.4816E+00  0.5250E+01
   1.950  0.4796E+00  0.5255E+01
   1.960  0.4767E+00  0.5259E+01
   1.970  0.4731E+00  0.5264E+01
   1.980  0.4688E+00  0.5269E+01
   1.990  0.4639E+00  0.5273E+01
   2.000  0.4586E+00  0.5278E+01
   2.010  0.4530E+00  0.5282E+01
   2.020  0.4472E+00  0.5287E+01
   2.030  0.4416E+00  0.5291E+01
   2.040  0.4362E+00  0.5296E+01
   2.050  0.4313E+00  0.5300E+01
   2.060  0.4270E+00  0.5304E+01
   2.070  0.4235E+00  0.5309E+01
   2.080  0.4208E+00  0.5313E+01
   2.090  0.4190E+00  0.5317E+01
   2.100  0.4182E+00  0.5321E+01
   2.110  0.4184E+00  0.5325E+01
   2.120  0.4194E+00  0.5330E+01
   2.130  0.4213E+00  0.5334E+01
   2.140  0.4239E+00  0.5338E+01
   2.150  0.4272E+00  0.5342E+01
   2.160  0.4308E+00  0.5347E+01
   2.170  0.4348E+00  0.5351E+01
   2.180  0.4390E+00  0.5355E+01
   2.190  0.4432E+00  0.5360E+01
   2.200  0.4474E+00  0.5364E+01
   2.210  0.4513E+00  0.5369E+01
   2.220  0.4549E+00  0.5373E+01
   2.230  0.4582E+00  0.5378E+01
   2.240  0.4612E+00  0.5382E+01
   2.250  0.4637E+00  0.5387E+01
   2.260  0.4658E+00  0.5392E+01
   2.270  0.4676E+00  0.5396E+01
   2.280  0.4690E+00  0.5401E+01
   2.290  0.4702E+00  0.5406E+01
   2.300  0.4712E+00  0.5411E+01
   2.310  0.4720E+00  0.5415E+01
   2.320  0.4729E+00  0.5420E+01
   2.330  0.4738E+00  0.5425E+01
   2.340  0.4749E+00  0.5429E+01
   2.350  0.4762E+00  0.5434E+01
   2.360  0.4779E+00  0.5439E+01
   2.370  0.4800E+00  0.5444E+01
   2.380  0.4827E+00  0.5449E+01
   2.390  0.4859E+00  0.5453E+01
   2.400  0.4897E+00  0.5458E+01
   2.410  0.4941E+00  0.5463E+01
   2.420  0.4992E+00  0.5468E+01
   2.430  0.5049E+00  0.5473E+01
   2.440  0.5111E+00  0.5478E+01
   2.450  0.5177E+00  0.5484E+01
   2.460  0.5248E+00  0.5489E+01
   2.470  0.5321E+00  0.5494E+01
   2.480  0.5395E+00  0.5500E+01
   2.490  0.5469E+00  0.5505E+01
   2.500  0.5543E+00  0.5511E+01
   2.510  0.5615E+00  0.5516E+01
   2.520  0.5684E+00  0.5522E+01
   2.530  0.5750E+00  0.5528E+01
   2.540  0.5813E+00  0.5533E+01
   2.550  0.5873E+00  0.5539E+01
   2.560  0.5930E+00  0.5545E+01
   2.570  0.5985E+00  0.5551E+01
   2.580  0.6039E+00  0.5557E+01
   2.590  0.6091E+00  0.5563E+01
   2.600  0.6144E+00  0.5570E+01
   2.610  0.6198E+00  0.5576E+01
   2.620  0.6253E+00  0.5582E+01
   2.630  0.6310E+00  0.5588E+01
   2.640  0.6369E+00  0.5595E+01
   2.650  0.6430E+00  0.5601E+01
   2.660  0.6491E+00  0.5608E+01
   2.670  0.6553E+00  0.5614E+01
   2.680  0.6613E+00  0.5621E+01
   2.690  0.6671E+00  0.5627E+01
   2.700  0.6724E+00  0.5634E+01
   2.710  0.6771E+00  0.5641E+01
   2.720  0.6811E+00  0.5648E+01
   2.730  0.6841E+00  0.5655E+01
   2.740  0.6860E+00  0.5661E+01
   2.750  0.6869E+00  0.5668E+01
   2.760  0.6866E+00  0.5675E+01
   2.770  0.6851E+00  0.5682E+01
   2.780  0.6827E+00  0.5689E+01
   2.790  0.6793E+00  0.5696E+01
   2.800  0.6751E+00  0.5702E+01
   2.810  0.6705E+00  0.5709E+01
   2.820  0.6657E+00  0.5716E+01
   2.830  0.6609E+00  0.5722E+01
   2.840  0.6565E+00  0.5729E+01
   2.850  0.6527E+00  0.5735E+01
   2.860  0.6499E+00  0.5742E+01
   2.870  0.6483E+00  0.5748E+01
   2.880  0.6480E+00  0.5755E+01
   2.890  0.6493E+00  0.5761E+01
   2.900  0.6521E+00  0.5768E+01
   2.910  0.6565E+00  0.5775E+01
   2.920  0.6624E+00  0.5781E+01
   2.930  0.6698E+00  0.5788E+01
   2.940  0.6784E+00  0.5795E+01
   2.950  0.6881E+00  0.5802E+01
   2.960  0.6986E+00  0.5808E+01
   2.970  0.7096E+00  0.5816E+01
   2.980  0.7211E+00  0.5823E+01
   2.990  0.7326E+00  0.5830E+01
   3.000  0.7441E+00  0.5838E+01
   3.010  0.7553E+00  0.5845E+01
   3.020  0.7661E+00  0.5853E+01
   3.030  0.7765E+00  0.5861E+01
   3.040  0.7862E+00  0.5868E+01
   3.050  0.7954E+00  0.5876E+01
   3.060  0.8041E+00  0.5884E+01
   3.070  0.8122E+00  0.5893E+01
   3.080  0.8199E+00  0.5901E+01
   3.090  0.8271E+00  0.5909E+01
   3.100  0.8339E+00  0.5917E+01
   3.110  0.8403E+00  0.5926E+01
   3.120  0.8465E+00  0.5934E+01
   3.130  0.8523E+00  0.5943E+01
   3.140  0.8578E+00  0.5951E+01
   3.150  0.8630E+00  0.5960E+01
   3.160  0.8677E+00  0.5969E+01
   3.170  0.8719E+00  0.5977E+01
   3.180  0.8756E+00  0.5986E+01
   3.190  0.8787E+00  0.5995E+01
   3.200  0.8809E+00  0.6004E+01
   3.210  0.8824E+00  0.6013E+01
   3.220  0.8830E+00  0.6021E+01
   3.230  0.8827E+00  0.6030E+01
   3.240  0.8815E+00  0.6039E+01
   3.250  0.8794E+00  0.6048E+01
   3.260  0.8764E+00  0.6057E+01
   3.270  0.8726E+00  0.6065E+01
   3.280  0.8681E+00  0.6074E+01
   3.290  0.8631E+00  0.6083E+01
   3.300  0.8577E+00  0.6091E+01
   3.310  0.8521E+00  0.6100E+01
   3.320  0.8466E+00  0.6108E+01
   3.330  0.8413E+00  0.6117E+01
   3.340  0.8365E+00  0.6125E+01
   3.350  0.8323E+00  0.6133E+01
   3.360  0.8288E+00  0.6142E+01
   3.370  0.8262E+00  0.6150E+01
   3.380  0.8246E+00  0.6158E+01
   3.390  0.8241E+00  0.6166E+01
   3.400  0.8245E+00  0.6175E+01
   3.410  0.8260E+00  0.6183E+01
   3.420  0.8283E+00  0.6191E+01
   3.430  0.8314E+00  0.6199E+01
   3.440  0.8351E+00  0.6208E+01
   3.450  0.8392E+00  0.6216E+01
   3.460  0.8437E+00  0.6225E+01
   3.470  0.8482E+00  0.6233E+01
   3.480  0.8527E+00  0.6242E+01
   3.490  0.8569E+00  0.6250E+01
   3.500  0.8609E+00  0.6259E+01
   3.510  0.8644E+00  0.6267E+01
   3.520  0.8675E+00  0.6276E+01
   3.530  0.8700E+00  0.6285E+01
   3.540  0.8720E+00  0.6293E+01
   3.550  0.8734E+00  0.6302E+01
   3.560  0.8744E+00  0.6311E+01
   3.570  0.8748E+00  0.6320E+01
   3.580  0.8748E+00  0.6328E+01
   3.590  0.8745E+00  0.6337E+01
   3.600  0.8737E+00  0.6346E+01
   3.610  0.8726E+00  0.6355E+01
   3.620  0.8713E+00  0.6363E+01
   3.630  0.8696E+00  0.6372E+01
   3.640  0.8678E+00  0.6381E+01
   3.650  0.8657E+00  0.6389E+01
   3.660  0.8635E+00  0.6398E+01
   3.670  0.8612E+00  0.6407E+01
   3.680  0.8589E+00  0.6415E+01
   3.690  0.8565E+00  0.6424E+01
   3.700  0.8541E+00  0.6432E+01
   3.710  0.8519E+00  0.6441E+01
   3.720  0.8497E+00  0.6449E+01
   3.730  0.8477E+00  0.6458E+01
   3.740  0.8458E+00  0.6466E+01
   3.750  0.8441E+00  0.6475E+01
   3.760  0.8426E+00  0.6483E+01
   3.770  0.8412E+00  0.6492E+01
   3.780  0.8400E+00  0.6500E+01
   3.790  0.8388E+00  0.6508E+01
   3.800  0.8378E+00  0.6517E+01
   3.810  0.8367E+00  0.6525E+01
   3.820  0.8356E+00  0.6533E+01
   3.830  0.8345E+00  0.6542E+01
   3.840  0.8333E+00  0.6550E+01
   3.850  0.8321E+00  0.6558E+01
   3.860  0.8309E+00  0.6567E+01
   3.870  0.8297E+00  0.6575E+01
   3.880  0.8286E+00  0.6583E+01
   3.890  0.8277E+00  0.6592E+01
   3.900  0.8271E+00  0.6600E+01
   3.910  0.8269E+00  0.6608E+01
   3.920  0.8272E+00  0.6616E+01
   3.930  0.8281E+00  0.6625E+01
   3.940  0.8297E+00  0.6633E+01
   3.950  0.8321E+00  0.6641E+01
   3.960  0.8351E+00  0.6650E+01
   3.970  0.8389E+00  0.6658E+01
   3.980  0.8434E+00  0.6667E+01
   3.990  0.8484E+00  0.6675E+01
   4.000  0.8538E+00  0.6684E+01
   4.010  0.8595E+00  0.6692E+01
   4.020  0.8652E+00  0.6701E+01
   4.030  0.8708E+00  0.6709E+01
   4.040  0.8759E+00  0.6718E+01
   4.050  0.8805E+00  0.6727E+01
   4.060  0.8842E+00  0.6736E+01
   4.070  0.8868E+00  0.6745E+01
   4.080  0.8883E+00  0.6754E+01
   4.090  0.8886E+00  0.6763E+01
   4.100  0.8874E+00  0.6771E+01
   4.110  0.8849E+00  0.6780E+01
   4.120  0.8810E+00  0.6789E+01
   4.130  0.8759E+00  0.6798E+01
   4.140  0.8696E+00  0.6807E+01
   4.150  0.8624E+00  0.6815E+01
   4.160  0.8544E+00  0.6824E+01
   4.170  0.8460E+00  0.6832E+01
   4.180  0.8373E+00  0.6841E+01
   4.190  0.8287E+00  0.6849E+01
   4.200  0.8204E+00  0.6857E+01
   4.210  0.8129E+00  0.6865E+01
   4.220  0.8062E+00  0.6873E+01
   4.230  0.8008E+00  0.6881E+01
   4.240  0.7968E+00  0.6889E+01
   4.250  0.7944E+00  0.6897E+01
   4.260  0.7938E+00  0.6905E+01
   4.270  0.7948E+00  0.6913E+01
   4.280  0.7976E+00  0.6921E+01
   4.290  0.8021E+00  0.6929E+01
   4.300  0.8081E+00  0.6937E+01
   4.310  0.8154E+00  0.6945E+01
   4.320  0.8237E+00  0.6953E+01
   4.330  0.8327E+00  0.6962E+01
   4.340  0.8422E+00  0.6970E+01
   4.350  0.8516E+00  0.6979E+01
   4.360  0.8607E+00  0.6987E+01
   4.370  0.8692E+00  0.6996E+01
   4.380  0.8766E+00  0.7005E+01
   4.390  0.8829E+00  0.7014E+01
   4.400  0.8877E+00  0.7023E+01
   4.410  0.8909E+00  0.7031E+01
   4.420  0.8924E+00  0.7040E+01
   4.430  0.8924E+00  0.7049E+01
   4.440  0.8908E+00  0.7058E+01
   4.450  0.8878E+00  0.7067E+01
   4.460  0.8837E+00  0.7076E+01
   4.470  0.8787E+00  0.7085E+01
   4.480  0.8732E+00  0.7093E+01
   4.490  0.8674E+00  0.7102E+01
   4.500  0.8618E+00  0.7111E+01
   4.510  0.8567E+00  0.7119E+01
   4.520  0.8524E+00  0.7128E+01
   4.530  0.8491E+00  0.7136E+01
   4.540  0.8471E+00  0.7145E+01
   4.550  0.8465E+00  0.7153E+01
   4.560  0.8474E+00  0.7162E+01
   4.570  0.8498E+00  0.7170E+01
   4.580  0.8536E+00  0.7179E+01
   4.590  0.8586E+00  0.7187E+01
   4.600  0.8646E+00  0.7196E+01
   4.610  0.8712E+00  0.7205E+01
   4.620  0.8780E+00  0.7213E+01
   4.630  0.8847E+00  0.7222E+01
   4.640  0.8909E+00  0.7231E+01
   4.650  0.8961E+00  0.7240E+01
   4.660  0.8999E+00  0.7249E+01
   4.670  0.9021E+00  0.7258E+01
   4.680  0.9022E+00  0.7267E+01
   4.690  0.9002E+00  0.7276E+01
   4.700  0.8958E+00  0.7285E+01
   4.710  0.8892E+00  0.7294E+01
   4.720  0.8803E+00  0.7303E+01
   4.730  0.8693E+00  0.7312E+01
   4.740  0.8565E+00  0.7320E+01
   4.750  0.8422E+00  0.7329E+01
   4.760  0.8269E+00  0.7337E+01
   4.770  0.8110E+00  0.7345E+01
   4.780  0.7949E+00  0.7353E+01
   4.790  0.7793E+00  0.7361E+01
   4.800  0.7644E+00  0.7368E+01
   4.810  0.7509E+00  0.7376E+01
   4.820  0.7391E+00  0.7383E+01
   4.830  0.7293E+00  0.7391E+01
   4.840  0.7219E+00  0.7398E+01
   4.850  0.7171E+00  0.7405E+01
   4.860  0.7149E+00  0.7412E+01
   4.870  0.7155E+00  0.7419E+01
   4.880  0.7189E+00  0.7426E+01
   4.890  0.7250E+00  0.7434E+01
   4.900  0.7336E+00  0.7441E+01
   4.910  0.7446E+00  0.7448E+01
   4.920  0.7578E+00  0.7456E+01
   4.930  0.7728E+00  0.7464E+01
   4.940  0.7895E+00  0.7472E+01
   4.950  0.8075E+00  0.7480E+01
   4.960  0.8264E+00  0.7488E+01
   4.970  0.8461E+00  0.7496E+01
   4.980  0.8661E+00  0.7505E+01
   4.990  0.8860E+00  0.7514E+01
   5.000  0.9057E+00  0.7523E+01
   5.010  0.9249E+00  0.7532E+01
   5.020  0.9432E+00  0.7542E+01
   5.030  0.9604E+00  0.7551E+01
   5.040  0.9764E+00  0.7561E+01
   5.050  0.9909E+00  0.7571E+01
   5.060  0.1004E+01  0.7581E+01
   5.070  0.1016E+01  0.7591E+01
   5.080  0.1026E+01  0.7601E+01
   5.090  0.1034E+01  0.7612E+01
   5.100  0.1042E+01  0.7622E+01
   5.110  0.1048E+01  0.7633E+01
   5.120  0.1053E+01  0.7643E+01
   5.130  0.1057E+01  0.7654E+01
   5.140  0.1060E+01  0.7664E+01
   5.150  0.1063E+01  0.7675E+01
   5.160  0.1066E+01  0.7686E+01
   5.170  0.1068E+01  0.7696E+01
   5.180  0.1070E+01  0.7707E+01
   5.190  0.1073E+01  0.7718E+01
   5.200  0.1075E+01  0.7729E+01
   5.210  0.1078E+01  0.7739E+01
   5.220  0.1080E+01  0.7750E+01
   5.230  0.1082E+01  0.7761E+01
   5.240  0.1084E+01  0.7772E+01
   5.250  0.1086E+01  0.7783E+01
   5.260  0.1088E+01  0.7793E+01
   5.270  0.1089E+01  0.7804E+01
   5.280  0.1090E+01  0.7815E+01
   5.290  0.1091E+01  0.7826E+01
   5.300  0.1091E+01  0.7837E+01
   5.310  0.1091E+01  0.7848E+01
   5.320  0.1090E+01  0.7859E+01
   5.330  0.1089E+01  0.7870E+01
   5.340  0.1088E+01  0.7881E+01
   5.350  0.1087E+01  0.7892E+01
   5.360  0.1086E+01  0.7902E+01
   5.370  0.1086E+01  0.7913E+01
   5.380  0.1085E+01  0.7924E+01
   5.390  0.1084E+01  0.7935E+01
   5.400  0.1084E+01  0.7946E+01
   5.410  0.1083E+01  0.7957E+01
   5.420  0.1083E+01  0.7967E+01
   5.430  0.1083E+01  0.7978E+01
   5.440  0.1083E+01  0.7989E+01
   5.450  0.1083E+01  0.8000E+01
   5.460  0.1083E+01  0.8011E+01
   5.470  0.1083E+01  0.8022E+01
   5.480  0.1083E+01  0.8032E+01
   5.490  0.1082E+01  0.8043E+01
   5.500  0.1082E+01  0.8054E+01
   5.510  0.1081E+01  0.8065E+01
   5.520  0.1080E+01  0.8076E+01
   5.530  0.1080E+01  0.8086E+01
   5.540  0.1079E+01  0.8097E+01
   5.550  0.1078E+01  0.8108E+01
   5.560  0.1077E+01  0.8119E+01
   5.570  0.1076E+01  0.8130E+01
   5.580  0.1076E+01  0.8140E+01
   5.590  0.1077E+01  0.8151E+01
   5.600  0.1078E+01  0.8162E+01
   5.610  0.1081E+01  0.8173E+01
   5.620  0.1085E+01  0.8184E+01
   5.630  0.1092E+01  0.8194E+01
   5.640  0.1100E+01  0.8205E+01
   5.650  0.1111E+01  0.8217E+01
   5.660  0.1125E+01  0.8228E+01
   5.670  0.1142E+01  0.8239E+01
   5.680  0.1162E+01  0.8251E+01
   5.690  0.1186E+01  0.8263E+01
   5.700  0.1212E+01  0.8275E+01
   5.710  0.1242E+01  0.8287E+01
   5.720  0.1275E+01  0.8300E+01
   5.730  0.1310E+01  0.8313E+01
   5.740  0.1348E+01  0.8327E+01
   5.750  0.1388E+01  0.8340E+01
   5.760  0.1428E+01  0.8355E+01
   5.770  0.1470E+01  0.8369E+01
   5.780  0.1511E+01  0.8385E+01
   5.790  0.1551E+01  0.8400E+01
   5.800  0.1590E+01  0.8416E+01
   5.810  0.1626E+01  0.8432E+01
   5.820  0.1661E+01  0.8449E+01
   5.830  0.1692E+01  0.8466E+01
   5.840  0.1719E+01  0.8483E+01
   5.850  0.1743E+01  0.8500E+01
   5.860  0.1763E+01  0.8518E+01
   5.870  0.1778E+01  0.8536E+01
   5.880  0.1790E+01  0.8554E+01
   5.890  0.1798E+01  0.8572E+01
   5.900  0.1802E+01  0.8590E+01
   5.910  0.1803E+01  0.8608E+01
   5.920  0.1801E+01  0.8626E+01
   5.930  0.1796E+01  0.8644E+01
   5.940  0.1790E+01  0.8662E+01
   5.950  0.1782E+01  0.8679E+01
   5.960  0.1772E+01  0.8697E+01
   5.970  0.1762E+01  0.8715E+01
   5.980  0.1752E+01  0.8732E+01
   5.990  0.1743E+01  0.8750E+01
   6.000  0.1734E+01  0.8767E+01
   6.010  0.1726E+01  0.8784E+01
   6.020  0.1719E+01  0.8802E+01
   6.030  0.1714E+01  0.8819E+01
   6.040  0.1711E+01  0.8836E+01
   6.050  0.1710E+01  0.8853E+01
   6.060  0.1711E+01  0.8870E+01
   6.070  0.1714E+01  0.8887E+01
   6.080  0.1719E+01  0.8904E+01
   6.090  0.1725E+01  0.8922E+01
   6.100  0.1734E+01  0.8939E+01
   6.110  0.1745E+01  0.8956E+01
   6.120  0.1756E+01  0.8974E+01
   6.130  0.1769E+01  0.8992E+01
   6.140  0.1784E+01  0.9009E+01
   6.150  0.1798E+01  0.9027E+01
   6.160  0.1813E+01  0.9046E+01
   6.170  0.1828E+01  0.9064E+01
   6.180  0.1843E+01  0.9082E+01
   6.190  0.1857E+01  0.9101E+01
   6.200  0.1871E+01  0.9120E+01
   6.210  0.1882E+01  0.9138E+01
   6.220  0.1893E+01  0.9157E+01
   6.230  0.1901E+01  0.9176E+01
   6.240  0.1908E+01  0.9195E+01
   6.250  0.1913E+01  0.9215E+01
   6.260  0.1915E+01  0.9234E+01
   6.270  0.1916E+01  0.9253E+01
   6.280  0.1914E+01  0.9272E+01
   6.290  0.1910E+01  0.9291E+01
   6.300  0.1905E+01  0.9310E+01
   6.310  0.1898E+01  0.9329E+01
   6.320  0.1890E+01  0.9348E+01
   6.330  0.1881E+01  0.9367E+01
   6.340  0.1871E+01  0.9386E+01
   6.350  0.1861E+01  0.9404E+01
   6.360  0.1851E+01  0.9423E+01
   6.370  0.1841E+01  0.9441E+01
   6.380  0.1832E+01  0.9459E+01
   6.390  0.1825E+01  0.9478E+01
   6.400  0.1818E+01  0.9496E+01
   6.410  0.1813E+01  0.9514E+01
   6.420  0.1809E+01  0.9532E+01
   6.430  0.1808E+01  0.9550E+01
   6.440  0.1808E+01  0.9568E+01
   6.450  0.1810E+01  0.9586E+01
   6.460  0.1815E+01  0.9604E+01
   6.470  0.1821E+01  0.9623E+01
   6.480  0.1830E+01  0.9641E+01
   6.490  0.1840E+01  0.9659E+01
   6.500  0.1852E+01  0.9678E+01
   6.510  0.1866E+01  0.9697E+01
   6.520  0.1882E+01  0.9715E+01
   6.530  0.1899E+01  0.9734E+01
   6.540  0.1917E+01  0.9753E+01
   6.550  0.1936E+01  0.9773E+01
   6.560  0.1957E+01  0.9792E+01
   6.570  0.1978E+01  0.9812E+01
   6.580  0.2000E+01  0.9832E+01
   6.590  0.2023E+01  0.9852E+01
   6.600  0.2046E+01  0.9873E+01
   6.610  0.2070E+01  0.9894E+01
   6.620  0.2093E+01  0.9915E+01
   6.630  0.2117E+01  0.9936E+01
   6.640  0.2141E+01  0.9957E+01
   6.650  0.2164E+01  0.9979E+01
   6.660  0.2188E+01  0.1000E+02
   6.670  0.2211E+01  0.1002E+02
   6.680  0.2234E+01  0.1005E+02
   6.690  0.2256E+01  0.1007E+02
   6.700  0.2278E+01  0.1009E+02
   6.710  0.2299E+01  0.1011E+02
   6.720  0.2318E+01  0.1014E+02
   6.730  0.2336E+01  0.1016E+02
   6.740  0.2353E+01  0.1018E+02
   6.750  0.2367E+01  0.1021E+02
   6.760  0.2380E+01  0.1023E+02
   6.770  0.2390E+01  0.1025E+02
   6.780  0.2397E+01  0.1028E+02
   6.790  0.2401E+01  0.1030E+02
   6.800  0.2402E+01  0.1033E+02
   6.810  0.2399E+01  0.1035E+02
   6.820  0.2393E+01  0.1037E+02
   6.830  0.2384E+01  0.1040E+02
   6.840  0.2372E+01  0.1042E+02
   6.850  0.2356E+01  0.1045E+02
   6.860  0.2337E+01  0.1047E+02
   6.870  0.2316E+01  0.1049E+02
   6.880  0.2292E+01  0.1052E+02
   6.890  0.2267E+01  0.1054E+02
   6.900  0.2240E+01  0.1056E+02
   6.910  0.2212E+01  0.1058E+02
   6.920  0.2183E+01  0.1060E+02
   6.930  0.2155E+01  0.1063E+02
   6.940  0.2127E+01  0.1065E+02
   6.950  0.2099E+01  0.1067E+02
   6.960  0.2073E+01  0.1069E+02
   6.970  0.2047E+01  0.1071E+02
   6.980  0.2023E+01  0.1073E+02
   6.990  0.2001E+01  0.1075E+02
   7.000  0.1980E+01  0.1077E+02
   7.010  0.1960E+01  0.1079E+02
   7.020  0.1942E+01  0.1081E+02
   7.030  0.1925E+01  0.1083E+02
   7.040  0.1909E+01  0.1085E+02
   7.050  0.1893E+01  0.1087E+02
   7.060  0.1878E+01  0.1088E+02
   7.070  0.1863E+01  0.1090E+02
   7.080  0.1848E+01  0.1092E+02
   7.090  0.1833E+01  0.1094E+02
   7.100  0.1817E+01  0.1096E+02
   7.110  0.1801E+01  0.1098E+02
   7.120  0.1783E+01  0.1099E+02
   7.130  0.1766E+01  0.1101E+02
   7.140  0.1747E+01  0.1103E+02
   7.150  0.1728E+01  0.1105E+02
   7.160  0.1708E+01  0.1106E+02
   7.170  0.1688E+01  0.1108E+02
   7.180  0.1667E+01  0.1110E+02
   7.190  0.1647E+01  0.1111E+02
   7.200  0.1626E+01  0.1113E+02
   7.210  0.1606E+01  0.1115E+02
   7.220  0.1586E+01  0.1116E+02
   7.230  0.1567E+01  0.1118E+02
   7.240  0.1548E+01  0.1119E+02
   7.250  0.1530E+01  0.1121E+02
   7.260  0.1513E+01  0.1122E+02
   7.270  0.1496E+01  0.1124E+02
   7.280  0.1480E+01  0.1125E+02
   7.290  0.1464E+01  0.1127E+02
   7.300  0.1449E+01  0.1128E+02
   7.310  0.1434E+01  0.1130E+02
   7.320  0.1419E+01  0.1131E+02
   7.330  0.1405E+01  0.1132E+02
   7.340  0.1390E+01  0.1134E+02
   7.350  0.1376E+01  0.1135E+02
   7.360  0.1361E+01  0.1137E+02
   7.370  0.1347E+01  0.1138E+02
   7.380  0.1333E+01  0.1139E+02
   7.390  0.1319E+01  0.1141E+02
   7.400  0.1305E+01  0.1142E+02
   7.410  0.1293E+01  0.1143E+02
   7.420  0.1281E+01  0.1144E+02
   7.430  0.1271E+01  0.1146E+02
   7.440  0.1262E+01  0.1147E+02
   7.450  0.1254E+01  0.1148E+02
   7.460  0.1248E+01  0.1150E+02
   7.470  0.1245E+01  0.1151E+02
   7.480  0.1243E+01  0.1152E+02
   7.490  0.1243E+01  0.1153E+02
   7.500  0.1245E+01  0.1154E+02
   7.510  0.1249E+01  0.1156E+02
   7.520  0.1255E+01  0.1157E+02
   7.530  0.1263E+01  0.1158E+02
   7.540  0.1271E+01  0.1160E+02
   7.550  0.1281E+01  0.1161E+02
   7.560  0.1292E+01  0.1162E+02
   7.570  0.1303E+01  0.1163E+02
   7.580  0.1314E+01  0.1165E+02
   7.590  0.1326E+01  0.1166E+02
   7.600  0.1336E+01  0.1167E+02
   7.610  0.1346E+01  0.1169E+02
   7.620  0.1355E+01  0.1170E+02
   7.630  0.1362E+01  0.1171E+02
   7.640  0.1368E+01  0.1173E+02
   7.650  0.1372E+01  0.1174E+02
   7.660  0.1374E+01  0.1176E+02
   7.670  0.1374E+01  0.1177E+02
   7.680  0.1372E+01  0.1178E+02
   7.690  0.1368E+01  0.1180E+02
   7.700  0.1362E+01  0.1181E+02
   7.710  0.1353E+01  0.1182E+02
   7.720  0.1343E+01  0.1184E+02
   7.730  0.1332E+01  0.1185E+02
   7.740  0.1318E+01  0.1186E+02
   7.750  0.1304E+01  0.1188E+02
   7.760  0.1288E+01  0.1189E+02
   7.770  0.1272E+01  0.1190E+02
   7.780  0.1255E+01  0.1191E+02
   7.790  0.1238E+01  0.1193E+02
   7.800  0.1222E+01  0.1194E+02
   7.810  0.1206E+01  0.1195E+02
   7.820  0.1191E+01  0.1196E+02
   7.830  0.1177E+01  0.1198E+02
   7.840  0.1165E+01  0.1199E+02
   7.850  0.1155E+01  0.1200E+02
   7.860  0.1147E+01  0.1201E+02
   7.870  0.1142E+01  0.1202E+02
   7.880  0.1139E+01  0.1203E+02
   7.890  0.1138E+01  0.1204E+02
   7.900  0.1140E+01  0.1206E+02
   7.910  0.1144E+01  0.1207E+02
   7.920  0.1151E+01  0.1208E+02
   7.930  0.1159E+01  0.1209E+02
   7.940  0.1170E+01  0.1210E+02
   7.950  0.1182E+01  0.1211E+02
   7.960  0.1195E+01  0.1213E+02
   7.970  0.1208E+01  0.1214E+02
   7.980  0.1222E+01  0.1215E+02
   7.990  0.1236E+01  0.1216E+02
   8.000  0.1249E+01  0.1217E+02
   8.010  0.1261E+01  0.1219E+02
   8.020  0.1272E+01  0.1220E+02
   8.030  0.1281E+01  0.1221E+02
   8.040  0.1289E+01  0.1223E+02
   8.050  0.1295E+01  0.1224E+02
   8.060  0.1299E+01  0.1225E+02
   8.070  0.1300E+01  0.1226E+02
   8.080  0.1300E+01  0.1228E+02
   8.090  0.1299E+01  0.1229E+02
   8.100  0.1295E+01  0.1230E+02
   8.110  0.1291E+01  0.1232E+02
   8.120  0.1285E+01  0.1233E+02
   8.130  0.1279E+01  0.1234E+02
   8.140  0.1272E+01  0.1235E+02
   8.150  0.1265E+01  0.1237E+02
   8.160  0.1257E+01  0.1238E+02
   8.170  0.1250E+01  0.1239E+02
   8.180  0.1243E+01  0.1240E+02
   8.190  0.1236E+01  0.1242E+02
   8.200  0.1229E+01  0.1243E+02
   8.210  0.1223E+01  0.1244E+02
   8.220  0.1218E+01  0.1245E+02
   8.230  0.1212E+01  0.1247E+02
   8.240  0.1207E+01  0.1248E+02
   8.250  0.1202E+01  0.1249E+02
   8.260  0.1198E+01  0.1250E+02
   8.270  0.1194E+01  0.1251E+02
   8.280  0.1191E+01  0.1253E+02
   8.290  0.1188E+01  0.1254E+02
   8.300  0.1185E+01  0.1255E+02
   8.310  0.1183E+01  0.1256E+02
   8.320  0.1182E+01  0.1257E+02
   8.330  0.1181E+01  0.1259E+02
   8.340  0.1180E+01  0.1260E+02
   8.350  0.1180E+01  0.1261E+02
   8.360  0.1180E+01  0.1262E+02
   8.370  0.1181E+01  0.1263E+02
   8.380  0.1182E+01  0.1264E+02
   8.390  0.1182E+01  0.1266E+02
   8.400  0.1183E+01  0.1267E+02
   8.410  0.1183E+01  0.1268E+02
   8.420  0.1183E+01  0.1269E+02
   8.430  0.1182E+01  0.1270E+02
   8.440  0.1181E+01  0.1272E+02
   8.450  0.1180E+01  0.1273E+02
   8.460  0.1178E+01  0.1274E+02
   8.470  0.1176E+01  0.1275E+02
   8.480  0.1174E+01  0.1276E+02
   8.490  0.1173E+01  0.1277E+02
   8.500  0.1172E+01  0.1279E+02
   8.510  0.1172E+01  0.1280E+02
   8.520  0.1173E+01  0.1281E+02
   8.530  0.1175E+01  0.1282E+02
   8.540  0.1178E+01  0.1283E+02
   8.550  0.1183E+01  0.1284E+02
   8.560  0.1189E+01  0.1286E+02
   8.570  0.1195E+01  0.1287E+02
   8.580  0.1203E+01  0.1288E+02
   8.590  0.1212E+01  0.1289E+02
   8.600  0.1220E+01  0.1290E+02
   8.610  0.1229E+01  0.1292E+02
   8.620  0.1237E+01  0.1293E+02
   8.630  0.1245E+01  0.1294E+02
   8.640  0.1251E+01  0.1295E+02
   8.650  0.1256E+01  0.1297E+02
   8.660  0.1260E+01  0.1298E+02
   8.670  0.1262E+01  0.1299E+02
   8.680  0.1262E+01  0.1300E+02
   8.690  0.1260E+01  0.1302E+02
   8.700  0.1257E+01  0.1303E+02
   8.710  0.1253E+01  0.1304E+02
   8.720  0.1247E+01  0.1305E+02
   8.730  0.1241E+01  0.1307E+02
   8.740  0.1235E+01  0.1308E+02
   8.750  0.1228E+01  0.1309E+02
   8.760  0.1222E+01  0.1310E+02
   8.770  0.1217E+01  0.1312E+02
   8.780  0.1212E+01  0.1313E+02
   8.790  0.1209E+01  0.1314E+02
   8.800  0.1208E+01  0.1315E+02
   8.810  0.1208E+01  0.1316E+02
   8.820  0.1209E+01  0.1318E+02
   8.830  0.1213E+01  0.1319E+02
   8.840  0.1218E+01  0.1320E+02
   8.850  0.1224E+01  0.1321E+02
   8.860  0.1233E+01  0.1323E+02
   8.870  0.1242E+01  0.1324E+02
   8.880  0.1254E+01  0.1325E+02
   8.890  0.1266E+01  0.1326E+02
   8.900  0.1280E+01  0.1328E+02
   8.910  0.1295E+01  0.1329E+02
   8.920  0.1311E+01  0.1330E+02
   8.930  0.1328E+01  0.1332E+02
   8.940  0.1345E+01  0.1333E+02
   8.950  0.1364E+01  0.1334E+02
   8.960  0.1383E+01  0.1336E+02
   8.970  0.1403E+01  0.1337E+02
   8.980  0.1423E+01  0.1338E+02
   8.990  0.1444E+01  0.1340E+02
   9.000  0.1464E+01  0.1341E+02
   9.010  0.1483E+01  0.1343E+02
   9.020  0.1502E+01  0.1344E+02
   9.030  0.1520E+01  0.1346E+02
   9.040  0.1536E+01  0.1347E+02
   9.050  0.1551E+01  0.1349E+02
   9.060  0.1563E+01  0.1351E+02
   9.070  0.1573E+01  0.1352E+02
   9.080  0.1581E+01  0.1354E+02
   9.090  0.1585E+01  0.1355E+02
   9.100  0.1587E+01  0.1357E+02
   9.110  0.1586E+01  0.1358E+02
   9.120  0.1583E+01  0.1360E+02
   9.130  0.1577E+01  0.1362E+02
   9.140  0.1569E+01  0.1363E+02
   9.150  0.1558E+01  0.1365E+02
   9.160  0.1547E+01  0.1366E+02
   9.170  0.1534E+01  0.1368E+02
   9.180  0.1521E+01  0.1369E+02
   9.190  0.1507E+01  0.1371E+02
   9.200  0.1493E+01  0.1372E+02
   9.210  0.1480E+01  0.1374E+02
   9.220  0.1466E+01  0.1375E+02
   9.230  0.1454E+01  0.1377E+02
   9.240  0.1442E+01  0.1378E+02
   9.250  0.1432E+01  0.1380E+02
   9.260  0.1422E+01  0.1381E+02
   9.270  0.1412E+01  0.1382E+02
   9.280  0.1404E+01  0.1384E+02
   9.290  0.1396E+01  0.1385E+02
   9.300  0.1388E+01  0.1387E+02
   9.310  0.1381E+01  0.1388E+02
   9.320  0.1374E+01  0.1389E+02
   9.330  0.1367E+01  0.1391E+02
   9.340  0.1360E+01  0.1392E+02
   9.350  0.1352E+01  0.1393E+02
   9.360  0.1345E+01  0.1395E+02
   9.370  0.1337E+01  0.1396E+02
   9.380  0.1328E+01  0.1397E+02
   9.390  0.1319E+01  0.1399E+02
   9.400  0.1310E+01  0.1400E+02
   9.410  0.1301E+01  0.1401E+02
   9.420  0.1291E+01  0.1403E+02
   9.430  0.1281E+01  0.1404E+02
   9.440  0.1271E+01  0.1405E+02
   9.450  0.1261E+01  0.1407E+02
   9.460  0.1250E+01  0.1408E+02
   9.470  0.1240E+01  0.1409E+02
   9.480  0.1230E+01  0.1410E+02
   9.490  0.1220E+01  0.1411E+02
   9.500  0.1210E+01  0.1413E+02
   9.510  0.1201E+01  0.1414E+02
   9.520  0.1192E+01  0.1415E+02
   9.530  0.1184E+01  0.1416E+02
   9.540  0.1176E+01  0.1417E+02
   9.550  0.1168E+01  0.1419E+02
   9.560  0.1161E+01  0.1420E+02
   9.570  0.1154E+01  0.1421E+02
   9.580  0.1148E+01  0.1422E+02
   9.590  0.1142E+01  0.1423E+02
   9.600  0.1136E+01  0.1424E+02
   9.610  0.1131E+01  0.1425E+02
   9.620  0.1126E+01  0.1427E+02
   9.630  0.1122E+01  0.1428E+02
   9.640  0.1118E+01  0.1429E+02
   9.650  0.1115E+01  0.1430E+02
   9.660  0.1113E+01  0.1431E+02
   9.670  0.1112E+01  0.1432E+02
   9.680  0.1111E+01  0.1433E+02
   9.690  0.1112E+01  0.1434E+02
   9.700  0.1113E+01  0.1435E+02
   9.710  0.1116E+01  0.1437E+02
   9.720  0.1120E+01  0.1438E+02
   9.730  0.1126E+01  0.1439E+02
   9.740  0.1132E+01  0.1440E+02
   9.750  0.1139E+01  0.1441E+02
   9.760  0.1146E+01  0.1442E+02
   9.770  0.1154E+01  0.1443E+02
   9.780  0.1163E+01  0.1445E+02
   9.790  0.1170E+01  0.1446E+02
   9.800  0.1178E+01  0.1447E+02
   9.810  0.1184E+01  0.1448E+02
   9.820  0.1189E+01  0.1449E+02
   9.830  0.1193E+01  0.1451E+02
   9.840  0.1195E+01  0.1452E+02
   9.850  0.1196E+01  0.1453E+02
   9.860  0.1194E+01  0.1454E+02
   9.870  0.1191E+01  0.1455E+02
   9.880  0.1186E+01  0.1456E+02
   9.890  0.1179E+01  0.1458E+02
   9.900  0.1171E+01  0.1459E+02
   9.910  0.1162E+01  0.1460E+02
   9.920  0.1151E+01  0.1461E+02
   9.930  0.1140E+01  0.1462E+02
   9.940  0.1129E+01  0.1463E+02
   9.950  0.1118E+01  0.1465E+02
   9.960  0.1108E+01  0.1466E+02
   9.970  0.1098E+01  0.1467E+02
   9.980  0.1088E+01  0.1468E+02
   9.990  0.1080E+01  0.1469E+02
  10.000  0.1073E+01  0.1470E+02
