# E (eV)  dos(E)    pdos(E)
 -21.658  0.387E-06  0.381E-06
 -21.648  0.652E-06  0.642E-06
 -21.638  0.109E-05  0.107E-05
 -21.628  0.180E-05  0.177E-05
 -21.618  0.293E-05  0.288E-05
 -21.608  0.473E-05  0.465E-05
 -21.598  0.754E-05  0.743E-05
 -21.588  0.119E-04  0.117E-04
 -21.578  0.186E-04  0.183E-04
 -21.568  0.287E-04  0.282E-04
 -21.558  0.437E-04  0.431E-04
 -21.548  0.660E-04  0.650E-04
 -21.538  0.985E-04  0.970E-04
 -21.528  0.145E-03  0.143E-03
 -21.518  0.212E-03  0.209E-03
 -21.508  0.306E-03  0.302E-03
 -21.498  0.437E-03  0.430E-03
 -21.488  0.617E-03  0.608E-03
 -21.478  0.861E-03  0.848E-03
 -21.468  0.119E-02  0.117E-02
 -21.458  0.162E-02  0.160E-02
 -21.448  0.219E-02  0.216E-02
 -21.438  0.292E-02  0.288E-02
 -21.428  0.386E-02  0.380E-02
 -21.418  0.504E-02  0.496E-02
 -21.408  0.651E-02  0.641E-02
 -21.398  0.831E-02  0.819E-02
 -21.388  0.105E-01  0.103E-01
 -21.378  0.131E-01  0.129E-01
 -21.368  0.163E-01  0.160E-01
 -21.358  0.199E-01  0.196E-01
 -21.348  0.242E-01  0.238E-01
 -21.338  0.290E-01  0.286E-01
 -21.328  0.345E-01  0.340E-01
 -21.318  0.407E-01  0.401E-01
 -21.308  0.476E-01  0.468E-01
 -21.298  0.551E-01  0.543E-01
 -21.288  0.635E-01  0.625E-01
 -21.278  0.725E-01  0.714E-01
 -21.268  0.824E-01  0.811E-01
 -21.258  0.931E-01  0.917E-01
 -21.248  0.105E+00  0.103E+00
 -21.238  0.117E+00  0.116E+00
 -21.228  0.131E+00  0.129E+00
 -21.218  0.146E+00  0.144E+00
 -21.208  0.162E+00  0.160E+00
 -21.198  0.180E+00  0.177E+00
 -21.188  0.199E+00  0.196E+00
 -21.178  0.219E+00  0.216E+00
 -21.168  0.241E+00  0.237E+00
 -21.158  0.264E+00  0.260E+00
 -21.148  0.289E+00  0.284E+00
 -21.138  0.314E+00  0.309E+00
 -21.128  0.339E+00  0.334E+00
 -21.118  0.364E+00  0.358E+00
 -21.108  0.387E+00  0.381E+00
 -21.098  0.409E+00  0.403E+00
 -21.088  0.428E+00  0.421E+00
 -21.078  0.443E+00  0.436E+00
 -21.068  0.454E+00  0.447E+00
 -21.058  0.460E+00  0.452E+00
 -21.048  0.459E+00  0.452E+00
 -21.038  0.453E+00  0.446E+00
 -21.028  0.441E+00  0.434E+00
 -21.018  0.422E+00  0.416E+00
 -21.008  0.398E+00  0.392E+00
 -20.998  0.369E+00  0.363E+00
 -20.988  0.336E+00  0.331E+00
 -20.978  0.301E+00  0.296E+00
 -20.968  0.264E+00  0.259E+00
 -20.958  0.226E+00  0.222E+00
 -20.948  0.190E+00  0.187E+00
 -20.938  0.156E+00  0.153E+00
 -20.928  0.126E+00  0.124E+00
 -20.918  0.100E+00  0.987E-01
 -20.908  0.805E-01  0.791E-01
 -20.898  0.669E-01  0.658E-01
 -20.888  0.601E-01  0.591E-01
 -20.878  0.602E-01  0.592E-01
 -20.868  0.672E-01  0.661E-01
 -20.858  0.809E-01  0.795E-01
 -20.848  0.101E+00  0.991E-01
 -20.838  0.126E+00  0.124E+00
 -20.828  0.157E+00  0.154E+00
 -20.818  0.191E+00  0.188E+00
 -20.808  0.229E+00  0.225E+00
 -20.798  0.268E+00  0.264E+00
 -20.788  0.309E+00  0.303E+00
 -20.778  0.349E+00  0.343E+00
 -20.768  0.387E+00  0.381E+00
 -20.758  0.424E+00  0.417E+00
 -20.748  0.457E+00  0.450E+00
 -20.738  0.487E+00  0.479E+00
 -20.728  0.512E+00  0.503E+00
 -20.718  0.532E+00  0.523E+00
 -20.708  0.548E+00  0.539E+00
 -20.698  0.559E+00  0.549E+00
 -20.688  0.565E+00  0.555E+00
 -20.678  0.567E+00  0.557E+00
 -20.668  0.565E+00  0.556E+00
 -20.658  0.561E+00  0.552E+00
 -20.648  0.555E+00  0.545E+00
 -20.638  0.546E+00  0.537E+00
 -20.628  0.537E+00  0.528E+00
 -20.618  0.527E+00  0.518E+00
 -20.608  0.516E+00  0.507E+00
 -20.598  0.505E+00  0.496E+00
 -20.588  0.493E+00  0.484E+00
 -20.578  0.479E+00  0.471E+00
 -20.568  0.464E+00  0.456E+00
 -20.558  0.448E+00  0.440E+00
 -20.548  0.428E+00  0.421E+00
 -20.538  0.406E+00  0.399E+00
 -20.528  0.381E+00  0.375E+00
 -20.518  0.353E+00  0.347E+00
 -20.508  0.323E+00  0.317E+00
 -20.498  0.290E+00  0.285E+00
 -20.488  0.254E+00  0.250E+00
 -20.478  0.218E+00  0.214E+00
 -20.468  0.181E+00  0.178E+00
 -20.458  0.145E+00  0.143E+00
 -20.448  0.110E+00  0.108E+00
 -20.438  0.775E-01  0.761E-01
 -20.428  0.475E-01  0.467E-01
 -20.418  0.209E-01  0.205E-01
 -20.408 -0.184E-02 -0.181E-02
 -20.398 -0.205E-01 -0.202E-01
 -20.388 -0.351E-01 -0.345E-01
 -20.378 -0.456E-01 -0.448E-01
 -20.368 -0.522E-01 -0.513E-01
 -20.358 -0.551E-01 -0.542E-01
 -20.348 -0.548E-01 -0.539E-01
 -20.338 -0.515E-01 -0.506E-01
 -20.328 -0.455E-01 -0.447E-01
 -20.318 -0.371E-01 -0.364E-01
 -20.308 -0.263E-01 -0.259E-01
 -20.298 -0.133E-01 -0.131E-01
 -20.288  0.202E-02  0.195E-02
 -20.278  0.199E-01  0.195E-01
 -20.268  0.405E-01  0.397E-01
 -20.258  0.642E-01  0.630E-01
 -20.248  0.915E-01  0.898E-01
 -20.238  0.123E+00  0.120E+00
 -20.228  0.158E+00  0.155E+00
 -20.218  0.198E+00  0.195E+00
 -20.208  0.243E+00  0.239E+00
 -20.198  0.293E+00  0.288E+00
 -20.188  0.347E+00  0.341E+00
 -20.178  0.405E+00  0.398E+00
 -20.168  0.467E+00  0.458E+00
 -20.158  0.531E+00  0.521E+00
 -20.148  0.595E+00  0.584E+00
 -20.138  0.659E+00  0.647E+00
 -20.128  0.720E+00  0.707E+00
 -20.118  0.777E+00  0.763E+00
 -20.108  0.827E+00  0.812E+00
 -20.098  0.868E+00  0.852E+00
 -20.088  0.899E+00  0.883E+00
 -20.078  0.918E+00  0.902E+00
 -20.068  0.924E+00  0.908E+00
 -20.058  0.917E+00  0.900E+00
 -20.048  0.895E+00  0.879E+00
 -20.038  0.861E+00  0.845E+00
 -20.028  0.813E+00  0.799E+00
 -20.018  0.755E+00  0.741E+00
 -20.008  0.688E+00  0.675E+00
 -19.998  0.614E+00  0.603E+00
 -19.988  0.536E+00  0.526E+00
 -19.978  0.456E+00  0.448E+00
 -19.968  0.378E+00  0.372E+00
 -19.958  0.304E+00  0.299E+00
 -19.948  0.236E+00  0.232E+00
 -19.938  0.176E+00  0.173E+00
 -19.928  0.125E+00  0.123E+00
 -19.918  0.857E-01  0.841E-01
 -19.908  0.572E-01  0.562E-01
 -19.898  0.402E-01  0.395E-01
 -19.888  0.345E-01  0.338E-01
 -19.878  0.393E-01  0.386E-01
 -19.868  0.538E-01  0.528E-01
 -19.858  0.767E-01  0.752E-01
 -19.848  0.107E+00  0.105E+00
 -19.838  0.142E+00  0.139E+00
 -19.828  0.181E+00  0.177E+00
 -19.818  0.221E+00  0.217E+00
 -19.808  0.263E+00  0.258E+00
 -19.798  0.302E+00  0.297E+00
 -19.788  0.339E+00  0.333E+00
 -19.778  0.372E+00  0.365E+00
 -19.768  0.399E+00  0.391E+00
 -19.758  0.419E+00  0.411E+00
 -19.748  0.432E+00  0.424E+00
 -19.738  0.437E+00  0.429E+00
 -19.728  0.434E+00  0.426E+00
 -19.718  0.423E+00  0.416E+00
 -19.708  0.405E+00  0.398E+00
 -19.698  0.381E+00  0.374E+00
 -19.688  0.351E+00  0.344E+00
 -19.678  0.316E+00  0.310E+00
 -19.668  0.277E+00  0.272E+00
 -19.658  0.237E+00  0.233E+00
 -19.648  0.196E+00  0.193E+00
 -19.638  0.156E+00  0.153E+00
 -19.628  0.118E+00  0.116E+00
 -19.618  0.824E-01  0.809E-01
 -19.608  0.504E-01  0.495E-01
 -19.598  0.225E-01  0.221E-01
 -19.588 -0.101E-02 -0.996E-03
 -19.578 -0.199E-01 -0.196E-01
 -19.568 -0.343E-01 -0.337E-01
 -19.558 -0.444E-01 -0.436E-01
 -19.548 -0.506E-01 -0.497E-01
 -19.538 -0.532E-01 -0.523E-01
 -19.528 -0.527E-01 -0.518E-01
 -19.518 -0.496E-01 -0.487E-01
 -19.508 -0.442E-01 -0.434E-01
 -19.498 -0.368E-01 -0.361E-01
 -19.488 -0.278E-01 -0.273E-01
 -19.478 -0.172E-01 -0.169E-01
 -19.468 -0.524E-02 -0.514E-02
 -19.458  0.822E-02  0.806E-02
 -19.448  0.232E-01  0.228E-01
 -19.438  0.400E-01  0.392E-01
 -19.428  0.586E-01  0.575E-01
 -19.418  0.794E-01  0.779E-01
 -19.408  0.102E+00  0.101E+00
 -19.398  0.128E+00  0.126E+00
 -19.388  0.156E+00  0.153E+00
 -19.378  0.187E+00  0.183E+00
 -19.368  0.220E+00  0.216E+00
 -19.358  0.255E+00  0.250E+00
 -19.348  0.292E+00  0.287E+00
 -19.338  0.331E+00  0.325E+00
 -19.328  0.371E+00  0.365E+00
 -19.318  0.412E+00  0.404E+00
 -19.308  0.453E+00  0.444E+00
 -19.298  0.493E+00  0.484E+00
 -19.288  0.532E+00  0.522E+00
 -19.278  0.570E+00  0.559E+00
 -19.268  0.606E+00  0.595E+00
 -19.258  0.640E+00  0.628E+00
 -19.248  0.673E+00  0.660E+00
 -19.238  0.704E+00  0.691E+00
 -19.228  0.733E+00  0.719E+00
 -19.218  0.761E+00  0.747E+00
 -19.208  0.788E+00  0.773E+00
 -19.198  0.813E+00  0.799E+00
 -19.188  0.838E+00  0.823E+00
 -19.178  0.861E+00  0.846E+00
 -19.168  0.883E+00  0.867E+00
 -19.158  0.902E+00  0.885E+00
 -19.148  0.918E+00  0.901E+00
 -19.138  0.929E+00  0.912E+00
 -19.128  0.935E+00  0.917E+00
 -19.118  0.934E+00  0.916E+00
 -19.108  0.925E+00  0.908E+00
 -19.098  0.907E+00  0.890E+00
 -19.088  0.880E+00  0.864E+00
 -19.078  0.843E+00  0.828E+00
 -19.068  0.797E+00  0.782E+00
 -19.058  0.741E+00  0.728E+00
 -19.048  0.678E+00  0.666E+00
 -19.038  0.608E+00  0.597E+00
 -19.028  0.533E+00  0.524E+00
 -19.018  0.456E+00  0.448E+00
 -19.008  0.378E+00  0.371E+00
 -18.998  0.301E+00  0.295E+00
 -18.988  0.227E+00  0.223E+00
 -18.978  0.158E+00  0.155E+00
 -18.968  0.961E-01  0.944E-01
 -18.958  0.415E-01  0.408E-01
 -18.948 -0.484E-02 -0.475E-02
 -18.938 -0.426E-01 -0.418E-01
 -18.928 -0.719E-01 -0.705E-01
 -18.918 -0.929E-01 -0.912E-01
 -18.908 -0.106E+00 -0.104E+00
 -18.898 -0.113E+00 -0.111E+00
 -18.888 -0.114E+00 -0.112E+00
 -18.878 -0.110E+00 -0.108E+00
 -18.868 -0.102E+00 -0.999E-01
 -18.858 -0.904E-01 -0.887E-01
 -18.848 -0.765E-01 -0.751E-01
 -18.838 -0.606E-01 -0.595E-01
 -18.828 -0.431E-01 -0.423E-01
 -18.818 -0.243E-01 -0.238E-01
 -18.808 -0.425E-02 -0.415E-02
 -18.798  0.170E-01  0.167E-01
 -18.788  0.396E-01  0.389E-01
 -18.778  0.636E-01  0.625E-01
 -18.768  0.892E-01  0.876E-01
 -18.758  0.116E+00  0.114E+00
 -18.748  0.145E+00  0.143E+00
 -18.738  0.176E+00  0.173E+00
 -18.728  0.208E+00  0.204E+00
 -18.718  0.240E+00  0.236E+00
 -18.708  0.274E+00  0.269E+00
 -18.698  0.307E+00  0.302E+00
 -18.688  0.339E+00  0.333E+00
 -18.678  0.370E+00  0.363E+00
 -18.668  0.397E+00  0.390E+00
 -18.658  0.421E+00  0.413E+00
 -18.648  0.440E+00  0.432E+00
 -18.638  0.453E+00  0.445E+00
 -18.628  0.461E+00  0.452E+00
 -18.618  0.461E+00  0.453E+00
 -18.608  0.455E+00  0.446E+00
 -18.598  0.441E+00  0.433E+00
 -18.588  0.421E+00  0.414E+00
 -18.578  0.395E+00  0.388E+00
 -18.568  0.363E+00  0.357E+00
 -18.558  0.327E+00  0.322E+00
 -18.548  0.289E+00  0.283E+00
 -18.538  0.248E+00  0.243E+00
 -18.528  0.206E+00  0.203E+00
 -18.518  0.165E+00  0.162E+00
 -18.508  0.126E+00  0.124E+00
 -18.498  0.899E-01  0.883E-01
 -18.488  0.572E-01  0.561E-01
 -18.478  0.285E-01  0.280E-01
 -18.468  0.440E-02  0.433E-02
 -18.458 -0.150E-01 -0.147E-01
 -18.448 -0.296E-01 -0.291E-01
 -18.438 -0.396E-01 -0.389E-01
 -18.428 -0.453E-01 -0.445E-01
 -18.418 -0.468E-01 -0.460E-01
 -18.408 -0.446E-01 -0.438E-01
 -18.398 -0.390E-01 -0.383E-01
 -18.388 -0.301E-01 -0.295E-01
 -18.378 -0.181E-01 -0.177E-01
 -18.368 -0.305E-02 -0.297E-02
 -18.358  0.151E-01  0.148E-01
 -18.348  0.364E-01  0.358E-01
 -18.338  0.613E-01  0.602E-01
 -18.328  0.899E-01  0.884E-01
 -18.318  0.123E+00  0.121E+00
 -18.308  0.160E+00  0.157E+00
 -18.298  0.202E+00  0.198E+00
 -18.288  0.248E+00  0.244E+00
 -18.278  0.299E+00  0.294E+00
 -18.268  0.355E+00  0.349E+00
 -18.258  0.414E+00  0.407E+00
 -18.248  0.477E+00  0.468E+00
 -18.238  0.541E+00  0.532E+00
 -18.228  0.606E+00  0.595E+00
 -18.218  0.670E+00  0.658E+00
 -18.208  0.730E+00  0.718E+00
 -18.198  0.786E+00  0.772E+00
 -18.188  0.835E+00  0.820E+00
 -18.178  0.875E+00  0.860E+00
 -18.168  0.904E+00  0.888E+00
 -18.158  0.921E+00  0.905E+00
 -18.148  0.925E+00  0.909E+00
 -18.138  0.916E+00  0.900E+00
 -18.128  0.893E+00  0.877E+00
 -18.118  0.857E+00  0.842E+00
 -18.108  0.809E+00  0.795E+00
 -18.098  0.751E+00  0.738E+00
 -18.088  0.685E+00  0.673E+00
 -18.078  0.614E+00  0.603E+00
 -18.068  0.540E+00  0.531E+00
 -18.058  0.466E+00  0.458E+00
 -18.048  0.396E+00  0.389E+00
 -18.038  0.332E+00  0.326E+00
 -18.028  0.276E+00  0.271E+00
 -18.018  0.230E+00  0.226E+00
 -18.008  0.197E+00  0.194E+00
 -17.998  0.178E+00  0.175E+00
 -17.988  0.172E+00  0.169E+00
 -17.978  0.181E+00  0.178E+00
 -17.968  0.203E+00  0.200E+00
 -17.958  0.238E+00  0.234E+00
 -17.948  0.285E+00  0.280E+00
 -17.938  0.341E+00  0.335E+00
 -17.928  0.405E+00  0.398E+00
 -17.918  0.473E+00  0.466E+00
 -17.908  0.544E+00  0.535E+00
 -17.898  0.615E+00  0.605E+00
 -17.888  0.683E+00  0.672E+00
 -17.878  0.745E+00  0.732E+00
 -17.868  0.798E+00  0.785E+00
 -17.858  0.841E+00  0.827E+00
 -17.848  0.872E+00  0.857E+00
 -17.838  0.888E+00  0.874E+00
 -17.828  0.890E+00  0.875E+00
 -17.818  0.877E+00  0.863E+00
 -17.808  0.849E+00  0.835E+00
 -17.798  0.808E+00  0.795E+00
 -17.788  0.754E+00  0.742E+00
 -17.778  0.690E+00  0.678E+00
 -17.768  0.617E+00  0.607E+00
 -17.758  0.539E+00  0.530E+00
 -17.748  0.457E+00  0.450E+00
 -17.738  0.376E+00  0.369E+00
 -17.728  0.296E+00  0.291E+00
 -17.718  0.220E+00  0.216E+00
 -17.708  0.150E+00  0.147E+00
 -17.698  0.872E-01  0.857E-01
 -17.688  0.329E-01  0.324E-01
 -17.678 -0.124E-01 -0.122E-01
 -17.668 -0.488E-01 -0.480E-01
 -17.658 -0.765E-01 -0.753E-01
 -17.648 -0.961E-01 -0.945E-01
 -17.638 -0.108E+00 -0.107E+00
 -17.628 -0.114E+00 -0.112E+00
 -17.618 -0.115E+00 -0.113E+00
 -17.608 -0.112E+00 -0.110E+00
 -17.598 -0.105E+00 -0.103E+00
 -17.588 -0.966E-01 -0.950E-01
 -17.578 -0.867E-01 -0.853E-01
 -17.568 -0.762E-01 -0.749E-01
 -17.558 -0.656E-01 -0.646E-01
 -17.548 -0.555E-01 -0.546E-01
 -17.538 -0.460E-01 -0.452E-01
 -17.528 -0.373E-01 -0.366E-01
 -17.518 -0.294E-01 -0.289E-01
 -17.508 -0.224E-01 -0.220E-01
 -17.498 -0.161E-01 -0.158E-01
 -17.488 -0.103E-01 -0.101E-01
 -17.478 -0.489E-02 -0.480E-02
 -17.468  0.407E-03  0.415E-03
 -17.458  0.585E-02  0.577E-02
 -17.448  0.117E-01  0.116E-01
 -17.438  0.183E-01  0.180E-01
 -17.428  0.259E-01  0.256E-01
 -17.418  0.349E-01  0.344E-01
 -17.408  0.455E-01  0.448E-01
 -17.398  0.580E-01  0.571E-01
 -17.388  0.727E-01  0.716E-01
 -17.378  0.898E-01  0.884E-01
 -17.368  0.109E+00  0.108E+00
 -17.358  0.132E+00  0.130E+00
 -17.348  0.156E+00  0.154E+00
 -17.338  0.183E+00  0.181E+00
 -17.328  0.212E+00  0.209E+00
 -17.318  0.243E+00  0.240E+00
 -17.308  0.275E+00  0.271E+00
 -17.298  0.307E+00  0.303E+00
 -17.288  0.339E+00  0.334E+00
 -17.278  0.369E+00  0.363E+00
 -17.268  0.396E+00  0.390E+00
 -17.258  0.420E+00  0.414E+00
 -17.248  0.439E+00  0.433E+00
 -17.238  0.453E+00  0.447E+00
 -17.228  0.461E+00  0.455E+00
 -17.218  0.463E+00  0.456E+00
 -17.208  0.458E+00  0.451E+00
 -17.198  0.446E+00  0.439E+00
 -17.188  0.428E+00  0.421E+00
 -17.178  0.404E+00  0.398E+00
 -17.168  0.375E+00  0.369E+00
 -17.158  0.342E+00  0.337E+00
 -17.148  0.307E+00  0.303E+00
 -17.138  0.272E+00  0.267E+00
 -17.128  0.236E+00  0.233E+00
 -17.118  0.203E+00  0.200E+00
 -17.108  0.173E+00  0.171E+00
 -17.098  0.148E+00  0.146E+00
 -17.088  0.129E+00  0.127E+00
 -17.078  0.116E+00  0.114E+00
 -17.068  0.111E+00  0.109E+00
 -17.058  0.113E+00  0.111E+00
 -17.048  0.122E+00  0.121E+00
 -17.038  0.139E+00  0.137E+00
 -17.028  0.163E+00  0.161E+00
 -17.018  0.194E+00  0.191E+00
 -17.008  0.230E+00  0.226E+00
 -16.998  0.270E+00  0.266E+00
 -16.988  0.315E+00  0.310E+00
 -16.978  0.362E+00  0.356E+00
 -16.968  0.410E+00  0.405E+00
 -16.958  0.460E+00  0.454E+00
 -16.948  0.510E+00  0.502E+00
 -16.938  0.559E+00  0.551E+00
 -16.928  0.606E+00  0.598E+00
 -16.918  0.652E+00  0.643E+00
 -16.908  0.696E+00  0.686E+00
 -16.898  0.737E+00  0.726E+00
 -16.888  0.776E+00  0.765E+00
 -16.878  0.812E+00  0.801E+00
 -16.868  0.846E+00  0.834E+00
 -16.858  0.876E+00  0.864E+00
 -16.848  0.904E+00  0.891E+00
 -16.838  0.928E+00  0.915E+00
 -16.828  0.948E+00  0.935E+00
 -16.818  0.963E+00  0.950E+00
 -16.808  0.973E+00  0.959E+00
 -16.798  0.976E+00  0.962E+00
 -16.788  0.971E+00  0.958E+00
 -16.778  0.958E+00  0.945E+00
 -16.768  0.937E+00  0.924E+00
 -16.758  0.906E+00  0.893E+00
 -16.748  0.865E+00  0.853E+00
 -16.738  0.815E+00  0.804E+00
 -16.728  0.757E+00  0.746E+00
 -16.718  0.691E+00  0.681E+00
 -16.708  0.619E+00  0.610E+00
 -16.698  0.543E+00  0.535E+00
 -16.688  0.464E+00  0.458E+00
 -16.678  0.385E+00  0.380E+00
 -16.668  0.307E+00  0.303E+00
 -16.658  0.233E+00  0.230E+00
 -16.648  0.165E+00  0.163E+00
 -16.638  0.103E+00  0.102E+00
 -16.628  0.500E-01  0.493E-01
 -16.618  0.540E-02  0.537E-02
 -16.608 -0.297E-01 -0.292E-01
 -16.598 -0.552E-01 -0.544E-01
 -16.588 -0.711E-01 -0.701E-01
 -16.578 -0.778E-01 -0.767E-01
 -16.568 -0.758E-01 -0.746E-01
 -16.558 -0.654E-01 -0.644E-01
 -16.548 -0.474E-01 -0.466E-01
 -16.538 -0.223E-01 -0.217E-01
 -16.528  0.950E-02  0.965E-02
 -16.518  0.475E-01  0.471E-01
 -16.508  0.912E-01  0.904E-01
 -16.498  0.140E+00  0.139E+00
 -16.488  0.194E+00  0.192E+00
 -16.478  0.253E+00  0.250E+00
 -16.468  0.316E+00  0.312E+00
 -16.458  0.382E+00  0.377E+00
 -16.448  0.450E+00  0.445E+00
 -16.438  0.519E+00  0.513E+00
 -16.428  0.588E+00  0.582E+00
 -16.418  0.656E+00  0.648E+00
 -16.408  0.719E+00  0.711E+00
 -16.398  0.778E+00  0.769E+00
 -16.388  0.828E+00  0.819E+00
 -16.378  0.869E+00  0.859E+00
 -16.368  0.900E+00  0.889E+00
 -16.358  0.918E+00  0.907E+00
 -16.348  0.922E+00  0.911E+00
 -16.338  0.912E+00  0.902E+00
 -16.328  0.888E+00  0.878E+00
 -16.318  0.851E+00  0.841E+00
 -16.308  0.801E+00  0.792E+00
 -16.298  0.740E+00  0.732E+00
 -16.288  0.671E+00  0.663E+00
 -16.278  0.594E+00  0.587E+00
 -16.268  0.513E+00  0.507E+00
 -16.258  0.430E+00  0.425E+00
 -16.248  0.348E+00  0.344E+00
 -16.238  0.269E+00  0.266E+00
 -16.228  0.195E+00  0.193E+00
 -16.218  0.128E+00  0.127E+00
 -16.208  0.694E-01  0.686E-01
 -16.198  0.194E-01  0.192E-01
 -16.188 -0.212E-01 -0.210E-01
 -16.178 -0.525E-01 -0.518E-01
 -16.168 -0.746E-01 -0.737E-01
 -16.158 -0.883E-01 -0.872E-01
 -16.148 -0.943E-01 -0.931E-01
 -16.138 -0.935E-01 -0.923E-01
 -16.128 -0.868E-01 -0.857E-01
 -16.118 -0.754E-01 -0.743E-01
 -16.108 -0.600E-01 -0.591E-01
 -16.098 -0.415E-01 -0.408E-01
 -16.088 -0.207E-01 -0.202E-01
 -16.078  0.169E-02  0.204E-02
 -16.068  0.251E-01  0.253E-01
 -16.058  0.491E-01  0.491E-01
 -16.048  0.732E-01  0.729E-01
 -16.038  0.969E-01  0.965E-01
 -16.028  0.120E+00  0.119E+00
 -16.018  0.142E+00  0.141E+00
 -16.008  0.162E+00  0.161E+00
 -15.998  0.180E+00  0.179E+00
 -15.988  0.196E+00  0.195E+00
 -15.978  0.209E+00  0.208E+00
 -15.968  0.219E+00  0.217E+00
 -15.958  0.225E+00  0.224E+00
 -15.948  0.228E+00  0.226E+00
 -15.938  0.227E+00  0.225E+00
 -15.928  0.222E+00  0.221E+00
 -15.918  0.214E+00  0.213E+00
 -15.908  0.202E+00  0.201E+00
 -15.898  0.188E+00  0.187E+00
 -15.888  0.171E+00  0.170E+00
 -15.878  0.152E+00  0.151E+00
 -15.868  0.132E+00  0.132E+00
 -15.858  0.112E+00  0.111E+00
 -15.848  0.917E-01  0.911E-01
 -15.838  0.722E-01  0.717E-01
 -15.828  0.540E-01  0.537E-01
 -15.818  0.378E-01  0.375E-01
 -15.808  0.238E-01  0.236E-01
 -15.798  0.125E-01  0.124E-01
 -15.788  0.410E-02  0.406E-02
 -15.778 -0.110E-02 -0.111E-02
 -15.768 -0.293E-02 -0.294E-02
 -15.758 -0.124E-02 -0.126E-02
 -15.748  0.417E-02  0.410E-02
 -15.738  0.135E-01  0.133E-01
 -15.728  0.270E-01  0.267E-01
 -15.718  0.450E-01  0.446E-01
 -15.708  0.678E-01  0.673E-01
 -15.698  0.960E-01  0.952E-01
 -15.688  0.130E+00  0.129E+00
 -15.678  0.170E+00  0.169E+00
 -15.668  0.217E+00  0.215E+00
 -15.658  0.270E+00  0.268E+00
 -15.648  0.331E+00  0.329E+00
 -15.638  0.399E+00  0.396E+00
 -15.628  0.474E+00  0.470E+00
 -15.618  0.555E+00  0.551E+00
 -15.608  0.642E+00  0.636E+00
 -15.598  0.732E+00  0.726E+00
 -15.588  0.825E+00  0.818E+00
 -15.578  0.917E+00  0.909E+00
 -15.568  0.101E+01  0.999E+00
 -15.558  0.109E+01  0.108E+01
 -15.548  0.117E+01  0.116E+01
 -15.538  0.124E+01  0.123E+01
 -15.528  0.129E+01  0.128E+01
 -15.518  0.133E+01  0.132E+01
 -15.508  0.135E+01  0.134E+01
 -15.498  0.135E+01  0.134E+01
 -15.488  0.133E+01  0.132E+01
 -15.478  0.130E+01  0.129E+01
 -15.468  0.124E+01  0.123E+01
 -15.458  0.117E+01  0.116E+01
 -15.448  0.108E+01  0.107E+01
 -15.438  0.977E+00  0.968E+00
 -15.428  0.866E+00  0.859E+00
 -15.418  0.750E+00  0.743E+00
 -15.408  0.631E+00  0.625E+00
 -15.398  0.513E+00  0.508E+00
 -15.388  0.399E+00  0.395E+00
 -15.378  0.292E+00  0.289E+00
 -15.368  0.194E+00  0.192E+00
 -15.358  0.108E+00  0.107E+00
 -15.348  0.334E-01  0.329E-01
 -15.338 -0.284E-01 -0.283E-01
 -15.328 -0.775E-01 -0.769E-01
 -15.318 -0.114E+00 -0.114E+00
 -15.308 -0.140E+00 -0.139E+00
 -15.298 -0.156E+00 -0.155E+00
 -15.288 -0.163E+00 -0.162E+00
 -15.278 -0.163E+00 -0.162E+00
 -15.268 -0.158E+00 -0.156E+00
 -15.258 -0.148E+00 -0.147E+00
 -15.248 -0.136E+00 -0.135E+00
 -15.238 -0.122E+00 -0.120E+00
 -15.228 -0.107E+00 -0.106E+00
 -15.218 -0.917E-01 -0.909E-01
 -15.208 -0.773E-01 -0.766E-01
 -15.198 -0.638E-01 -0.632E-01
 -15.188 -0.513E-01 -0.509E-01
 -15.178 -0.400E-01 -0.397E-01
 -15.168 -0.298E-01 -0.296E-01
 -15.158 -0.205E-01 -0.204E-01
 -15.148 -0.120E-01 -0.120E-01
 -15.138 -0.410E-02 -0.420E-02
 -15.128  0.359E-02  0.337E-02
 -15.118  0.113E-01  0.109E-01
 -15.108  0.192E-01  0.188E-01
 -15.098  0.277E-01  0.271E-01
 -15.088  0.369E-01  0.361E-01
 -15.078  0.470E-01  0.460E-01
 -15.068  0.581E-01  0.569E-01
 -15.058  0.703E-01  0.688E-01
 -15.048  0.836E-01  0.819E-01
 -15.038  0.980E-01  0.959E-01
 -15.028  0.113E+00  0.111E+00
 -15.018  0.129E+00  0.126E+00
 -15.008  0.145E+00  0.142E+00
 -14.998  0.161E+00  0.158E+00
 -14.988  0.176E+00  0.173E+00
 -14.978  0.191E+00  0.187E+00
 -14.968  0.204E+00  0.200E+00
 -14.958  0.215E+00  0.210E+00
 -14.948  0.223E+00  0.218E+00
 -14.938  0.229E+00  0.224E+00
 -14.928  0.231E+00  0.226E+00
 -14.918  0.230E+00  0.225E+00
 -14.908  0.225E+00  0.220E+00
 -14.898  0.217E+00  0.213E+00
 -14.888  0.206E+00  0.202E+00
 -14.878  0.192E+00  0.188E+00
 -14.868  0.175E+00  0.172E+00
 -14.858  0.157E+00  0.154E+00
 -14.848  0.137E+00  0.134E+00
 -14.838  0.117E+00  0.114E+00
 -14.828  0.964E-01  0.944E-01
 -14.818  0.768E-01  0.752E-01
 -14.808  0.585E-01  0.573E-01
 -14.798  0.420E-01  0.411E-01
 -14.788  0.277E-01  0.271E-01
 -14.778  0.160E-01  0.157E-01
 -14.768  0.718E-02  0.706E-02
 -14.758  0.142E-02  0.143E-02
 -14.748 -0.118E-02 -0.110E-02
 -14.738 -0.551E-03 -0.460E-03
 -14.728  0.333E-02  0.336E-02
 -14.718  0.104E-01  0.104E-01
 -14.708  0.208E-01  0.205E-01
 -14.698  0.343E-01  0.338E-01
 -14.688  0.509E-01  0.501E-01
 -14.678  0.705E-01  0.694E-01
 -14.668  0.931E-01  0.915E-01
 -14.658  0.118E+00  0.116E+00
 -14.648  0.146E+00  0.144E+00
 -14.638  0.177E+00  0.173E+00
 -14.628  0.208E+00  0.205E+00
 -14.618  0.242E+00  0.238E+00
 -14.608  0.276E+00  0.271E+00
 -14.598  0.310E+00  0.304E+00
 -14.588  0.342E+00  0.336E+00
 -14.578  0.374E+00  0.367E+00
 -14.568  0.402E+00  0.395E+00
 -14.558  0.427E+00  0.419E+00
 -14.548  0.447E+00  0.439E+00
 -14.538  0.462E+00  0.454E+00
 -14.528  0.472E+00  0.464E+00
 -14.518  0.476E+00  0.468E+00
 -14.508  0.475E+00  0.466E+00
 -14.498  0.468E+00  0.460E+00
 -14.488  0.457E+00  0.449E+00
 -14.478  0.443E+00  0.435E+00
 -14.468  0.427E+00  0.420E+00
 -14.458  0.411E+00  0.404E+00
 -14.448  0.396E+00  0.390E+00
 -14.438  0.386E+00  0.380E+00
 -14.428  0.380E+00  0.374E+00
 -14.418  0.382E+00  0.376E+00
 -14.408  0.392E+00  0.387E+00
 -14.398  0.413E+00  0.407E+00
 -14.388  0.443E+00  0.437E+00
 -14.378  0.484E+00  0.478E+00
 -14.368  0.536E+00  0.529E+00
 -14.358  0.597E+00  0.589E+00
 -14.348  0.665E+00  0.657E+00
 -14.338  0.740E+00  0.731E+00
 -14.328  0.817E+00  0.807E+00
 -14.318  0.895E+00  0.883E+00
 -14.308  0.969E+00  0.957E+00
 -14.298  0.104E+01  0.102E+01
 -14.288  0.110E+01  0.108E+01
 -14.278  0.114E+01  0.113E+01
 -14.268  0.117E+01  0.116E+01
 -14.258  0.119E+01  0.117E+01
 -14.248  0.119E+01  0.117E+01
 -14.238  0.116E+01  0.115E+01
 -14.228  0.112E+01  0.111E+01
 -14.218  0.107E+01  0.105E+01
 -14.208  0.993E+00  0.980E+00
 -14.198  0.906E+00  0.894E+00
 -14.188  0.809E+00  0.798E+00
 -14.178  0.705E+00  0.695E+00
 -14.168  0.597E+00  0.589E+00
 -14.158  0.488E+00  0.482E+00
 -14.148  0.383E+00  0.378E+00
 -14.138  0.283E+00  0.279E+00
 -14.128  0.191E+00  0.188E+00
 -14.118  0.109E+00  0.108E+00
 -14.108  0.382E-01  0.376E-01
 -14.098 -0.209E-01 -0.207E-01
 -14.088 -0.682E-01 -0.674E-01
 -14.078 -0.104E+00 -0.103E+00
 -14.068 -0.129E+00 -0.128E+00
 -14.058 -0.145E+00 -0.143E+00
 -14.048 -0.152E+00 -0.150E+00
 -14.038 -0.153E+00 -0.151E+00
 -14.028 -0.148E+00 -0.146E+00
 -14.018 -0.139E+00 -0.137E+00
 -14.008 -0.127E+00 -0.126E+00
 -13.998 -0.114E+00 -0.113E+00
 -13.988 -0.100E+00 -0.990E-01
 -13.978 -0.864E-01 -0.852E-01
 -13.968 -0.730E-01 -0.720E-01
 -13.958 -0.605E-01 -0.597E-01
 -13.948 -0.491E-01 -0.485E-01
 -13.938 -0.389E-01 -0.384E-01
 -13.928 -0.298E-01 -0.294E-01
 -13.918 -0.216E-01 -0.213E-01
 -13.908 -0.142E-01 -0.140E-01
 -13.898 -0.730E-02 -0.717E-02
 -13.888 -0.508E-03 -0.452E-03
 -13.878  0.652E-02  0.650E-02
 -13.868  0.142E-01  0.141E-01
 -13.858  0.230E-01  0.228E-01
 -13.848  0.333E-01  0.330E-01
 -13.838  0.457E-01  0.453E-01
 -13.828  0.608E-01  0.603E-01
 -13.818  0.790E-01  0.783E-01
 -13.808  0.101E+00  0.100E+00
 -13.798  0.127E+00  0.126E+00
 -13.788  0.158E+00  0.156E+00
 -13.778  0.194E+00  0.192E+00
 -13.768  0.235E+00  0.232E+00
 -13.758  0.281E+00  0.278E+00
 -13.748  0.332E+00  0.329E+00
 -13.738  0.388E+00  0.384E+00
 -13.728  0.448E+00  0.443E+00
 -13.718  0.510E+00  0.506E+00
 -13.708  0.575E+00  0.569E+00
 -13.698  0.639E+00  0.633E+00
 -13.688  0.702E+00  0.696E+00
 -13.678  0.762E+00  0.755E+00
 -13.668  0.816E+00  0.808E+00
 -13.658  0.863E+00  0.855E+00
 -13.648  0.900E+00  0.892E+00
 -13.638  0.928E+00  0.919E+00
 -13.628  0.943E+00  0.935E+00
 -13.618  0.947E+00  0.938E+00
 -13.608  0.938E+00  0.929E+00
 -13.598  0.917E+00  0.908E+00
 -13.588  0.884E+00  0.876E+00
 -13.578  0.843E+00  0.835E+00
 -13.568  0.793E+00  0.786E+00
 -13.558  0.738E+00  0.731E+00
 -13.548  0.680E+00  0.674E+00
 -13.538  0.622E+00  0.616E+00
 -13.528  0.566E+00  0.560E+00
 -13.518  0.513E+00  0.508E+00
 -13.508  0.466E+00  0.461E+00
 -13.498  0.426E+00  0.422E+00
 -13.488  0.394E+00  0.390E+00
 -13.478  0.370E+00  0.366E+00
 -13.468  0.354E+00  0.350E+00
 -13.458  0.345E+00  0.340E+00
 -13.448  0.341E+00  0.336E+00
 -13.438  0.341E+00  0.336E+00
 -13.428  0.343E+00  0.338E+00
 -13.418  0.346E+00  0.341E+00
 -13.408  0.348E+00  0.343E+00
 -13.398  0.347E+00  0.342E+00
 -13.388  0.343E+00  0.338E+00
 -13.378  0.335E+00  0.330E+00
 -13.368  0.322E+00  0.317E+00
 -13.358  0.304E+00  0.300E+00
 -13.348  0.283E+00  0.279E+00
 -13.338  0.259E+00  0.255E+00
 -13.328  0.232E+00  0.229E+00
 -13.318  0.205E+00  0.202E+00
 -13.308  0.179E+00  0.177E+00
 -13.298  0.155E+00  0.153E+00
 -13.288  0.136E+00  0.134E+00
 -13.278  0.121E+00  0.120E+00
 -13.268  0.113E+00  0.112E+00
 -13.258  0.113E+00  0.112E+00
 -13.248  0.121E+00  0.119E+00
 -13.238  0.137E+00  0.136E+00
 -13.228  0.163E+00  0.162E+00
 -13.218  0.198E+00  0.196E+00
 -13.208  0.241E+00  0.239E+00
 -13.198  0.292E+00  0.289E+00
 -13.188  0.349E+00  0.346E+00
 -13.178  0.412E+00  0.408E+00
 -13.168  0.479E+00  0.474E+00
 -13.158  0.548E+00  0.542E+00
 -13.148  0.616E+00  0.610E+00
 -13.138  0.682E+00  0.676E+00
 -13.128  0.744E+00  0.737E+00
 -13.118  0.799E+00  0.791E+00
 -13.108  0.845E+00  0.836E+00
 -13.098  0.880E+00  0.871E+00
 -13.088  0.903E+00  0.894E+00
 -13.078  0.912E+00  0.903E+00
 -13.068  0.907E+00  0.898E+00
 -13.058  0.887E+00  0.878E+00
 -13.048  0.854E+00  0.845E+00
 -13.038  0.807E+00  0.799E+00
 -13.028  0.749E+00  0.741E+00
 -13.018  0.681E+00  0.674E+00
 -13.008  0.606E+00  0.600E+00
 -12.998  0.526E+00  0.521E+00
 -12.988  0.443E+00  0.439E+00
 -12.978  0.361E+00  0.357E+00
 -12.968  0.281E+00  0.278E+00
 -12.958  0.206E+00  0.204E+00
 -12.948  0.137E+00  0.136E+00
 -12.938  0.762E-01  0.754E-01
 -12.928  0.236E-01  0.233E-01
 -12.918 -0.201E-01 -0.199E-01
 -12.908 -0.548E-01 -0.543E-01
 -12.898 -0.809E-01 -0.801E-01
 -12.888 -0.990E-01 -0.980E-01
 -12.878 -0.110E+00 -0.109E+00
 -12.868 -0.115E+00 -0.114E+00
 -12.858 -0.115E+00 -0.114E+00
 -12.848 -0.111E+00 -0.110E+00
 -12.838 -0.104E+00 -0.103E+00
 -12.828 -0.948E-01 -0.939E-01
 -12.818 -0.848E-01 -0.840E-01
 -12.808 -0.744E-01 -0.736E-01
 -12.798 -0.640E-01 -0.634E-01
 -12.788 -0.542E-01 -0.536E-01
 -12.778 -0.451E-01 -0.446E-01
 -12.768 -0.369E-01 -0.366E-01
 -12.758 -0.298E-01 -0.295E-01
 -12.748 -0.237E-01 -0.235E-01
 -12.738 -0.186E-01 -0.184E-01
 -12.728 -0.144E-01 -0.142E-01
 -12.718 -0.110E-01 -0.109E-01
 -12.708 -0.826E-02 -0.817E-02
 -12.698 -0.611E-02 -0.605E-02
 -12.688 -0.444E-02 -0.439E-02
 -12.678 -0.314E-02 -0.311E-02
 -12.668 -0.213E-02 -0.211E-02
 -12.658 -0.132E-02 -0.131E-02
 -12.648 -0.638E-03 -0.632E-03
 -12.638 -0.988E-05 -0.989E-05
 -12.628  0.637E-03  0.631E-03
 -12.618  0.138E-02  0.137E-02
 -12.608  0.231E-02  0.229E-02
 -12.598  0.354E-02  0.350E-02
 -12.588  0.519E-02  0.513E-02
 -12.578  0.741E-02  0.733E-02
 -12.568  0.104E-01  0.103E-01
 -12.558  0.144E-01  0.143E-01
 -12.548  0.197E-01  0.195E-01
 -12.538  0.267E-01  0.264E-01
 -12.528  0.357E-01  0.353E-01
 -12.518  0.472E-01  0.467E-01
 -12.508  0.617E-01  0.611E-01
 -12.498  0.798E-01  0.790E-01
 -12.488  0.102E+00  0.101E+00
 -12.478  0.129E+00  0.128E+00
 -12.468  0.161E+00  0.160E+00
 -12.458  0.199E+00  0.197E+00
 -12.448  0.244E+00  0.241E+00
 -12.438  0.294E+00  0.291E+00
 -12.428  0.352E+00  0.348E+00
 -12.418  0.416E+00  0.411E+00
 -12.408  0.486E+00  0.481E+00
 -12.398  0.561E+00  0.555E+00
 -12.388  0.641E+00  0.634E+00
 -12.378  0.724E+00  0.717E+00
 -12.368  0.809E+00  0.800E+00
 -12.358  0.893E+00  0.884E+00
 -12.348  0.976E+00  0.966E+00
 -12.338  0.105E+01  0.104E+01
 -12.328  0.113E+01  0.111E+01
 -12.318  0.119E+01  0.118E+01
 -12.308  0.124E+01  0.123E+01
 -12.298  0.128E+01  0.127E+01
 -12.288  0.131E+01  0.129E+01
 -12.278  0.132E+01  0.131E+01
 -12.268  0.131E+01  0.130E+01
 -12.258  0.130E+01  0.128E+01
 -12.248  0.126E+01  0.125E+01
 -12.238  0.122E+01  0.120E+01
 -12.228  0.116E+01  0.114E+01
 -12.218  0.108E+01  0.107E+01
 -12.208  0.100E+01  0.994E+00
 -12.198  0.916E+00  0.908E+00
 -12.188  0.824E+00  0.817E+00
 -12.178  0.729E+00  0.722E+00
 -12.168  0.633E+00  0.628E+00
 -12.158  0.538E+00  0.534E+00
 -12.148  0.447E+00  0.443E+00
 -12.138  0.359E+00  0.357E+00
 -12.128  0.278E+00  0.277E+00
 -12.118  0.204E+00  0.203E+00
 -12.108  0.137E+00  0.137E+00
 -12.098  0.788E-01  0.789E-01
 -12.088  0.284E-01  0.289E-01
 -12.078 -0.136E-01 -0.129E-01
 -12.068 -0.477E-01 -0.467E-01
 -12.058 -0.741E-01 -0.730E-01
 -12.048 -0.936E-01 -0.924E-01
 -12.038 -0.107E+00 -0.106E+00
 -12.028 -0.114E+00 -0.113E+00
 -12.018 -0.117E+00 -0.116E+00
 -12.008 -0.116E+00 -0.115E+00
 -11.998 -0.112E+00 -0.111E+00
 -11.988 -0.105E+00 -0.104E+00
 -11.978 -0.972E-01 -0.964E-01
 -11.968 -0.880E-01 -0.873E-01
 -11.958 -0.784E-01 -0.777E-01
 -11.948 -0.687E-01 -0.681E-01
 -11.938 -0.592E-01 -0.588E-01
 -11.928 -0.504E-01 -0.500E-01
 -11.918 -0.422E-01 -0.419E-01
 -11.908 -0.349E-01 -0.347E-01
 -11.898 -0.285E-01 -0.283E-01
 -11.888 -0.230E-01 -0.228E-01
 -11.878 -0.183E-01 -0.181E-01
 -11.868 -0.143E-01 -0.142E-01
 -11.858 -0.111E-01 -0.110E-01
 -11.848 -0.851E-02 -0.846E-02
 -11.838 -0.644E-02 -0.640E-02
 -11.828 -0.481E-02 -0.478E-02
 -11.818 -0.356E-02 -0.353E-02
 -11.808 -0.259E-02 -0.258E-02
 -11.798 -0.187E-02 -0.186E-02
 -11.788 -0.133E-02 -0.132E-02
 -11.778 -0.932E-03 -0.926E-03
 -11.768 -0.641E-03 -0.637E-03
 -11.758 -0.428E-03 -0.425E-03
 -11.748 -0.269E-03 -0.268E-03
 -11.738 -0.146E-03 -0.145E-03
 -11.728 -0.408E-04 -0.412E-04
 -11.718  0.621E-04  0.607E-04
 -11.708  0.180E-03  0.177E-03
 -11.698  0.331E-03  0.326E-03
 -11.688  0.540E-03  0.533E-03
 -11.678  0.838E-03  0.827E-03
 -11.668  0.127E-02  0.125E-02
 -11.658  0.188E-02  0.186E-02
 -11.648  0.276E-02  0.273E-02
 -11.638  0.400E-02  0.395E-02
 -11.628  0.574E-02  0.566E-02
 -11.618  0.813E-02  0.802E-02
 -11.608  0.114E-01  0.112E-01
 -11.598  0.158E-01  0.156E-01
 -11.588  0.216E-01  0.213E-01
 -11.578  0.292E-01  0.289E-01
 -11.568  0.392E-01  0.387E-01
 -11.558  0.519E-01  0.512E-01
 -11.548  0.680E-01  0.671E-01
 -11.538  0.880E-01  0.869E-01
 -11.528  0.113E+00  0.111E+00
 -11.518  0.143E+00  0.141E+00
 -11.508  0.179E+00  0.177E+00
 -11.498  0.221E+00  0.219E+00
 -11.488  0.271E+00  0.268E+00
 -11.478  0.328E+00  0.324E+00
 -11.468  0.392E+00  0.388E+00
 -11.458  0.464E+00  0.459E+00
 -11.448  0.543E+00  0.537E+00
 -11.438  0.628E+00  0.621E+00
 -11.428  0.718E+00  0.710E+00
 -11.418  0.812E+00  0.802E+00
 -11.408  0.907E+00  0.897E+00
 -11.398  0.100E+01  0.991E+00
 -11.388  0.110E+01  0.108E+01
 -11.378  0.118E+01  0.117E+01
 -11.368  0.126E+01  0.125E+01
 -11.358  0.134E+01  0.132E+01
 -11.348  0.140E+01  0.138E+01
 -11.338  0.144E+01  0.143E+01
 -11.328  0.148E+01  0.146E+01
 -11.318  0.150E+01  0.148E+01
 -11.308  0.150E+01  0.149E+01
 -11.298  0.150E+01  0.148E+01
 -11.288  0.148E+01  0.146E+01
 -11.278  0.145E+01  0.143E+01
 -11.268  0.141E+01  0.139E+01
 -11.258  0.136E+01  0.135E+01
 -11.248  0.131E+01  0.130E+01
 -11.238  0.126E+01  0.125E+01
 -11.228  0.121E+01  0.120E+01
 -11.218  0.116E+01  0.115E+01
 -11.208  0.111E+01  0.110E+01
 -11.198  0.106E+01  0.105E+01
 -11.188  0.101E+01  0.101E+01
 -11.178  0.966E+00  0.960E+00
 -11.168  0.920E+00  0.914E+00
 -11.158  0.873E+00  0.868E+00
 -11.148  0.824E+00  0.819E+00
 -11.138  0.772E+00  0.768E+00
 -11.128  0.717E+00  0.713E+00
 -11.118  0.658E+00  0.654E+00
 -11.108  0.595E+00  0.592E+00
 -11.098  0.528E+00  0.526E+00
 -11.088  0.460E+00  0.457E+00
 -11.078  0.389E+00  0.388E+00
 -11.068  0.319E+00  0.318E+00
 -11.058  0.250E+00  0.249E+00
 -11.048  0.184E+00  0.183E+00
 -11.038  0.122E+00  0.122E+00
 -11.028  0.663E-01  0.663E-01
 -11.018  0.170E-01  0.172E-01
 -11.008 -0.250E-01 -0.246E-01
 -10.998 -0.594E-01 -0.589E-01
 -10.988 -0.861E-01 -0.854E-01
 -10.978 -0.105E+00 -0.105E+00
 -10.968 -0.118E+00 -0.117E+00
 -10.958 -0.124E+00 -0.123E+00
 -10.948 -0.125E+00 -0.124E+00
 -10.938 -0.122E+00 -0.121E+00
 -10.928 -0.115E+00 -0.114E+00
 -10.918 -0.106E+00 -0.105E+00
 -10.908 -0.945E-01 -0.939E-01
 -10.898 -0.821E-01 -0.816E-01
 -10.888 -0.690E-01 -0.686E-01
 -10.878 -0.556E-01 -0.554E-01
 -10.868 -0.421E-01 -0.420E-01
 -10.858 -0.286E-01 -0.285E-01
 -10.848 -0.149E-01 -0.149E-01
 -10.838 -0.844E-03 -0.102E-02
 -10.828  0.137E-01  0.134E-01
 -10.818  0.291E-01  0.287E-01
 -10.808  0.457E-01  0.451E-01
 -10.798  0.638E-01  0.629E-01
 -10.788  0.837E-01  0.826E-01
 -10.778  0.106E+00  0.104E+00
 -10.768  0.129E+00  0.128E+00
 -10.758  0.156E+00  0.154E+00
 -10.748  0.184E+00  0.181E+00
 -10.738  0.214E+00  0.211E+00
 -10.728  0.245E+00  0.242E+00
 -10.718  0.277E+00  0.274E+00
 -10.708  0.310E+00  0.306E+00
 -10.698  0.341E+00  0.337E+00
 -10.688  0.371E+00  0.366E+00
 -10.678  0.398E+00  0.393E+00
 -10.668  0.422E+00  0.416E+00
 -10.658  0.440E+00  0.435E+00
 -10.648  0.454E+00  0.448E+00
 -10.638  0.461E+00  0.455E+00
 -10.628  0.461E+00  0.455E+00
 -10.618  0.455E+00  0.449E+00
 -10.608  0.441E+00  0.436E+00
 -10.598  0.421E+00  0.416E+00
 -10.588  0.395E+00  0.390E+00
 -10.578  0.363E+00  0.359E+00
 -10.568  0.327E+00  0.323E+00
 -10.558  0.288E+00  0.285E+00
 -10.548  0.248E+00  0.244E+00
 -10.538  0.206E+00  0.204E+00
 -10.528  0.165E+00  0.163E+00
 -10.518  0.126E+00  0.125E+00
 -10.508  0.900E-01  0.889E-01
 -10.498  0.574E-01  0.566E-01
 -10.488  0.289E-01  0.285E-01
 -10.478  0.498E-02  0.493E-02
 -10.468 -0.141E-01 -0.139E-01
 -10.458 -0.283E-01 -0.280E-01
 -10.448 -0.379E-01 -0.374E-01
 -10.438 -0.428E-01 -0.423E-01
 -10.428 -0.435E-01 -0.429E-01
 -10.418 -0.403E-01 -0.397E-01
 -10.408 -0.332E-01 -0.327E-01
 -10.398 -0.226E-01 -0.222E-01
 -10.388 -0.859E-02 -0.827E-02
 -10.378  0.890E-02  0.906E-02
 -10.368  0.299E-01  0.299E-01
 -10.358  0.546E-01  0.544E-01
 -10.348  0.832E-01  0.827E-01
 -10.338  0.116E+00  0.115E+00
 -10.328  0.153E+00  0.152E+00
 -10.318  0.195E+00  0.194E+00
 -10.308  0.242E+00  0.240E+00
 -10.298  0.293E+00  0.291E+00
 -10.288  0.349E+00  0.346E+00
 -10.278  0.408E+00  0.405E+00
 -10.268  0.471E+00  0.467E+00
 -10.258  0.535E+00  0.531E+00
 -10.248  0.601E+00  0.596E+00
 -10.238  0.665E+00  0.660E+00
 -10.228  0.726E+00  0.721E+00
 -10.218  0.783E+00  0.777E+00
 -10.208  0.832E+00  0.826E+00
 -10.198  0.873E+00  0.867E+00
 -10.188  0.904E+00  0.897E+00
 -10.178  0.923E+00  0.916E+00
 -10.168  0.929E+00  0.922E+00
 -10.158  0.922E+00  0.915E+00
 -10.148  0.901E+00  0.895E+00
 -10.138  0.868E+00  0.862E+00
 -10.128  0.824E+00  0.817E+00
 -10.118  0.769E+00  0.763E+00
 -10.108  0.707E+00  0.702E+00
 -10.098  0.639E+00  0.635E+00
 -10.088  0.569E+00  0.565E+00
 -10.078  0.500E+00  0.496E+00
 -10.068  0.433E+00  0.430E+00
 -10.058  0.372E+00  0.369E+00
 -10.048  0.318E+00  0.316E+00
 -10.038  0.274E+00  0.272E+00
 -10.028  0.240E+00  0.239E+00
 -10.018  0.218E+00  0.216E+00
 -10.008  0.207E+00  0.205E+00
  -9.998  0.206E+00  0.205E+00
  -9.988  0.216E+00  0.214E+00
  -9.978  0.234E+00  0.232E+00
  -9.968  0.259E+00  0.257E+00
  -9.958  0.290E+00  0.288E+00
  -9.948  0.324E+00  0.322E+00
  -9.938  0.361E+00  0.358E+00
  -9.928  0.397E+00  0.394E+00
  -9.918  0.433E+00  0.430E+00
  -9.908  0.467E+00  0.464E+00
  -9.898  0.499E+00  0.495E+00
  -9.888  0.528E+00  0.524E+00
  -9.878  0.555E+00  0.550E+00
  -9.868  0.579E+00  0.574E+00
  -9.858  0.602E+00  0.597E+00
  -9.848  0.624E+00  0.619E+00
  -9.838  0.646E+00  0.641E+00
  -9.828  0.668E+00  0.663E+00
  -9.818  0.692E+00  0.687E+00
  -9.808  0.717E+00  0.712E+00
  -9.798  0.744E+00  0.738E+00
  -9.788  0.771E+00  0.765E+00
  -9.778  0.798E+00  0.791E+00
  -9.768  0.823E+00  0.817E+00
  -9.758  0.846E+00  0.839E+00
  -9.748  0.865E+00  0.858E+00
  -9.738  0.877E+00  0.870E+00
  -9.728  0.882E+00  0.875E+00
  -9.718  0.877E+00  0.870E+00
  -9.708  0.863E+00  0.856E+00
  -9.698  0.838E+00  0.831E+00
  -9.688  0.803E+00  0.796E+00
  -9.678  0.757E+00  0.751E+00
  -9.668  0.703E+00  0.697E+00
  -9.658  0.641E+00  0.636E+00
  -9.648  0.574E+00  0.569E+00
  -9.638  0.503E+00  0.499E+00
  -9.628  0.432E+00  0.429E+00
  -9.618  0.363E+00  0.361E+00
  -9.608  0.299E+00  0.297E+00
  -9.598  0.241E+00  0.239E+00
  -9.588  0.191E+00  0.190E+00
  -9.578  0.151E+00  0.150E+00
  -9.568  0.122E+00  0.121E+00
  -9.558  0.104E+00  0.103E+00
  -9.548  0.967E-01  0.966E-01
  -9.538  0.100E+00  0.100E+00
  -9.528  0.114E+00  0.114E+00
  -9.518  0.136E+00  0.136E+00
  -9.508  0.165E+00  0.165E+00
  -9.498  0.199E+00  0.199E+00
  -9.488  0.237E+00  0.236E+00
  -9.478  0.276E+00  0.275E+00
  -9.468  0.314E+00  0.313E+00
  -9.458  0.350E+00  0.349E+00
  -9.448  0.383E+00  0.381E+00
  -9.438  0.411E+00  0.409E+00
  -9.428  0.433E+00  0.430E+00
  -9.418  0.448E+00  0.445E+00
  -9.408  0.457E+00  0.454E+00
  -9.398  0.459E+00  0.456E+00
  -9.388  0.455E+00  0.452E+00
  -9.378  0.446E+00  0.442E+00
  -9.368  0.434E+00  0.430E+00
  -9.358  0.419E+00  0.414E+00
  -9.348  0.404E+00  0.399E+00
  -9.338  0.390E+00  0.384E+00
  -9.328  0.379E+00  0.373E+00
  -9.318  0.374E+00  0.368E+00
  -9.308  0.376E+00  0.369E+00
  -9.298  0.386E+00  0.379E+00
  -9.288  0.407E+00  0.399E+00
  -9.278  0.440E+00  0.431E+00
  -9.268  0.484E+00  0.474E+00
  -9.258  0.541E+00  0.530E+00
  -9.248  0.611E+00  0.599E+00
  -9.238  0.692E+00  0.678E+00
  -9.228  0.783E+00  0.769E+00
  -9.218  0.884E+00  0.867E+00
  -9.208  0.991E+00  0.973E+00
  -9.198  0.110E+01  0.108E+01
  -9.188  0.121E+01  0.119E+01
  -9.178  0.132E+01  0.130E+01
  -9.168  0.142E+01  0.140E+01
  -9.158  0.152E+01  0.149E+01
  -9.148  0.160E+01  0.157E+01
  -9.138  0.166E+01  0.163E+01
  -9.128  0.170E+01  0.167E+01
  -9.118  0.173E+01  0.169E+01
  -9.108  0.172E+01  0.169E+01
  -9.098  0.170E+01  0.167E+01
  -9.088  0.165E+01  0.162E+01
  -9.078  0.158E+01  0.155E+01
  -9.068  0.148E+01  0.145E+01
  -9.058  0.137E+01  0.134E+01
  -9.048  0.125E+01  0.122E+01
  -9.038  0.111E+01  0.109E+01
  -9.028  0.966E+00  0.944E+00
  -9.018  0.818E+00  0.799E+00
  -9.008  0.672E+00  0.656E+00
  -8.998  0.531E+00  0.518E+00
  -8.988  0.398E+00  0.387E+00
  -8.978  0.276E+00  0.268E+00
  -8.968  0.168E+00  0.162E+00
  -8.958  0.742E-01  0.707E-01
  -8.948 -0.366E-02 -0.530E-02
  -8.938 -0.655E-01 -0.656E-01
  -8.928 -0.112E+00 -0.111E+00
  -8.918 -0.143E+00 -0.141E+00
  -8.908 -0.160E+00 -0.158E+00
  -8.898 -0.165E+00 -0.163E+00
  -8.888 -0.159E+00 -0.157E+00
  -8.878 -0.143E+00 -0.141E+00
  -8.868 -0.119E+00 -0.118E+00
  -8.858 -0.888E-01 -0.884E-01
  -8.848 -0.524E-01 -0.530E-01
  -8.838 -0.112E-01 -0.130E-01
  -8.828  0.339E-01  0.308E-01
  -8.818  0.824E-01  0.778E-01
  -8.808  0.134E+00  0.128E+00
  -8.798  0.188E+00  0.180E+00
  -8.788  0.244E+00  0.235E+00
  -8.778  0.302E+00  0.291E+00
  -8.768  0.362E+00  0.349E+00
  -8.758  0.424E+00  0.409E+00
  -8.748  0.486E+00  0.470E+00
  -8.738  0.550E+00  0.533E+00
  -8.728  0.615E+00  0.596E+00
  -8.718  0.680E+00  0.660E+00
  -8.708  0.744E+00  0.724E+00
  -8.698  0.809E+00  0.787E+00
  -8.688  0.873E+00  0.851E+00
  -8.678  0.935E+00  0.913E+00
  -8.668  0.996E+00  0.973E+00
  -8.658  0.105E+01  0.103E+01
  -8.648  0.111E+01  0.109E+01
  -8.638  0.116E+01  0.114E+01
  -8.628  0.121E+01  0.119E+01
  -8.618  0.125E+01  0.123E+01
  -8.608  0.129E+01  0.126E+01
  -8.598  0.131E+01  0.129E+01
  -8.588  0.133E+01  0.131E+01
  -8.578  0.134E+01  0.132E+01
  -8.568  0.134E+01  0.132E+01
  -8.558  0.132E+01  0.130E+01
  -8.548  0.130E+01  0.128E+01
  -8.538  0.126E+01  0.124E+01
  -8.528  0.121E+01  0.119E+01
  -8.518  0.115E+01  0.113E+01
  -8.508  0.108E+01  0.106E+01
  -8.498  0.999E+00  0.982E+00
  -8.488  0.914E+00  0.897E+00
  -8.478  0.824E+00  0.808E+00
  -8.468  0.732E+00  0.717E+00
  -8.458  0.642E+00  0.628E+00
  -8.448  0.555E+00  0.542E+00
  -8.438  0.475E+00  0.463E+00
  -8.428  0.403E+00  0.393E+00
  -8.418  0.342E+00  0.334E+00
  -8.408  0.294E+00  0.287E+00
  -8.398  0.260E+00  0.255E+00
  -8.388  0.242E+00  0.237E+00
  -8.378  0.239E+00  0.235E+00
  -8.368  0.251E+00  0.249E+00
  -8.358  0.279E+00  0.277E+00
  -8.348  0.321E+00  0.319E+00
  -8.338  0.375E+00  0.374E+00
  -8.328  0.441E+00  0.440E+00
  -8.318  0.515E+00  0.514E+00
  -8.308  0.597E+00  0.596E+00
  -8.298  0.683E+00  0.682E+00
  -8.288  0.772E+00  0.770E+00
  -8.278  0.862E+00  0.859E+00
  -8.268  0.950E+00  0.947E+00
  -8.258  0.103E+01  0.103E+01
  -8.248  0.112E+01  0.111E+01
  -8.238  0.119E+01  0.119E+01
  -8.228  0.126E+01  0.126E+01
  -8.218  0.133E+01  0.132E+01
  -8.208  0.139E+01  0.138E+01
  -8.198  0.145E+01  0.144E+01
  -8.188  0.150E+01  0.149E+01
  -8.178  0.155E+01  0.154E+01
  -8.168  0.159E+01  0.158E+01
  -8.158  0.164E+01  0.163E+01
  -8.148  0.168E+01  0.167E+01
  -8.138  0.172E+01  0.171E+01
  -8.128  0.176E+01  0.174E+01
  -8.118  0.179E+01  0.178E+01
  -8.108  0.182E+01  0.180E+01
  -8.098  0.184E+01  0.183E+01
  -8.088  0.186E+01  0.184E+01
  -8.078  0.187E+01  0.185E+01
  -8.068  0.187E+01  0.185E+01
  -8.058  0.186E+01  0.184E+01
  -8.048  0.185E+01  0.183E+01
  -8.038  0.183E+01  0.181E+01
  -8.028  0.180E+01  0.178E+01
  -8.018  0.177E+01  0.175E+01
  -8.008  0.173E+01  0.171E+01
  -7.998  0.169E+01  0.167E+01
  -7.988  0.165E+01  0.163E+01
  -7.978  0.161E+01  0.158E+01
  -7.968  0.156E+01  0.153E+01
  -7.958  0.151E+01  0.149E+01
  -7.948  0.146E+01  0.144E+01
  -7.938  0.141E+01  0.138E+01
  -7.928  0.135E+01  0.133E+01
  -7.918  0.129E+01  0.126E+01
  -7.908  0.122E+01  0.120E+01
  -7.898  0.115E+01  0.112E+01
  -7.888  0.106E+01  0.104E+01
  -7.878  0.973E+00  0.952E+00
  -7.868  0.878E+00  0.858E+00
  -7.858  0.778E+00  0.761E+00
  -7.848  0.677E+00  0.661E+00
  -7.838  0.575E+00  0.562E+00
  -7.828  0.477E+00  0.466E+00
  -7.818  0.384E+00  0.376E+00
  -7.808  0.301E+00  0.294E+00
  -7.798  0.228E+00  0.223E+00
  -7.788  0.169E+00  0.166E+00
  -7.778  0.126E+00  0.125E+00
  -7.768  0.100E+00  0.995E-01
  -7.758  0.921E-01  0.921E-01
  -7.748  0.102E+00  0.103E+00
  -7.738  0.130E+00  0.131E+00
  -7.728  0.175E+00  0.176E+00
  -7.718  0.236E+00  0.236E+00
  -7.708  0.311E+00  0.311E+00
  -7.698  0.399E+00  0.398E+00
  -7.688  0.496E+00  0.494E+00
  -7.678  0.601E+00  0.598E+00
  -7.668  0.710E+00  0.706E+00
  -7.658  0.821E+00  0.815E+00
  -7.648  0.931E+00  0.924E+00
  -7.638  0.104E+01  0.103E+01
  -7.628  0.113E+01  0.112E+01
  -7.618  0.122E+01  0.121E+01
  -7.608  0.130E+01  0.129E+01
  -7.598  0.136E+01  0.135E+01
  -7.588  0.141E+01  0.139E+01
  -7.578  0.144E+01  0.142E+01
  -7.568  0.145E+01  0.143E+01
  -7.558  0.144E+01  0.143E+01
  -7.548  0.142E+01  0.141E+01
  -7.538  0.138E+01  0.137E+01
  -7.528  0.133E+01  0.132E+01
  -7.518  0.127E+01  0.126E+01
  -7.508  0.120E+01  0.119E+01
  -7.498  0.112E+01  0.111E+01
  -7.488  0.103E+01  0.102E+01
  -7.478  0.942E+00  0.933E+00
  -7.468  0.852E+00  0.844E+00
  -7.458  0.762E+00  0.755E+00
  -7.448  0.674E+00  0.669E+00
  -7.438  0.590E+00  0.585E+00
  -7.428  0.509E+00  0.505E+00
  -7.418  0.433E+00  0.430E+00
  -7.408  0.362E+00  0.360E+00
  -7.398  0.296E+00  0.295E+00
  -7.388  0.236E+00  0.236E+00
  -7.378  0.181E+00  0.181E+00
  -7.368  0.132E+00  0.132E+00
  -7.358  0.876E-01  0.884E-01
  -7.348  0.487E-01  0.497E-01
  -7.338  0.150E-01  0.161E-01
  -7.328 -0.137E-01 -0.124E-01
  -7.318 -0.374E-01 -0.361E-01
  -7.308 -0.563E-01 -0.550E-01
  -7.298 -0.706E-01 -0.694E-01
  -7.288 -0.805E-01 -0.794E-01
  -7.278 -0.864E-01 -0.854E-01
  -7.268 -0.886E-01 -0.876E-01
  -7.258 -0.872E-01 -0.864E-01
  -7.248 -0.828E-01 -0.821E-01
  -7.238 -0.755E-01 -0.749E-01
  -7.228 -0.655E-01 -0.651E-01
  -7.218 -0.531E-01 -0.529E-01
  -7.208 -0.384E-01 -0.383E-01
  -7.198 -0.212E-01 -0.213E-01
  -7.188 -0.157E-02 -0.182E-02
  -7.178  0.208E-01  0.204E-01
  -7.168  0.462E-01  0.456E-01
  -7.158  0.751E-01  0.741E-01
  -7.148  0.108E+00  0.106E+00
  -7.138  0.144E+00  0.143E+00
  -7.128  0.186E+00  0.184E+00
  -7.118  0.232E+00  0.229E+00
  -7.108  0.283E+00  0.280E+00
  -7.098  0.338E+00  0.335E+00
  -7.088  0.398E+00  0.394E+00
  -7.078  0.462E+00  0.457E+00
  -7.068  0.529E+00  0.523E+00
  -7.058  0.597E+00  0.591E+00
  -7.048  0.667E+00  0.660E+00
  -7.038  0.735E+00  0.728E+00
  -7.028  0.802E+00  0.793E+00
  -7.018  0.864E+00  0.855E+00
  -7.008  0.921E+00  0.912E+00
  -6.998  0.972E+00  0.962E+00
  -6.988  0.102E+01  0.100E+01
  -6.978  0.105E+01  0.104E+01
  -6.968  0.108E+01  0.107E+01
  -6.958  0.110E+01  0.109E+01
  -6.948  0.111E+01  0.110E+01
  -6.938  0.112E+01  0.111E+01
  -6.928  0.112E+01  0.111E+01
  -6.918  0.113E+01  0.112E+01
  -6.908  0.113E+01  0.112E+01
  -6.898  0.114E+01  0.113E+01
  -6.888  0.115E+01  0.114E+01
  -6.878  0.117E+01  0.116E+01
  -6.868  0.120E+01  0.119E+01
  -6.858  0.124E+01  0.122E+01
  -6.848  0.128E+01  0.127E+01
  -6.838  0.134E+01  0.132E+01
  -6.828  0.140E+01  0.138E+01
  -6.818  0.146E+01  0.145E+01
  -6.808  0.153E+01  0.152E+01
  -6.798  0.160E+01  0.159E+01
  -6.788  0.167E+01  0.165E+01
  -6.778  0.172E+01  0.171E+01
  -6.768  0.177E+01  0.176E+01
  -6.758  0.181E+01  0.180E+01
  -6.748  0.183E+01  0.182E+01
  -6.738  0.184E+01  0.182E+01
  -6.728  0.182E+01  0.181E+01
  -6.718  0.179E+01  0.177E+01
  -6.708  0.173E+01  0.172E+01
  -6.698  0.166E+01  0.165E+01
  -6.688  0.157E+01  0.156E+01
  -6.678  0.146E+01  0.145E+01
  -6.668  0.134E+01  0.133E+01
  -6.658  0.120E+01  0.120E+01
  -6.648  0.106E+01  0.106E+01
  -6.638  0.919E+00  0.915E+00
  -6.628  0.775E+00  0.771E+00
  -6.618  0.633E+00  0.631E+00
  -6.608  0.498E+00  0.496E+00
  -6.598  0.372E+00  0.372E+00
  -6.588  0.259E+00  0.259E+00
  -6.578  0.160E+00  0.160E+00
  -6.568  0.764E-01  0.770E-01
  -6.558  0.951E-02  0.104E-01
  -6.548 -0.404E-01 -0.393E-01
  -6.538 -0.734E-01 -0.722E-01
  -6.528 -0.901E-01 -0.889E-01
  -6.518 -0.915E-01 -0.904E-01
  -6.508 -0.790E-01 -0.779E-01
  -6.498 -0.539E-01 -0.530E-01
  -6.488 -0.180E-01 -0.173E-01
  -6.478  0.271E-01  0.276E-01
  -6.468  0.796E-01  0.798E-01
  -6.458  0.138E+00  0.138E+00
  -6.448  0.200E+00  0.200E+00
  -6.438  0.265E+00  0.264E+00
  -6.428  0.330E+00  0.329E+00
  -6.418  0.395E+00  0.394E+00
  -6.408  0.458E+00  0.457E+00
  -6.398  0.518E+00  0.516E+00
  -6.388  0.574E+00  0.572E+00
  -6.378  0.624E+00  0.622E+00
  -6.368  0.668E+00  0.665E+00
  -6.358  0.705E+00  0.701E+00
  -6.348  0.733E+00  0.730E+00
  -6.338  0.753E+00  0.749E+00
  -6.328  0.765E+00  0.760E+00
  -6.318  0.767E+00  0.762E+00
  -6.308  0.760E+00  0.755E+00
  -6.298  0.744E+00  0.740E+00
  -6.288  0.720E+00  0.716E+00
  -6.278  0.689E+00  0.684E+00
  -6.268  0.650E+00  0.645E+00
  -6.258  0.605E+00  0.601E+00
  -6.248  0.556E+00  0.551E+00
  -6.238  0.502E+00  0.498E+00
  -6.228  0.446E+00  0.442E+00
  -6.218  0.388E+00  0.385E+00
  -6.208  0.331E+00  0.328E+00
  -6.198  0.274E+00  0.272E+00
  -6.188  0.220E+00  0.218E+00
  -6.178  0.169E+00  0.167E+00
  -6.168  0.121E+00  0.120E+00
  -6.158  0.786E-01  0.775E-01
  -6.148  0.410E-01  0.403E-01
  -6.138  0.895E-02  0.850E-02
  -6.128 -0.176E-01 -0.178E-01
  -6.118 -0.386E-01 -0.385E-01
  -6.108 -0.543E-01 -0.540E-01
  -6.098 -0.649E-01 -0.646E-01
  -6.088 -0.710E-01 -0.705E-01
  -6.078 -0.729E-01 -0.724E-01
  -6.068 -0.711E-01 -0.705E-01
  -6.058 -0.660E-01 -0.655E-01
  -6.048 -0.581E-01 -0.576E-01
  -6.038 -0.476E-01 -0.471E-01
  -6.028 -0.347E-01 -0.343E-01
  -6.018 -0.197E-01 -0.193E-01
  -6.008 -0.233E-02 -0.207E-02
  -5.998  0.174E-01  0.176E-01
  -5.988  0.398E-01  0.399E-01
  -5.978  0.652E-01  0.651E-01
  -5.968  0.939E-01  0.938E-01
  -5.958  0.127E+00  0.126E+00
  -5.948  0.164E+00  0.163E+00
  -5.938  0.205E+00  0.205E+00
  -5.928  0.252E+00  0.252E+00
  -5.918  0.305E+00  0.304E+00
  -5.908  0.364E+00  0.362E+00
  -5.898  0.428E+00  0.427E+00
  -5.888  0.499E+00  0.497E+00
  -5.878  0.575E+00  0.573E+00
  -5.868  0.657E+00  0.655E+00
  -5.858  0.744E+00  0.741E+00
  -5.848  0.834E+00  0.830E+00
  -5.838  0.926E+00  0.922E+00
  -5.828  0.102E+01  0.102E+01
  -5.818  0.111E+01  0.111E+01
  -5.808  0.120E+01  0.120E+01
  -5.798  0.129E+01  0.128E+01
  -5.788  0.137E+01  0.136E+01
  -5.778  0.144E+01  0.143E+01
  -5.768  0.150E+01  0.149E+01
  -5.758  0.155E+01  0.154E+01
  -5.748  0.158E+01  0.157E+01
  -5.738  0.159E+01  0.159E+01
  -5.728  0.159E+01  0.158E+01
  -5.718  0.157E+01  0.156E+01
  -5.708  0.153E+01  0.152E+01
  -5.698  0.147E+01  0.147E+01
  -5.688  0.140E+01  0.139E+01
  -5.678  0.131E+01  0.130E+01
  -5.668  0.121E+01  0.120E+01
  -5.658  0.110E+01  0.109E+01
  -5.648  0.979E+00  0.973E+00
  -5.638  0.859E+00  0.853E+00
  -5.628  0.739E+00  0.735E+00
  -5.618  0.625E+00  0.621E+00
  -5.608  0.519E+00  0.516E+00
  -5.598  0.424E+00  0.422E+00
  -5.588  0.345E+00  0.343E+00
  -5.578  0.282E+00  0.281E+00
  -5.568  0.238E+00  0.237E+00
  -5.558  0.213E+00  0.212E+00
  -5.548  0.208E+00  0.207E+00
  -5.538  0.223E+00  0.222E+00
  -5.528  0.255E+00  0.254E+00
  -5.518  0.305E+00  0.303E+00
  -5.508  0.368E+00  0.367E+00
  -5.498  0.444E+00  0.442E+00
  -5.488  0.528E+00  0.526E+00
  -5.478  0.619E+00  0.616E+00
  -5.468  0.711E+00  0.708E+00
  -5.458  0.803E+00  0.799E+00
  -5.448  0.891E+00  0.887E+00
  -5.438  0.972E+00  0.967E+00
  -5.428  0.104E+01  0.104E+01
  -5.418  0.110E+01  0.110E+01
  -5.408  0.115E+01  0.114E+01
  -5.398  0.118E+01  0.117E+01
  -5.388  0.119E+01  0.118E+01
  -5.378  0.118E+01  0.118E+01
  -5.368  0.116E+01  0.116E+01
  -5.358  0.113E+01  0.112E+01
  -5.348  0.108E+01  0.107E+01
  -5.338  0.101E+01  0.101E+01
  -5.328  0.939E+00  0.936E+00
  -5.318  0.857E+00  0.854E+00
  -5.308  0.769E+00  0.766E+00
  -5.298  0.677E+00  0.675E+00
  -5.288  0.585E+00  0.583E+00
  -5.278  0.493E+00  0.492E+00
  -5.268  0.406E+00  0.404E+00
  -5.258  0.323E+00  0.322E+00
  -5.248  0.248E+00  0.247E+00
  -5.238  0.181E+00  0.180E+00
  -5.228  0.123E+00  0.123E+00
  -5.218  0.750E-01  0.750E-01
  -5.208  0.373E-01  0.375E-01
  -5.198  0.101E-01  0.103E-01
  -5.188 -0.697E-02 -0.666E-02
  -5.178 -0.141E-01 -0.138E-01
  -5.168 -0.118E-01 -0.115E-01
  -5.158 -0.873E-03 -0.621E-03
  -5.148  0.179E-01  0.181E-01
  -5.138  0.437E-01  0.438E-01
  -5.128  0.754E-01  0.754E-01
  -5.118  0.112E+00  0.112E+00
  -5.108  0.152E+00  0.152E+00
  -5.098  0.195E+00  0.195E+00
  -5.088  0.239E+00  0.238E+00
  -5.078  0.283E+00  0.283E+00
  -5.068  0.327E+00  0.326E+00
  -5.058  0.368E+00  0.367E+00
  -5.048  0.406E+00  0.405E+00
  -5.038  0.440E+00  0.439E+00
  -5.028  0.470E+00  0.468E+00
  -5.018  0.494E+00  0.493E+00
  -5.008  0.513E+00  0.512E+00
  -4.998  0.527E+00  0.526E+00
  -4.988  0.536E+00  0.535E+00
  -4.978  0.541E+00  0.539E+00
  -4.968  0.541E+00  0.539E+00
  -4.958  0.538E+00  0.536E+00
  -4.948  0.532E+00  0.531E+00
  -4.938  0.525E+00  0.524E+00
  -4.928  0.517E+00  0.516E+00
  -4.918  0.509E+00  0.508E+00
  -4.908  0.501E+00  0.500E+00
  -4.898  0.494E+00  0.492E+00
  -4.888  0.487E+00  0.486E+00
  -4.878  0.481E+00  0.479E+00
  -4.868  0.475E+00  0.473E+00
  -4.858  0.469E+00  0.467E+00
  -4.848  0.461E+00  0.459E+00
  -4.838  0.453E+00  0.451E+00
  -4.828  0.442E+00  0.440E+00
  -4.818  0.429E+00  0.427E+00
  -4.808  0.414E+00  0.412E+00
  -4.798  0.396E+00  0.394E+00
  -4.788  0.375E+00  0.374E+00
  -4.778  0.353E+00  0.351E+00
  -4.768  0.328E+00  0.327E+00
  -4.758  0.303E+00  0.302E+00
  -4.748  0.277E+00  0.277E+00
  -4.738  0.252E+00  0.251E+00
  -4.728  0.228E+00  0.227E+00
  -4.718  0.204E+00  0.204E+00
  -4.708  0.183E+00  0.183E+00
  -4.698  0.164E+00  0.163E+00
  -4.688  0.146E+00  0.146E+00
  -4.678  0.131E+00  0.131E+00
  -4.668  0.118E+00  0.118E+00
  -4.658  0.107E+00  0.106E+00
  -4.648  0.968E-01  0.966E-01
  -4.638  0.882E-01  0.881E-01
  -4.628  0.808E-01  0.807E-01
  -4.618  0.745E-01  0.743E-01
  -4.608  0.692E-01  0.691E-01
  -4.598  0.651E-01  0.650E-01
  -4.588  0.625E-01  0.624E-01
  -4.578  0.616E-01  0.615E-01
  -4.568  0.631E-01  0.629E-01
  -4.558  0.673E-01  0.671E-01
  -4.548  0.749E-01  0.746E-01
  -4.538  0.865E-01  0.862E-01
  -4.528  0.103E+00  0.102E+00
  -4.518  0.124E+00  0.123E+00
  -4.508  0.151E+00  0.150E+00
  -4.498  0.184E+00  0.183E+00
  -4.488  0.223E+00  0.222E+00
  -4.478  0.269E+00  0.268E+00
  -4.468  0.321E+00  0.320E+00
  -4.458  0.379E+00  0.378E+00
  -4.448  0.443E+00  0.442E+00
  -4.438  0.512E+00  0.510E+00
  -4.428  0.585E+00  0.583E+00
  -4.418  0.662E+00  0.659E+00
  -4.408  0.740E+00  0.737E+00
  -4.398  0.819E+00  0.816E+00
  -4.388  0.896E+00  0.893E+00
  -4.378  0.970E+00  0.967E+00
  -4.368  0.104E+01  0.104E+01
  -4.358  0.110E+01  0.110E+01
  -4.348  0.116E+01  0.115E+01
  -4.338  0.120E+01  0.120E+01
  -4.328  0.124E+01  0.124E+01
  -4.318  0.126E+01  0.126E+01
  -4.308  0.128E+01  0.127E+01
  -4.298  0.128E+01  0.127E+01
  -4.288  0.126E+01  0.126E+01
  -4.278  0.124E+01  0.124E+01
  -4.268  0.121E+01  0.121E+01
  -4.258  0.117E+01  0.117E+01
  -4.248  0.113E+01  0.113E+01
  -4.238  0.108E+01  0.108E+01
  -4.228  0.104E+01  0.103E+01
  -4.218  0.990E+00  0.987E+00
  -4.208  0.949E+00  0.946E+00
  -4.198  0.914E+00  0.911E+00
  -4.188  0.886E+00  0.883E+00
  -4.178  0.866E+00  0.863E+00
  -4.168  0.853E+00  0.851E+00
  -4.158  0.849E+00  0.847E+00
  -4.148  0.851E+00  0.849E+00
  -4.138  0.859E+00  0.857E+00
  -4.128  0.870E+00  0.867E+00
  -4.118  0.881E+00  0.879E+00
  -4.108  0.892E+00  0.889E+00
  -4.098  0.898E+00  0.896E+00
  -4.088  0.900E+00  0.897E+00
  -4.078  0.894E+00  0.891E+00
  -4.068  0.879E+00  0.877E+00
  -4.058  0.855E+00  0.853E+00
  -4.048  0.821E+00  0.819E+00
  -4.038  0.779E+00  0.777E+00
  -4.028  0.728E+00  0.726E+00
  -4.018  0.670E+00  0.668E+00
  -4.008  0.606E+00  0.605E+00
  -3.998  0.539E+00  0.538E+00
  -3.988  0.470E+00  0.469E+00
  -3.978  0.400E+00  0.399E+00
  -3.968  0.332E+00  0.332E+00
  -3.958  0.268E+00  0.267E+00
  -3.948  0.207E+00  0.207E+00
  -3.938  0.152E+00  0.152E+00
  -3.928  0.102E+00  0.102E+00
  -3.918  0.592E-01  0.592E-01
  -3.908  0.224E-01  0.224E-01
  -3.898 -0.814E-02 -0.805E-02
  -3.888 -0.327E-01 -0.326E-01
  -3.878 -0.517E-01 -0.516E-01
  -3.868 -0.657E-01 -0.655E-01
  -3.858 -0.753E-01 -0.750E-01
  -3.848 -0.809E-01 -0.807E-01
  -3.838 -0.833E-01 -0.831E-01
  -3.828 -0.831E-01 -0.829E-01
  -3.818 -0.807E-01 -0.805E-01
  -3.808 -0.767E-01 -0.765E-01
  -3.798 -0.716E-01 -0.714E-01
  -3.788 -0.657E-01 -0.655E-01
  -3.778 -0.593E-01 -0.591E-01
  -3.768 -0.528E-01 -0.526E-01
  -3.758 -0.463E-01 -0.462E-01
  -3.748 -0.401E-01 -0.400E-01
  -3.738 -0.342E-01 -0.341E-01
  -3.728 -0.288E-01 -0.287E-01
  -3.718 -0.238E-01 -0.238E-01
  -3.708 -0.193E-01 -0.193E-01
  -3.698 -0.153E-01 -0.153E-01
  -3.688 -0.116E-01 -0.116E-01
  -3.678 -0.829E-02 -0.827E-02
  -3.668 -0.512E-02 -0.511E-02
  -3.658 -0.202E-02 -0.202E-02
  -3.648  0.117E-02  0.116E-02
  -3.638  0.462E-02  0.461E-02
  -3.628  0.853E-02  0.850E-02
  -3.618  0.131E-01  0.131E-01
  -3.608  0.186E-01  0.185E-01
  -3.598  0.252E-01  0.252E-01
  -3.588  0.333E-01  0.332E-01
  -3.578  0.430E-01  0.429E-01
  -3.568  0.547E-01  0.545E-01
  -3.558  0.685E-01  0.683E-01
  -3.548  0.847E-01  0.845E-01
  -3.538  0.103E+00  0.103E+00
  -3.528  0.125E+00  0.125E+00
  -3.518  0.149E+00  0.148E+00
  -3.508  0.175E+00  0.175E+00
  -3.498  0.204E+00  0.203E+00
  -3.488  0.234E+00  0.233E+00
  -3.478  0.266E+00  0.265E+00
  -3.468  0.298E+00  0.297E+00
  -3.458  0.329E+00  0.329E+00
  -3.448  0.360E+00  0.359E+00
  -3.438  0.388E+00  0.387E+00
  -3.428  0.413E+00  0.412E+00
  -3.418  0.434E+00  0.433E+00
  -3.408  0.449E+00  0.448E+00
  -3.398  0.459E+00  0.458E+00
  -3.388  0.462E+00  0.461E+00
  -3.378  0.458E+00  0.457E+00
  -3.368  0.447E+00  0.446E+00
  -3.358  0.430E+00  0.429E+00
  -3.348  0.406E+00  0.405E+00
  -3.338  0.376E+00  0.375E+00
  -3.328  0.342E+00  0.341E+00
  -3.318  0.305E+00  0.304E+00
  -3.308  0.265E+00  0.264E+00
  -3.298  0.224E+00  0.223E+00
  -3.288  0.183E+00  0.182E+00
  -3.278  0.144E+00  0.143E+00
  -3.268  0.107E+00  0.107E+00
  -3.258  0.746E-01  0.745E-01
  -3.248  0.464E-01  0.463E-01
  -3.238  0.232E-01  0.231E-01
  -3.228  0.560E-02  0.557E-02
  -3.218 -0.618E-02 -0.620E-02
  -3.208 -0.120E-01 -0.120E-01
  -3.198 -0.117E-01 -0.118E-01
  -3.188 -0.544E-02 -0.550E-02
  -3.178  0.683E-02  0.672E-02
  -3.168  0.250E-01  0.248E-01
  -3.158  0.491E-01  0.488E-01
  -3.148  0.789E-01  0.785E-01
  -3.138  0.114E+00  0.114E+00
  -3.128  0.156E+00  0.155E+00
  -3.118  0.202E+00  0.201E+00
  -3.108  0.254E+00  0.253E+00
  -3.098  0.311E+00  0.309E+00
  -3.088  0.371E+00  0.370E+00
  -3.078  0.435E+00  0.434E+00
  -3.068  0.501E+00  0.499E+00
  -3.058  0.568E+00  0.566E+00
  -3.048  0.635E+00  0.632E+00
  -3.038  0.699E+00  0.696E+00
  -3.028  0.758E+00  0.755E+00
  -3.018  0.811E+00  0.808E+00
  -3.008  0.856E+00  0.852E+00
  -2.998  0.890E+00  0.887E+00
  -2.988  0.913E+00  0.909E+00
  -2.978  0.922E+00  0.919E+00
  -2.968  0.918E+00  0.915E+00
  -2.958  0.900E+00  0.897E+00
  -2.948  0.868E+00  0.865E+00
  -2.938  0.823E+00  0.820E+00
  -2.928  0.767E+00  0.764E+00
  -2.918  0.700E+00  0.697E+00
  -2.908  0.626E+00  0.623E+00
  -2.898  0.546E+00  0.544E+00
  -2.888  0.464E+00  0.462E+00
  -2.878  0.381E+00  0.379E+00
  -2.868  0.300E+00  0.299E+00
  -2.858  0.224E+00  0.223E+00
  -2.848  0.153E+00  0.152E+00
  -2.838  0.899E-01  0.896E-01
  -2.828  0.352E-01  0.350E-01
  -2.818 -0.106E-01 -0.106E-01
  -2.808 -0.475E-01 -0.473E-01
  -2.798 -0.755E-01 -0.752E-01
  -2.788 -0.954E-01 -0.950E-01
  -2.778 -0.108E+00 -0.108E+00
  -2.768 -0.114E+00 -0.114E+00
  -2.758 -0.115E+00 -0.115E+00
  -2.748 -0.112E+00 -0.111E+00
  -2.738 -0.106E+00 -0.105E+00
  -2.728 -0.971E-01 -0.967E-01
  -2.718 -0.872E-01 -0.869E-01
  -2.708 -0.768E-01 -0.765E-01
  -2.698 -0.664E-01 -0.661E-01
  -2.688 -0.564E-01 -0.562E-01
  -2.678 -0.471E-01 -0.469E-01
  -2.668 -0.388E-01 -0.386E-01
  -2.658 -0.314E-01 -0.313E-01
  -2.648 -0.251E-01 -0.250E-01
  -2.638 -0.197E-01 -0.197E-01
  -2.628 -0.153E-01 -0.153E-01
  -2.618 -0.117E-01 -0.117E-01
  -2.608 -0.887E-02 -0.883E-02
  -2.598 -0.662E-02 -0.659E-02
  -2.588 -0.487E-02 -0.485E-02
  -2.578 -0.354E-02 -0.353E-02
  -2.568 -0.255E-02 -0.254E-02
  -2.558 -0.181E-02 -0.180E-02
  -2.548 -0.127E-02 -0.126E-02
  -2.538 -0.876E-03 -0.873E-03
  -2.528 -0.599E-03 -0.597E-03
  -2.518 -0.405E-03 -0.403E-03
  -2.508 -0.270E-03 -0.269E-03
  -2.498 -0.179E-03 -0.178E-03
  -2.488 -0.116E-03 -0.116E-03
  -2.478 -0.751E-04 -0.748E-04
  -2.468 -0.478E-04 -0.477E-04
  -2.458 -0.301E-04 -0.300E-04
  -2.448 -0.188E-04 -0.187E-04
  -2.438 -0.115E-04 -0.115E-04
  -2.428 -0.703E-05 -0.700E-05
  -2.418 -0.423E-05 -0.421E-05
  -2.408 -0.251E-05 -0.250E-05
  -2.398 -0.148E-05 -0.147E-05
  -2.388 -0.859E-06 -0.856E-06
  -2.378 -0.494E-06 -0.492E-06
  -2.368 -0.281E-06 -0.280E-06
  -2.358 -0.158E-06 -0.157E-06
  -2.348 -0.876E-07 -0.873E-07
  -2.338 -0.481E-07 -0.480E-07
  -2.328 -0.262E-07 -0.261E-07
  -2.318 -0.141E-07 -0.140E-07
  -2.308  0.842E-13  0.837E-13
  -2.298  0.187E-12  0.186E-12
  -2.288  0.412E-12  0.409E-12
  -2.278  0.895E-12  0.890E-12
  -2.268  0.193E-11  0.191E-11
  -2.258  0.410E-11  0.407E-11
  -2.248  0.862E-11  0.857E-11
  -2.238  0.179E-10  0.178E-10
  -2.228  0.369E-10  0.367E-10
  -2.218  0.752E-10  0.748E-10
  -2.208  0.152E-09  0.151E-09
  -2.198  0.302E-09  0.300E-09
  -2.188  0.595E-09  0.591E-09
  -2.178  0.116E-08  0.115E-08
  -2.168  0.223E-08  0.222E-08
  -2.158  0.426E-08  0.423E-08
  -2.148  0.803E-08  0.798E-08
  -2.138  0.150E-07  0.149E-07
  -2.128  0.276E-07  0.275E-07
  -2.118  0.504E-07  0.501E-07
  -2.108  0.909E-07  0.904E-07
  -2.098  0.162E-06  0.161E-06
  -2.088  0.286E-06  0.285E-06
  -2.078  0.500E-06  0.497E-06
  -2.068  0.863E-06  0.857E-06
  -2.058  0.147E-05  0.146E-05
  -2.048  0.249E-05  0.247E-05
  -2.038  0.415E-05  0.413E-05
  -2.028  0.686E-05  0.681E-05
  -2.018  0.112E-04  0.111E-04
  -2.008  0.181E-04  0.180E-04
  -1.998  0.289E-04  0.287E-04
  -1.988  0.456E-04  0.453E-04
  -1.978  0.713E-04  0.708E-04
  -1.968  0.110E-03  0.109E-03
  -1.958  0.168E-03  0.167E-03
  -1.948  0.254E-03  0.252E-03
  -1.938  0.379E-03  0.377E-03
  -1.928  0.560E-03  0.557E-03
  -1.918  0.818E-03  0.813E-03
  -1.908  0.118E-02  0.117E-02
  -1.898  0.169E-02  0.168E-02
  -1.888  0.238E-02  0.237E-02
  -1.878  0.332E-02  0.330E-02
  -1.868  0.458E-02  0.456E-02
  -1.858  0.625E-02  0.621E-02
  -1.848  0.843E-02  0.838E-02
  -1.838  0.112E-01  0.112E-01
  -1.828  0.148E-01  0.147E-01
  -1.818  0.193E-01  0.192E-01
  -1.808  0.249E-01  0.247E-01
  -1.798  0.317E-01  0.315E-01
  -1.788  0.399E-01  0.396E-01
  -1.778  0.496E-01  0.493E-01
  -1.768  0.610E-01  0.606E-01
  -1.758  0.741E-01  0.736E-01
  -1.748  0.889E-01  0.884E-01
  -1.738  0.105E+00  0.105E+00
  -1.728  0.124E+00  0.123E+00
  -1.718  0.143E+00  0.142E+00
  -1.708  0.164E+00  0.163E+00
  -1.698  0.185E+00  0.184E+00
  -1.688  0.206E+00  0.205E+00
  -1.678  0.227E+00  0.226E+00
  -1.668  0.247E+00  0.245E+00
  -1.658  0.265E+00  0.263E+00
  -1.648  0.281E+00  0.279E+00
  -1.638  0.293E+00  0.292E+00
  -1.628  0.302E+00  0.300E+00
  -1.618  0.307E+00  0.305E+00
  -1.608  0.308E+00  0.306E+00
  -1.598  0.303E+00  0.301E+00
  -1.588  0.294E+00  0.293E+00
  -1.578  0.281E+00  0.279E+00
  -1.568  0.264E+00  0.262E+00
  -1.558  0.243E+00  0.241E+00
  -1.548  0.219E+00  0.218E+00
  -1.538  0.193E+00  0.192E+00
  -1.528  0.166E+00  0.165E+00
  -1.518  0.138E+00  0.137E+00
  -1.508  0.111E+00  0.110E+00
  -1.498  0.846E-01  0.840E-01
  -1.488  0.602E-01  0.598E-01
  -1.478  0.381E-01  0.379E-01
  -1.468  0.187E-01  0.186E-01
  -1.458  0.223E-02  0.222E-02
  -1.448 -0.112E-01 -0.112E-01
  -1.438 -0.218E-01 -0.216E-01
  -1.428 -0.295E-01 -0.293E-01
  -1.418 -0.346E-01 -0.344E-01
  -1.408 -0.375E-01 -0.372E-01
  -1.398 -0.384E-01 -0.382E-01
  -1.388 -0.379E-01 -0.377E-01
  -1.378 -0.361E-01 -0.359E-01
  -1.368 -0.336E-01 -0.334E-01
  -1.358 -0.304E-01 -0.302E-01
  -1.348 -0.270E-01 -0.268E-01
  -1.338 -0.235E-01 -0.234E-01
  -1.328 -0.201E-01 -0.200E-01
  -1.318 -0.169E-01 -0.168E-01
  -1.308 -0.140E-01 -0.139E-01
  -1.298 -0.114E-01 -0.113E-01
  -1.288 -0.916E-02 -0.911E-02
  -1.278 -0.725E-02 -0.721E-02
  -1.268 -0.566E-02 -0.563E-02
  -1.258 -0.436E-02 -0.433E-02
  -1.248 -0.331E-02 -0.329E-02
  -1.238 -0.248E-02 -0.247E-02
  -1.228 -0.184E-02 -0.183E-02
  -1.218 -0.134E-02 -0.134E-02
  -1.208 -0.971E-03 -0.965E-03
  -1.198 -0.692E-03 -0.688E-03
  -1.188 -0.487E-03 -0.484E-03
  -1.178 -0.339E-03 -0.337E-03
  -1.168 -0.233E-03 -0.232E-03
  -1.158 -0.158E-03 -0.157E-03
  -1.148 -0.106E-03 -0.106E-03
  -1.138 -0.704E-04 -0.700E-04
  -1.128 -0.462E-04 -0.459E-04
  -1.118 -0.299E-04 -0.297E-04
  -1.108 -0.191E-04 -0.190E-04
  -1.098 -0.121E-04 -0.120E-04
  -1.088 -0.758E-05 -0.753E-05
  -1.078 -0.469E-05 -0.466E-05
  -1.068 -0.286E-05 -0.285E-05
  -1.058 -0.173E-05 -0.172E-05
  -1.048 -0.103E-05 -0.103E-05
  -1.038 -0.611E-06 -0.607E-06
  -1.028 -0.357E-06 -0.355E-06
  -1.018 -0.206E-06 -0.205E-06
  -1.008 -0.118E-06 -0.117E-06
  -0.998 -0.664E-07 -0.660E-07
  -0.988 -0.370E-07 -0.368E-07
  -0.978 -0.204E-07 -0.203E-07
  -0.968 -0.112E-07 -0.111E-07
  -0.958 -0.601E-08 -0.598E-08
  -0.948  0.154E-10  0.152E-10
  -0.938  0.323E-10  0.319E-10
  -0.928  0.670E-10  0.661E-10
  -0.918  0.138E-09  0.136E-09
  -0.908  0.279E-09  0.275E-09
  -0.898  0.560E-09  0.553E-09
  -0.888  0.111E-08  0.110E-08
  -0.878  0.219E-08  0.215E-08
  -0.868  0.424E-08  0.418E-08
  -0.858  0.815E-08  0.804E-08
  -0.848  0.155E-07  0.153E-07
  -0.838  0.291E-07  0.287E-07
  -0.828  0.541E-07  0.534E-07
  -0.818  0.995E-07  0.981E-07
  -0.808  0.181E-06  0.178E-06
  -0.798  0.325E-06  0.321E-06
  -0.788  0.579E-06  0.570E-06
  -0.778  0.102E-05  0.100E-05
  -0.768  0.177E-05  0.175E-05
  -0.758  0.305E-05  0.300E-05
  -0.748  0.518E-05  0.511E-05
  -0.738  0.872E-05  0.860E-05
  -0.728  0.145E-04  0.143E-04
  -0.718  0.239E-04  0.235E-04
  -0.708  0.389E-04  0.383E-04
  -0.698  0.626E-04  0.617E-04
  -0.688  0.996E-04  0.982E-04
  -0.678  0.157E-03  0.155E-03
  -0.668  0.244E-03  0.241E-03
  -0.658  0.376E-03  0.370E-03
  -0.648  0.572E-03  0.564E-03
  -0.638  0.861E-03  0.849E-03
  -0.628  0.128E-02  0.126E-02
  -0.618  0.189E-02  0.186E-02
  -0.608  0.275E-02  0.271E-02
  -0.598  0.395E-02  0.390E-02
  -0.588  0.562E-02  0.554E-02
  -0.578  0.791E-02  0.780E-02
  -0.568  0.110E-01  0.108E-01
  -0.558  0.151E-01  0.149E-01
  -0.548  0.206E-01  0.203E-01
  -0.538  0.277E-01  0.273E-01
  -0.528  0.368E-01  0.363E-01
  -0.518  0.483E-01  0.476E-01
  -0.508  0.628E-01  0.619E-01
  -0.498  0.806E-01  0.795E-01
  -0.488  0.102E+00  0.101E+00
  -0.478  0.128E+00  0.127E+00
  -0.468  0.159E+00  0.157E+00
  -0.458  0.195E+00  0.193E+00
  -0.448  0.237E+00  0.233E+00
  -0.438  0.283E+00  0.279E+00
  -0.428  0.336E+00  0.331E+00
  -0.418  0.393E+00  0.387E+00
  -0.408  0.454E+00  0.447E+00
  -0.398  0.518E+00  0.511E+00
  -0.388  0.585E+00  0.577E+00
  -0.378  0.653E+00  0.644E+00
  -0.368  0.720E+00  0.709E+00
  -0.358  0.784E+00  0.773E+00
  -0.348  0.845E+00  0.832E+00
  -0.338  0.899E+00  0.885E+00
  -0.328  0.945E+00  0.930E+00
  -0.318  0.982E+00  0.967E+00
  -0.308  0.101E+01  0.993E+00
  -0.298  0.102E+01  0.101E+01
  -0.288  0.103E+01  0.101E+01
  -0.278  0.102E+01  0.100E+01
  -0.268  0.100E+01  0.987E+00
  -0.258  0.978E+00  0.960E+00
  -0.248  0.942E+00  0.925E+00
  -0.238  0.900E+00  0.883E+00
  -0.228  0.853E+00  0.836E+00
  -0.218  0.803E+00  0.786E+00
  -0.208  0.751E+00  0.734E+00
  -0.198  0.698E+00  0.682E+00
  -0.188  0.647E+00  0.630E+00
  -0.178  0.597E+00  0.581E+00
  -0.168  0.550E+00  0.534E+00
  -0.158  0.505E+00  0.490E+00
  -0.148  0.463E+00  0.449E+00
  -0.138  0.424E+00  0.410E+00
  -0.128  0.387E+00  0.374E+00
  -0.118  0.353E+00  0.340E+00
  -0.108  0.321E+00  0.308E+00
  -0.098  0.290E+00  0.278E+00
  -0.088  0.261E+00  0.250E+00
  -0.078  0.234E+00  0.224E+00
  -0.068  0.209E+00  0.200E+00
  -0.058  0.187E+00  0.178E+00
  -0.048  0.168E+00  0.159E+00
  -0.038  0.152E+00  0.144E+00
  -0.028  0.139E+00  0.131E+00
  -0.018  0.130E+00  0.122E+00
  -0.008  0.124E+00  0.117E+00
   0.002  0.123E+00  0.115E+00
   0.012  0.125E+00  0.117E+00
   0.022  0.129E+00  0.121E+00
   0.032  0.136E+00  0.127E+00
   0.042  0.144E+00  0.135E+00
   0.052  0.153E+00  0.144E+00
   0.062  0.162E+00  0.153E+00
   0.072  0.171E+00  0.161E+00
   0.082  0.178E+00  0.167E+00
   0.092  0.183E+00  0.173E+00
   0.102  0.187E+00  0.176E+00
   0.112  0.188E+00  0.178E+00
   0.122  0.188E+00  0.178E+00
   0.132  0.187E+00  0.177E+00
   0.142  0.186E+00  0.176E+00
   0.152  0.185E+00  0.176E+00
   0.162  0.186E+00  0.176E+00
   0.172  0.189E+00  0.180E+00
   0.182  0.197E+00  0.187E+00
   0.192  0.209E+00  0.198E+00
   0.202  0.226E+00  0.216E+00
   0.212  0.250E+00  0.239E+00
   0.222  0.281E+00  0.268E+00
   0.232  0.319E+00  0.305E+00
   0.242  0.364E+00  0.347E+00
   0.252  0.415E+00  0.396E+00
   0.262  0.471E+00  0.449E+00
   0.272  0.530E+00  0.506E+00
   0.282  0.592E+00  0.565E+00
   0.292  0.654E+00  0.624E+00
   0.302  0.714E+00  0.681E+00
   0.312  0.769E+00  0.734E+00
   0.322  0.818E+00  0.780E+00
   0.332  0.858E+00  0.818E+00
   0.342  0.887E+00  0.846E+00
   0.352  0.903E+00  0.862E+00
   0.362  0.907E+00  0.865E+00
   0.372  0.896E+00  0.855E+00
   0.382  0.871E+00  0.831E+00
   0.392  0.833E+00  0.795E+00
   0.402  0.782E+00  0.746E+00
   0.412  0.720E+00  0.687E+00
   0.422  0.650E+00  0.620E+00
   0.432  0.573E+00  0.547E+00
   0.442  0.492E+00  0.469E+00
   0.452  0.410E+00  0.391E+00
   0.462  0.328E+00  0.313E+00
   0.472  0.250E+00  0.239E+00
   0.482  0.178E+00  0.170E+00
   0.492  0.112E+00  0.107E+00
   0.502  0.542E-01  0.517E-01
   0.512  0.515E-02  0.492E-02
   0.522 -0.349E-01 -0.333E-01
   0.532 -0.661E-01 -0.631E-01
   0.542 -0.889E-01 -0.848E-01
   0.552 -0.104E+00 -0.992E-01
   0.562 -0.112E+00 -0.107E+00
   0.572 -0.115E+00 -0.110E+00
   0.582 -0.113E+00 -0.108E+00
   0.592 -0.107E+00 -0.102E+00
   0.602 -0.992E-01 -0.946E-01
   0.612 -0.891E-01 -0.850E-01
   0.622 -0.780E-01 -0.744E-01
   0.632 -0.663E-01 -0.632E-01
   0.642 -0.545E-01 -0.519E-01
   0.652 -0.426E-01 -0.405E-01
   0.662 -0.308E-01 -0.292E-01
   0.672 -0.189E-01 -0.178E-01
   0.682 -0.674E-02 -0.611E-02
   0.692  0.604E-02  0.620E-02
   0.702  0.199E-01  0.195E-01
   0.712  0.353E-01  0.344E-01
   0.722  0.528E-01  0.514E-01
   0.732  0.731E-01  0.710E-01
   0.742  0.966E-01  0.938E-01
   0.752  0.124E+00  0.120E+00
   0.762  0.156E+00  0.151E+00
   0.772  0.192E+00  0.186E+00
   0.782  0.234E+00  0.227E+00
   0.792  0.280E+00  0.272E+00
   0.802  0.332E+00  0.322E+00
   0.812  0.388E+00  0.376E+00
   0.822  0.448E+00  0.434E+00
   0.832  0.510E+00  0.495E+00
   0.842  0.574E+00  0.557E+00
   0.852  0.638E+00  0.619E+00
   0.862  0.701E+00  0.679E+00
   0.872  0.759E+00  0.736E+00
   0.882  0.812E+00  0.788E+00
   0.892  0.857E+00  0.831E+00
   0.902  0.893E+00  0.866E+00
   0.912  0.918E+00  0.890E+00
   0.922  0.931E+00  0.902E+00
   0.932  0.930E+00  0.902E+00
   0.942  0.917E+00  0.889E+00
   0.952  0.891E+00  0.864E+00
   0.962  0.854E+00  0.828E+00
   0.972  0.806E+00  0.781E+00
   0.982  0.751E+00  0.728E+00
   0.992  0.690E+00  0.668E+00
   1.002  0.627E+00  0.607E+00
   1.012  0.564E+00  0.545E+00
   1.022  0.504E+00  0.487E+00
   1.032  0.451E+00  0.435E+00
   1.042  0.406E+00  0.391E+00
   1.052  0.371E+00  0.358E+00
   1.062  0.349E+00  0.336E+00
   1.072  0.340E+00  0.327E+00
   1.082  0.345E+00  0.330E+00
   1.092  0.362E+00  0.347E+00
   1.102  0.391E+00  0.375E+00
   1.112  0.431E+00  0.413E+00
   1.122  0.478E+00  0.459E+00
   1.132  0.532E+00  0.510E+00
   1.142  0.588E+00  0.564E+00
   1.152  0.644E+00  0.619E+00
   1.162  0.697E+00  0.670E+00
   1.172  0.745E+00  0.716E+00
   1.182  0.784E+00  0.755E+00
   1.192  0.813E+00  0.783E+00
   1.202  0.830E+00  0.800E+00
   1.212  0.834E+00  0.804E+00
   1.222  0.824E+00  0.795E+00
   1.232  0.801E+00  0.774E+00
   1.242  0.765E+00  0.739E+00
   1.252  0.717E+00  0.693E+00
   1.262  0.659E+00  0.638E+00
   1.272  0.593E+00  0.575E+00
   1.282  0.522E+00  0.506E+00
   1.292  0.447E+00  0.434E+00
   1.302  0.371E+00  0.360E+00
   1.312  0.296E+00  0.288E+00
   1.322  0.225E+00  0.219E+00
   1.332  0.159E+00  0.155E+00
   1.342  0.994E-01  0.972E-01
   1.352  0.473E-01  0.464E-01
   1.362  0.318E-02  0.325E-02
   1.372 -0.326E-01 -0.320E-01
   1.382 -0.602E-01 -0.595E-01
   1.392 -0.801E-01 -0.797E-01
   1.402 -0.928E-01 -0.932E-01
   1.412 -0.993E-01 -0.101E+00
   1.422 -0.100E+00 -0.103E+00
   1.432 -0.969E-01 -0.102E+00
   1.442 -0.899E-01 -0.974E-01
   1.452 -0.803E-01 -0.906E-01
   1.462 -0.687E-01 -0.824E-01
   1.472 -0.558E-01 -0.734E-01
   1.482 -0.423E-01 -0.641E-01
   1.492 -0.285E-01 -0.550E-01
   1.502 -0.149E-01 -0.464E-01
   1.512 -0.162E-02 -0.386E-01
   1.522  0.111E-01 -0.315E-01
   1.532  0.231E-01 -0.254E-01
   1.542  0.344E-01 -0.201E-01
   1.552  0.448E-01 -0.157E-01
   1.562  0.544E-01 -0.120E-01
   1.572  0.631E-01 -0.901E-02
   1.582  0.710E-01 -0.662E-02
   1.592  0.782E-01 -0.472E-02
   1.602  0.848E-01 -0.323E-02
   1.612  0.909E-01 -0.207E-02
   1.622  0.968E-01 -0.115E-02
   1.632  0.103E+00 -0.428E-03
   1.642  0.109E+00  0.158E-03
   1.652  0.116E+00  0.651E-03
   1.662  0.123E+00  0.109E-02
   1.672  0.133E+00  0.150E-02
   1.682  0.144E+00  0.190E-02
   1.692  0.157E+00  0.233E-02
   1.702  0.172E+00  0.277E-02
   1.712  0.190E+00  0.325E-02
   1.722  0.211E+00  0.377E-02
   1.732  0.234E+00  0.434E-02
   1.742  0.259E+00  0.493E-02
   1.752  0.285E+00  0.556E-02
   1.762  0.313E+00  0.622E-02
   1.772  0.340E+00  0.689E-02
   1.782  0.367E+00  0.757E-02
   1.792  0.392E+00  0.827E-02
   1.802  0.414E+00  0.899E-02
   1.812  0.433E+00  0.974E-02
   1.822  0.446E+00  0.106E-01
   1.832  0.454E+00  0.115E-01
   1.842  0.456E+00  0.126E-01
   1.852  0.452E+00  0.141E-01
   1.862  0.441E+00  0.159E-01
   1.872  0.425E+00  0.184E-01
   1.882  0.404E+00  0.218E-01
   1.892  0.378E+00  0.263E-01
   1.902  0.350E+00  0.322E-01
   1.912  0.321E+00  0.399E-01
   1.922  0.292E+00  0.500E-01
   1.932  0.266E+00  0.627E-01
   1.942  0.243E+00  0.785E-01
   1.952  0.226E+00  0.981E-01
   1.962  0.215E+00  0.122E+00
   1.972  0.213E+00  0.150E+00
   1.982  0.220E+00  0.183E+00
   1.992  0.237E+00  0.221E+00
   2.002  0.263E+00  0.264E+00
   2.012  0.300E+00  0.312E+00
   2.022  0.345E+00  0.365E+00
   2.032  0.399E+00  0.421E+00
   2.042  0.460E+00  0.481E+00
   2.052  0.526E+00  0.541E+00
   2.062  0.595E+00  0.602E+00
   2.072  0.666E+00  0.662E+00
   2.082  0.735E+00  0.718E+00
   2.092  0.801E+00  0.768E+00
   2.102  0.862E+00  0.811E+00
   2.112  0.915E+00  0.846E+00
   2.122  0.960E+00  0.869E+00
   2.132  0.994E+00  0.881E+00
   2.142  0.102E+01  0.879E+00
   2.152  0.103E+01  0.865E+00
   2.162  0.103E+01  0.837E+00
   2.172  0.101E+01  0.797E+00
   2.182  0.991E+00  0.746E+00
   2.192  0.959E+00  0.685E+00
   2.202  0.920E+00  0.617E+00
   2.212  0.875E+00  0.543E+00
   2.222  0.825E+00  0.466E+00
   2.232  0.773E+00  0.388E+00
   2.242  0.720E+00  0.311E+00
   2.252  0.668E+00  0.239E+00
   2.262  0.617E+00  0.171E+00
   2.272  0.568E+00  0.111E+00
   2.282  0.523E+00  0.576E-01
   2.292  0.480E+00  0.128E-01
   2.302  0.441E+00 -0.236E-01
   2.312  0.406E+00 -0.518E-01
   2.322  0.375E+00 -0.723E-01
   2.332  0.347E+00 -0.858E-01
   2.342  0.324E+00 -0.931E-01
   2.352  0.304E+00 -0.953E-01
   2.362  0.289E+00 -0.934E-01
   2.372  0.279E+00 -0.883E-01
   2.382  0.274E+00 -0.809E-01
   2.392  0.274E+00 -0.720E-01
   2.402  0.279E+00 -0.623E-01
   2.412  0.289E+00 -0.523E-01
   2.422  0.304E+00 -0.425E-01
   2.432  0.323E+00 -0.332E-01
   2.442  0.345E+00 -0.246E-01
   2.452  0.369E+00 -0.168E-01
   2.462  0.394E+00 -0.996E-02
   2.472  0.419E+00 -0.402E-02
   2.482  0.442E+00  0.101E-02
   2.492  0.462E+00  0.519E-02
   2.502  0.477E+00  0.859E-02
   2.512  0.488E+00  0.113E-01
   2.522  0.492E+00  0.134E-01
   2.532  0.490E+00  0.151E-01
   2.542  0.483E+00  0.164E-01
   2.552  0.470E+00  0.176E-01
   2.562  0.453E+00  0.189E-01
   2.572  0.432E+00  0.204E-01
   2.582  0.410E+00  0.224E-01
   2.592  0.388E+00  0.253E-01
   2.602  0.368E+00  0.293E-01
   2.612  0.352E+00  0.348E-01
   2.622  0.342E+00  0.422E-01
   2.632  0.339E+00  0.521E-01
   2.642  0.343E+00  0.648E-01
   2.652  0.357E+00  0.808E-01
   2.662  0.380E+00  0.101E+00
   2.672  0.413E+00  0.125E+00
   2.682  0.454E+00  0.153E+00
   2.692  0.504E+00  0.187E+00
   2.702  0.561E+00  0.226E+00
   2.712  0.624E+00  0.270E+00
   2.722  0.691E+00  0.319E+00
   2.732  0.760E+00  0.372E+00
   2.742  0.829E+00  0.429E+00
   2.752  0.897E+00  0.489E+00
   2.762  0.960E+00  0.551E+00
   2.772  0.102E+01  0.613E+00
   2.782  0.107E+01  0.674E+00
   2.792  0.111E+01  0.731E+00
   2.802  0.114E+01  0.782E+00
   2.812  0.115E+01  0.827E+00
   2.822  0.116E+01  0.862E+00
   2.832  0.115E+01  0.887E+00
   2.842  0.113E+01  0.899E+00
   2.852  0.109E+01  0.898E+00
   2.862  0.104E+01  0.884E+00
   2.872  0.981E+00  0.857E+00
   2.882  0.912E+00  0.816E+00
   2.892  0.835E+00  0.764E+00
   2.902  0.753E+00  0.702E+00
   2.912  0.668E+00  0.632E+00
   2.922  0.582E+00  0.556E+00
   2.932  0.500E+00  0.477E+00
   2.942  0.422E+00  0.396E+00
   2.952  0.351E+00  0.317E+00
   2.962  0.290E+00  0.242E+00
   2.972  0.241E+00  0.172E+00
   2.982  0.204E+00  0.109E+00
   2.992  0.182E+00  0.542E-01
   3.002  0.176E+00  0.813E-02
   3.012  0.185E+00 -0.289E-01
   3.022  0.209E+00 -0.569E-01
   3.032  0.250E+00 -0.764E-01
   3.042  0.305E+00 -0.881E-01
   3.052  0.374E+00 -0.929E-01
   3.062  0.457E+00 -0.915E-01
   3.072  0.551E+00 -0.852E-01
   3.082  0.655E+00 -0.747E-01
   3.092  0.767E+00 -0.611E-01
   3.102  0.884E+00 -0.450E-01
   3.112  0.101E+01 -0.271E-01
   3.122  0.113E+01 -0.783E-02
   3.132  0.125E+01  0.124E-01
   3.142  0.136E+01  0.335E-01
   3.152  0.147E+01  0.552E-01
   3.162  0.157E+01  0.777E-01
   3.172  0.165E+01  0.101E+00
   3.182  0.173E+01  0.125E+00
   3.192  0.178E+01  0.150E+00
   3.202  0.182E+01  0.176E+00
   3.212  0.184E+01  0.203E+00
   3.222  0.185E+01  0.230E+00
   3.232  0.183E+01  0.258E+00
   3.242  0.181E+01  0.286E+00
   3.252  0.176E+01  0.314E+00
   3.262  0.171E+01  0.341E+00
   3.272  0.164E+01  0.367E+00
   3.282  0.157E+01  0.389E+00
   3.292  0.149E+01  0.409E+00
   3.302  0.141E+01  0.425E+00
   3.312  0.133E+01  0.436E+00
   3.322  0.124E+01  0.441E+00
   3.332  0.116E+01  0.441E+00
   3.342  0.108E+01  0.434E+00
   3.352  0.101E+01  0.422E+00
   3.362  0.933E+00  0.403E+00
   3.372  0.865E+00  0.379E+00
   3.382  0.800E+00  0.350E+00
   3.392  0.739E+00  0.318E+00
   3.402  0.681E+00  0.282E+00
   3.412  0.628E+00  0.244E+00
   3.422  0.577E+00  0.206E+00
   3.432  0.530E+00  0.168E+00
   3.442  0.486E+00  0.131E+00
   3.452  0.446E+00  0.972E-01
   3.462  0.409E+00  0.660E-01
   3.472  0.378E+00  0.385E-01
   3.482  0.351E+00  0.150E-01
   3.492  0.330E+00 -0.425E-02
   3.502  0.315E+00 -0.193E-01
   3.512  0.306E+00 -0.304E-01
   3.522  0.304E+00 -0.378E-01
   3.532  0.309E+00 -0.418E-01
   3.542  0.320E+00 -0.431E-01
   3.552  0.338E+00 -0.421E-01
   3.562  0.362E+00 -0.393E-01
   3.572  0.391E+00 -0.352E-01
   3.582  0.424E+00 -0.303E-01
   3.592  0.459E+00 -0.250E-01
   3.602  0.496E+00 -0.195E-01
   3.612  0.533E+00 -0.143E-01
   3.622  0.569E+00 -0.951E-02
   3.632  0.602E+00 -0.523E-02
   3.642  0.631E+00 -0.158E-02
   3.652  0.655E+00  0.141E-02
   3.662  0.673E+00  0.373E-02
   3.672  0.685E+00  0.541E-02
   3.682  0.690E+00  0.651E-02
   3.692  0.688E+00  0.710E-02
   3.702  0.679E+00  0.726E-02
   3.712  0.663E+00  0.707E-02
   3.722  0.641E+00  0.661E-02
   3.732  0.614E+00  0.596E-02
   3.742  0.582E+00  0.519E-02
   3.752  0.547E+00  0.436E-02
   3.762  0.509E+00  0.354E-02
   3.772  0.471E+00  0.275E-02
   3.782  0.433E+00  0.203E-02
   3.792  0.396E+00  0.141E-02
   3.802  0.363E+00  0.900E-03
   3.812  0.333E+00  0.509E-03
   3.822  0.309E+00  0.240E-03
   3.832  0.292E+00  0.904E-04
   3.842  0.281E+00  0.555E-04
   3.852  0.278E+00  0.128E-03
   3.862  0.283E+00  0.299E-03
   3.872  0.297E+00  0.560E-03
   3.882  0.317E+00  0.902E-03
   3.892  0.345E+00  0.132E-02
   3.902  0.380E+00  0.180E-02
   3.912  0.420E+00  0.234E-02
   3.922  0.465E+00  0.293E-02
   3.932  0.514E+00  0.358E-02
   3.942  0.565E+00  0.427E-02
   3.952  0.618E+00  0.501E-02
   3.962  0.671E+00  0.579E-02
   3.972  0.723E+00  0.662E-02
   3.982  0.774E+00  0.750E-02
   3.992  0.822E+00  0.843E-02
   4.002  0.867E+00  0.943E-02
   4.012  0.908E+00  0.105E-01
   4.022  0.945E+00  0.117E-01
   4.032  0.977E+00  0.130E-01
   4.042  0.100E+01  0.144E-01
   4.052  0.102E+01  0.161E-01
   4.062  0.103E+01  0.182E-01
   4.072  0.104E+01  0.207E-01
   4.082  0.104E+01  0.238E-01
   4.092  0.103E+01  0.278E-01
   4.102  0.101E+01  0.329E-01
   4.112  0.990E+00  0.393E-01
   4.122  0.961E+00  0.475E-01
   4.132  0.929E+00  0.578E-01
   4.142  0.894E+00  0.707E-01
   4.152  0.858E+00  0.866E-01
   4.162  0.824E+00  0.106E+00
   4.172  0.794E+00  0.130E+00
   4.182  0.770E+00  0.157E+00
   4.192  0.754E+00  0.190E+00
   4.202  0.748E+00  0.228E+00
   4.212  0.754E+00  0.270E+00
   4.222  0.771E+00  0.318E+00
   4.232  0.800E+00  0.369E+00
   4.242  0.840E+00  0.425E+00
   4.252  0.890E+00  0.483E+00
   4.262  0.948E+00  0.543E+00
   4.272  0.101E+01  0.603E+00
   4.282  0.108E+01  0.661E+00
   4.292  0.114E+01  0.716E+00
   4.302  0.121E+01  0.766E+00
   4.312  0.126E+01  0.808E+00
   4.322  0.131E+01  0.842E+00
   4.332  0.135E+01  0.865E+00
   4.342  0.138E+01  0.876E+00
   4.352  0.140E+01  0.874E+00
   4.362  0.141E+01  0.860E+00
   4.372  0.141E+01  0.833E+00
   4.382  0.140E+01  0.793E+00
   4.392  0.139E+01  0.743E+00
   4.402  0.138E+01  0.683E+00
   4.412  0.137E+01  0.616E+00
   4.422  0.136E+01  0.544E+00
   4.432  0.136E+01  0.469E+00
   4.442  0.136E+01  0.393E+00
   4.452  0.137E+01  0.319E+00
   4.462  0.139E+01  0.249E+00
   4.472  0.141E+01  0.184E+00
   4.482  0.145E+01  0.125E+00
   4.492  0.148E+01  0.746E-01
   4.502  0.152E+01  0.320E-01
   4.512  0.156E+01 -0.237E-02
   4.522  0.159E+01 -0.287E-01
   4.532  0.162E+01 -0.474E-01
   4.542  0.164E+01 -0.593E-01
   4.552  0.165E+01 -0.650E-01
   4.562  0.165E+01 -0.654E-01
   4.572  0.163E+01 -0.614E-01
   4.582  0.161E+01 -0.537E-01
   4.592  0.157E+01 -0.430E-01
   4.602  0.153E+01 -0.298E-01
   4.612  0.147E+01 -0.145E-01
   4.622  0.140E+01  0.270E-02
   4.632  0.133E+01  0.217E-01
   4.642  0.126E+01  0.424E-01
   4.652  0.118E+01  0.648E-01
   4.662  0.110E+01  0.890E-01
   4.672  0.102E+01  0.115E+00
   4.682  0.941E+00  0.143E+00
   4.692  0.866E+00  0.172E+00
   4.702  0.794E+00  0.203E+00
   4.712  0.727E+00  0.235E+00
   4.722  0.666E+00  0.267E+00
   4.732  0.610E+00  0.299E+00
   4.742  0.560E+00  0.330E+00
   4.752  0.516E+00  0.360E+00
   4.762  0.477E+00  0.386E+00
   4.772  0.444E+00  0.408E+00
   4.782  0.415E+00  0.426E+00
   4.792  0.389E+00  0.438E+00
   4.802  0.367E+00  0.444E+00
   4.812  0.346E+00  0.444E+00
   4.822  0.327E+00  0.437E+00
   4.832  0.309E+00  0.423E+00
   4.842  0.290E+00  0.402E+00
   4.852  0.272E+00  0.376E+00
   4.862  0.254E+00  0.345E+00
   4.872  0.236E+00  0.310E+00
   4.882  0.219E+00  0.272E+00
   4.892  0.204E+00  0.233E+00
   4.902  0.191E+00  0.193E+00
   4.912  0.181E+00  0.154E+00
   4.922  0.175E+00  0.116E+00
   4.932  0.175E+00  0.817E-01
   4.942  0.180E+00  0.506E-01
   4.952  0.192E+00  0.235E-01
   4.962  0.212E+00  0.753E-03
   4.972  0.239E+00 -0.176E-01
   4.982  0.274E+00 -0.317E-01
   4.992  0.318E+00 -0.417E-01
   5.002  0.369E+00 -0.481E-01
   5.012  0.429E+00 -0.512E-01
   5.022  0.495E+00 -0.516E-01
   5.032  0.568E+00 -0.499E-01
   5.042  0.647E+00 -0.464E-01
   5.052  0.732E+00 -0.417E-01
   5.062  0.820E+00 -0.363E-01
   5.072  0.910E+00 -0.305E-01
   5.082  0.100E+01 -0.245E-01
   5.092  0.109E+01 -0.187E-01
   5.102  0.118E+01 -0.131E-01
   5.112  0.127E+01 -0.801E-02
   5.122  0.134E+01 -0.338E-02
   5.132  0.142E+01  0.720E-03
   5.142  0.147E+01  0.426E-02
   5.152  0.152E+01  0.725E-02
   5.162  0.156E+01  0.971E-02
   5.172  0.157E+01  0.117E-01
   5.182  0.158E+01  0.131E-01
   5.192  0.156E+01  0.142E-01
   5.202  0.153E+01  0.148E-01
   5.212  0.148E+01  0.151E-01
   5.222  0.141E+01  0.150E-01
   5.232  0.133E+01  0.147E-01
   5.242  0.124E+01  0.142E-01
   5.252  0.114E+01  0.136E-01
   5.262  0.103E+01  0.128E-01
   5.272  0.925E+00  0.121E-01
   5.282  0.819E+00  0.114E-01
   5.292  0.718E+00  0.107E-01
   5.302  0.625E+00  0.103E-01
   5.312  0.545E+00  0.101E-01
   5.322  0.479E+00  0.101E-01
   5.332  0.429E+00  0.104E-01
   5.342  0.397E+00  0.110E-01
   5.352  0.382E+00  0.119E-01
   5.362  0.385E+00  0.131E-01
   5.372  0.403E+00  0.147E-01
   5.382  0.436E+00  0.165E-01
   5.392  0.480E+00  0.185E-01
   5.402  0.532E+00  0.208E-01
   5.412  0.590E+00  0.233E-01
   5.422  0.650E+00  0.260E-01
   5.432  0.708E+00  0.290E-01
   5.442  0.762E+00  0.322E-01
   5.452  0.809E+00  0.358E-01
   5.462  0.848E+00  0.398E-01
   5.472  0.876E+00  0.445E-01
   5.482  0.893E+00  0.499E-01
   5.492  0.900E+00  0.563E-01
   5.502  0.897E+00  0.639E-01
   5.512  0.885E+00  0.731E-01
   5.522  0.868E+00  0.840E-01
   5.532  0.847E+00  0.970E-01
   5.542  0.824E+00  0.112E+00
   5.552  0.803E+00  0.130E+00
   5.562  0.787E+00  0.150E+00
   5.572  0.776E+00  0.172E+00
   5.582  0.774E+00  0.197E+00
   5.592  0.780E+00  0.223E+00
   5.602  0.797E+00  0.252E+00
   5.612  0.823E+00  0.281E+00
   5.622  0.859E+00  0.310E+00
   5.632  0.904E+00  0.340E+00
   5.642  0.956E+00  0.367E+00
   5.652  0.101E+01  0.393E+00
   5.662  0.108E+01  0.416E+00
   5.672  0.114E+01  0.435E+00
   5.682  0.121E+01  0.450E+00
   5.692  0.128E+01  0.460E+00
   5.702  0.134E+01  0.465E+00
   5.712  0.141E+01  0.466E+00
   5.722  0.148E+01  0.462E+00
   5.732  0.154E+01  0.454E+00
   5.742  0.161E+01  0.443E+00
   5.752  0.167E+01  0.430E+00
   5.762  0.173E+01  0.417E+00
   5.772  0.180E+01  0.403E+00
   5.782  0.186E+01  0.391E+00
   5.792  0.193E+01  0.382E+00
   5.802  0.199E+01  0.375E+00
   5.812  0.205E+01  0.373E+00
   5.822  0.211E+01  0.374E+00
   5.832  0.216E+01  0.380E+00
   5.842  0.220E+01  0.391E+00
   5.852  0.223E+01  0.404E+00
   5.862  0.226E+01  0.421E+00
   5.872  0.227E+01  0.439E+00
   5.882  0.227E+01  0.458E+00
   5.892  0.226E+01  0.476E+00
   5.902  0.224E+01  0.492E+00
   5.912  0.220E+01  0.506E+00
   5.922  0.216E+01  0.515E+00
   5.932  0.210E+01  0.519E+00
   5.942  0.204E+01  0.517E+00
   5.952  0.196E+01  0.510E+00
   5.962  0.189E+01  0.496E+00
   5.972  0.181E+01  0.477E+00
   5.982  0.172E+01  0.453E+00
   5.992  0.164E+01  0.425E+00
   6.002  0.156E+01  0.394E+00
   6.012  0.147E+01  0.361E+00
   6.022  0.139E+01  0.327E+00
   6.032  0.132E+01  0.294E+00
   6.042  0.125E+01  0.264E+00
   6.052  0.119E+01  0.238E+00
   6.062  0.113E+01  0.215E+00
   6.072  0.108E+01  0.199E+00
   6.082  0.104E+01  0.189E+00
   6.092  0.101E+01  0.185E+00
   6.102  0.995E+00  0.187E+00
   6.112  0.988E+00  0.195E+00
   6.122  0.990E+00  0.209E+00
   6.132  0.100E+01  0.227E+00
   6.142  0.102E+01  0.249E+00
   6.152  0.105E+01  0.273E+00
   6.162  0.109E+01  0.297E+00
   6.172  0.113E+01  0.321E+00
   6.182  0.117E+01  0.342E+00
   6.192  0.121E+01  0.361E+00
   6.202  0.124E+01  0.375E+00
   6.212  0.127E+01  0.384E+00
   6.222  0.130E+01  0.388E+00
   6.232  0.132E+01  0.386E+00
   6.242  0.132E+01  0.378E+00
   6.252  0.132E+01  0.366E+00
   6.262  0.130E+01  0.350E+00
   6.272  0.128E+01  0.331E+00
   6.282  0.124E+01  0.310E+00
   6.292  0.120E+01  0.289E+00
   6.302  0.115E+01  0.269E+00
   6.312  0.109E+01  0.251E+00
   6.322  0.103E+01  0.238E+00
   6.332  0.973E+00  0.229E+00
   6.342  0.918E+00  0.226E+00
   6.352  0.869E+00  0.230E+00
   6.362  0.827E+00  0.241E+00
   6.372  0.794E+00  0.259E+00
   6.382  0.773E+00  0.283E+00
   6.392  0.763E+00  0.313E+00
   6.402  0.764E+00  0.349E+00
   6.412  0.777E+00  0.389E+00
   6.422  0.799E+00  0.432E+00
   6.432  0.830E+00  0.478E+00
   6.442  0.867E+00  0.525E+00
   6.452  0.909E+00  0.571E+00
   6.462  0.954E+00  0.617E+00
   6.472  0.998E+00  0.661E+00
   6.482  0.104E+01  0.702E+00
   6.492  0.108E+01  0.741E+00
   6.502  0.112E+01  0.776E+00
   6.512  0.115E+01  0.808E+00
   6.522  0.118E+01  0.836E+00
   6.532  0.120E+01  0.861E+00
   6.542  0.122E+01  0.882E+00
   6.552  0.124E+01  0.899E+00
   6.562  0.126E+01  0.913E+00
   6.572  0.127E+01  0.922E+00
   6.582  0.128E+01  0.928E+00
   6.592  0.130E+01  0.929E+00
   6.602  0.132E+01  0.926E+00
   6.612  0.134E+01  0.919E+00
   6.622  0.136E+01  0.907E+00
   6.632  0.138E+01  0.891E+00
   6.642  0.141E+01  0.872E+00
   6.652  0.144E+01  0.850E+00
   6.662  0.147E+01  0.827E+00
   6.672  0.150E+01  0.802E+00
   6.682  0.153E+01  0.778E+00
   6.692  0.157E+01  0.755E+00
   6.702  0.160E+01  0.735E+00
   6.712  0.163E+01  0.718E+00
   6.722  0.166E+01  0.706E+00
   6.732  0.168E+01  0.698E+00
   6.742  0.169E+01  0.694E+00
   6.752  0.169E+01  0.694E+00
   6.762  0.169E+01  0.696E+00
   6.772  0.167E+01  0.700E+00
   6.782  0.163E+01  0.704E+00
   6.792  0.158E+01  0.706E+00
   6.802  0.152E+01  0.704E+00
   6.812  0.144E+01  0.697E+00
   6.822  0.135E+01  0.683E+00
   6.832  0.124E+01  0.662E+00
   6.842  0.113E+01  0.633E+00
   6.852  0.100E+01  0.595E+00
   6.862  0.876E+00  0.551E+00
   6.872  0.746E+00  0.499E+00
   6.882  0.616E+00  0.442E+00
   6.892  0.490E+00  0.382E+00
   6.902  0.371E+00  0.319E+00
   6.912  0.262E+00  0.257E+00
   6.922  0.164E+00  0.196E+00
   6.932  0.785E-01  0.139E+00
   6.942  0.717E-02  0.860E-01
   6.952 -0.495E-01  0.394E-01
   6.962 -0.915E-01 -0.597E-03
   6.972 -0.119E+00 -0.336E-01
   6.982 -0.132E+00 -0.594E-01
   6.992 -0.133E+00 -0.784E-01
   7.002 -0.120E+00 -0.910E-01
   7.012 -0.965E-01 -0.980E-01
   7.022 -0.621E-01 -0.100E+00
   7.032 -0.177E-01 -0.980E-01
   7.042  0.359E-01 -0.929E-01
   7.052  0.981E-01 -0.855E-01
   7.062  0.168E+00 -0.765E-01
   7.072  0.246E+00 -0.667E-01
   7.082  0.331E+00 -0.565E-01
   7.092  0.423E+00 -0.464E-01
   7.102  0.520E+00 -0.367E-01
   7.112  0.622E+00 -0.277E-01
   7.122  0.727E+00 -0.196E-01
   7.132  0.834E+00 -0.123E-01
   7.142  0.941E+00 -0.597E-02
   7.152  0.105E+01 -0.550E-03
   7.162  0.115E+01  0.399E-02
   7.172  0.124E+01  0.771E-02
   7.182  0.133E+01  0.107E-01
   7.192  0.140E+01  0.129E-01
   7.202  0.147E+01  0.145E-01
   7.212  0.152E+01  0.156E-01
   7.222  0.155E+01  0.161E-01
   7.232  0.157E+01  0.162E-01
   7.242  0.157E+01  0.158E-01
   7.252  0.157E+01  0.152E-01
   7.262  0.154E+01  0.143E-01
   7.272  0.151E+01  0.132E-01
   7.282  0.147E+01  0.120E-01
   7.292  0.142E+01  0.106E-01
   7.302  0.137E+01  0.928E-02
   7.312  0.131E+01  0.792E-02
   7.322  0.125E+01  0.663E-02
   7.332  0.119E+01  0.541E-02
   7.342  0.113E+01  0.431E-02
   7.352  0.107E+01  0.334E-02
   7.362  0.101E+01  0.251E-02
   7.372  0.951E+00  0.182E-02
   7.382  0.893E+00  0.126E-02
   7.392  0.835E+00  0.837E-03
   7.402  0.776E+00  0.528E-03
   7.412  0.717E+00  0.322E-03
   7.422  0.658E+00  0.205E-03
   7.432  0.599E+00  0.164E-03
   7.442  0.541E+00  0.187E-03
   7.452  0.486E+00  0.262E-03
   7.462  0.434E+00  0.381E-03
   7.472  0.387E+00  0.536E-03
   7.482  0.345E+00  0.723E-03
   7.492  0.311E+00  0.937E-03
   7.502  0.284E+00  0.117E-02
   7.512  0.266E+00  0.143E-02
   7.522  0.256E+00  0.170E-02
   7.532  0.255E+00  0.199E-02
   7.542  0.260E+00  0.228E-02
   7.552  0.273E+00  0.258E-02
   7.562  0.290E+00  0.288E-02
   7.572  0.311E+00  0.317E-02
   7.582  0.335E+00  0.346E-02
   7.592  0.358E+00  0.373E-02
   7.602  0.382E+00  0.400E-02
   7.612  0.404E+00  0.426E-02
   7.622  0.423E+00  0.451E-02
   7.632  0.441E+00  0.477E-02
   7.642  0.456E+00  0.504E-02
   7.652  0.469E+00  0.534E-02
   7.662  0.481E+00  0.567E-02
   7.672  0.493E+00  0.605E-02
   7.682  0.506E+00  0.649E-02
   7.692  0.522E+00  0.700E-02
   7.702  0.540E+00  0.758E-02
   7.712  0.562E+00  0.824E-02
   7.722  0.589E+00  0.896E-02
   7.732  0.619E+00  0.974E-02
   7.742  0.653E+00  0.106E-01
   7.752  0.689E+00  0.114E-01
   7.762  0.727E+00  0.122E-01
   7.772  0.764E+00  0.130E-01
   7.782  0.798E+00  0.137E-01
   7.792  0.827E+00  0.142E-01
   7.802  0.850E+00  0.147E-01
   7.812  0.863E+00  0.149E-01
   7.822  0.866E+00  0.150E-01
   7.832  0.858E+00  0.148E-01
   7.842  0.838E+00  0.145E-01
   7.852  0.806E+00  0.139E-01
   7.862  0.762E+00  0.131E-01
   7.872  0.708E+00  0.121E-01
   7.882  0.646E+00  0.110E-01
   7.892  0.577E+00  0.980E-02
   7.902  0.505E+00  0.850E-02
   7.912  0.432E+00  0.718E-02
   7.922  0.360E+00  0.587E-02
   7.932  0.292E+00  0.462E-02
   7.942  0.230E+00  0.345E-02
   7.952  0.176E+00  0.240E-02
   7.962  0.132E+00  0.150E-02
   7.972  0.990E-01  0.748E-03
   7.982  0.769E-01  0.161E-03
   7.992  0.663E-01 -0.262E-03
   8.002  0.666E-01 -0.529E-03
   8.012  0.771E-01 -0.650E-03
   8.022  0.967E-01 -0.641E-03
   8.032  0.124E+00 -0.521E-03
   8.042  0.157E+00 -0.309E-03
   8.052  0.195E+00 -0.253E-04
   8.062  0.235E+00  0.311E-03
   8.072  0.277E+00  0.685E-03
   8.082  0.317E+00  0.108E-02
   8.092  0.356E+00  0.150E-02
   8.102  0.390E+00  0.193E-02
   8.112  0.420E+00  0.239E-02
   8.122  0.445E+00  0.289E-02
   8.132  0.464E+00  0.346E-02
   8.142  0.477E+00  0.415E-02
   8.152  0.484E+00  0.501E-02
   8.162  0.486E+00  0.611E-02
   8.172  0.485E+00  0.756E-02
   8.182  0.480E+00  0.948E-02
   8.192  0.474E+00  0.120E-01
   8.202  0.467E+00  0.154E-01
   8.212  0.462E+00  0.197E-01
   8.222  0.460E+00  0.253E-01
   8.232  0.461E+00  0.323E-01
   8.242  0.469E+00  0.412E-01
   8.252  0.482E+00  0.521E-01
   8.262  0.503E+00  0.654E-01
   8.272  0.531E+00  0.815E-01
   8.282  0.567E+00  0.101E+00
   8.292  0.611E+00  0.123E+00
   8.302  0.662E+00  0.149E+00
   8.312  0.720E+00  0.179E+00
   8.322  0.786E+00  0.212E+00
   8.332  0.857E+00  0.250E+00
   8.342  0.935E+00  0.291E+00
   8.352  0.102E+01  0.336E+00
   8.362  0.111E+01  0.384E+00
   8.372  0.120E+01  0.435E+00
   8.382  0.130E+01  0.488E+00
   8.392  0.140E+01  0.543E+00
   8.402  0.150E+01  0.598E+00
   8.412  0.161E+01  0.654E+00
   8.422  0.172E+01  0.708E+00
   8.432  0.182E+01  0.760E+00
   8.442  0.193E+01  0.808E+00
   8.452  0.203E+01  0.852E+00
   8.462  0.212E+01  0.891E+00
   8.472  0.221E+01  0.923E+00
   8.482  0.228E+01  0.947E+00
   8.492  0.234E+01  0.962E+00
   8.502  0.239E+01  0.968E+00
   8.512  0.241E+01  0.964E+00
   8.522  0.242E+01  0.950E+00
   8.532  0.241E+01  0.926E+00
   8.542  0.238E+01  0.891E+00
   8.552  0.233E+01  0.847E+00
   8.562  0.226E+01  0.793E+00
   8.572  0.217E+01  0.732E+00
   8.582  0.206E+01  0.665E+00
   8.592  0.194E+01  0.593E+00
   8.602  0.181E+01  0.517E+00
   8.612  0.166E+01  0.441E+00
   8.622  0.151E+01  0.365E+00
   8.632  0.135E+01  0.291E+00
   8.642  0.119E+01  0.220E+00
   8.652  0.104E+01  0.156E+00
   8.662  0.881E+00  0.969E-01
   8.672  0.732E+00  0.455E-01
   8.682  0.591E+00  0.163E-02
   8.692  0.459E+00 -0.344E-01
   8.702  0.337E+00 -0.627E-01
   8.712  0.228E+00 -0.837E-01
   8.722  0.131E+00 -0.980E-01
   8.732  0.474E-01 -0.106E+00
   8.742 -0.233E-01 -0.109E+00
   8.752 -0.811E-01 -0.108E+00
   8.762 -0.127E+00 -0.104E+00
   8.772 -0.160E+00 -0.973E-01
   8.782 -0.183E+00 -0.890E-01
   8.792 -0.197E+00 -0.796E-01
   8.802 -0.202E+00 -0.700E-01
   8.812 -0.200E+00 -0.604E-01
   8.822 -0.192E+00 -0.513E-01
   8.832 -0.180E+00 -0.429E-01
   8.842 -0.163E+00 -0.353E-01
   8.852 -0.145E+00 -0.287E-01
   8.862 -0.124E+00 -0.230E-01
   8.872 -0.103E+00 -0.181E-01
   8.882 -0.811E-01 -0.141E-01
   8.892 -0.590E-01 -0.109E-01
   8.902 -0.371E-01 -0.825E-02
   8.912 -0.155E-01 -0.618E-02
   8.922  0.587E-02 -0.457E-02
   8.932  0.270E-01 -0.334E-02
   8.942  0.479E-01 -0.240E-02
   8.952  0.687E-01 -0.170E-02
   8.962  0.896E-01 -0.117E-02
   8.972  0.111E+00 -0.783E-03
   8.982  0.132E+00 -0.494E-03
   8.992  0.154E+00 -0.277E-03
   9.002  0.177E+00 -0.110E-03
   9.012  0.200E+00  0.257E-04
   9.022  0.224E+00  0.141E-03
   9.032  0.249E+00  0.248E-03
   9.042  0.276E+00  0.352E-03
   9.052  0.304E+00  0.459E-03
   9.062  0.333E+00  0.574E-03
   9.072  0.365E+00  0.700E-03
   9.082  0.398E+00  0.839E-03
   9.092  0.435E+00  0.992E-03
   9.102  0.474E+00  0.116E-02
   9.112  0.516E+00  0.135E-02
   9.122  0.561E+00  0.155E-02
   9.132  0.610E+00  0.177E-02
   9.142  0.662E+00  0.200E-02
   9.152  0.717E+00  0.225E-02
   9.162  0.776E+00  0.252E-02
   9.172  0.838E+00  0.281E-02
   9.182  0.903E+00  0.311E-02
   9.192  0.970E+00  0.343E-02
   9.202  0.104E+01  0.376E-02
   9.212  0.111E+01  0.411E-02
   9.222  0.118E+01  0.447E-02
   9.232  0.125E+01  0.485E-02
   9.242  0.132E+01  0.524E-02
   9.252  0.139E+01  0.563E-02
   9.262  0.145E+01  0.603E-02
   9.272  0.151E+01  0.642E-02
   9.282  0.156E+01  0.681E-02
   9.292  0.160E+01  0.719E-02
   9.302  0.163E+01  0.754E-02
   9.312  0.166E+01  0.786E-02
   9.322  0.167E+01  0.814E-02
   9.332  0.167E+01  0.837E-02
   9.342  0.165E+01  0.855E-02
   9.352  0.162E+01  0.866E-02
   9.362  0.158E+01  0.870E-02
   9.372  0.153E+01  0.867E-02
   9.382  0.146E+01  0.856E-02
   9.392  0.139E+01  0.839E-02
   9.402  0.130E+01  0.816E-02
   9.412  0.121E+01  0.786E-02
   9.422  0.111E+01  0.753E-02
   9.432  0.101E+01  0.716E-02
   9.442  0.906E+00  0.679E-02
   9.452  0.807E+00  0.641E-02
   9.462  0.713E+00  0.607E-02
   9.472  0.625E+00  0.578E-02
   9.482  0.546E+00  0.555E-02
   9.492  0.477E+00  0.543E-02
   9.502  0.419E+00  0.542E-02
   9.512  0.374E+00  0.556E-02
   9.522  0.342E+00  0.585E-02
   9.532  0.323E+00  0.633E-02
   9.542  0.317E+00  0.700E-02
   9.552  0.325E+00  0.788E-02
   9.562  0.344E+00  0.899E-02
   9.572  0.376E+00  0.103E-01
   9.582  0.417E+00  0.118E-01
   9.592  0.468E+00  0.136E-01
   9.602  0.526E+00  0.155E-01
   9.612  0.590E+00  0.176E-01
   9.622  0.657E+00  0.197E-01
   9.632  0.726E+00  0.219E-01
   9.642  0.793E+00  0.241E-01
   9.652  0.857E+00  0.263E-01
   9.662  0.915E+00  0.283E-01
   9.672  0.965E+00  0.300E-01
   9.682  0.101E+01  0.315E-01
   9.692  0.103E+01  0.326E-01
   9.702  0.105E+01  0.333E-01
   9.712  0.104E+01  0.335E-01
   9.722  0.103E+01  0.333E-01
   9.732  0.997E+00  0.325E-01
   9.742  0.950E+00  0.313E-01
   9.752  0.891E+00  0.296E-01
   9.762  0.820E+00  0.275E-01
   9.772  0.740E+00  0.251E-01
   9.782  0.653E+00  0.224E-01
   9.792  0.562E+00  0.195E-01
   9.802  0.470E+00  0.166E-01
   9.812  0.380E+00  0.136E-01
   9.822  0.294E+00  0.108E-01
   9.832  0.214E+00  0.813E-02
   9.842  0.143E+00  0.571E-02
   9.852  0.814E-01  0.359E-02
   9.862  0.307E-01  0.180E-02
   9.872 -0.872E-02  0.387E-03
   9.882 -0.366E-01 -0.657E-03
   9.892 -0.532E-01 -0.133E-02
   9.902 -0.590E-01 -0.164E-02
   9.912 -0.548E-01 -0.162E-02
   9.922 -0.416E-01 -0.130E-02
   9.932 -0.205E-01 -0.709E-03
   9.942  0.756E-02  0.114E-03
   9.952  0.412E-01  0.113E-02
   9.962  0.794E-01  0.230E-02
   9.972  0.121E+00  0.357E-02
   9.982  0.165E+00  0.492E-02
   9.992  0.209E+00  0.630E-02
  10.002  0.254E+00  0.768E-02
  10.012  0.298E+00  0.901E-02
  10.022  0.339E+00  0.103E-01
  10.032  0.378E+00  0.114E-01
  10.042  0.412E+00  0.124E-01
  10.052  0.443E+00  0.132E-01
  10.062  0.468E+00  0.139E-01
  10.072  0.487E+00  0.143E-01
  10.082  0.501E+00  0.145E-01
  10.092  0.510E+00  0.145E-01
  10.102  0.513E+00  0.143E-01
  10.112  0.512E+00  0.139E-01
  10.122  0.507E+00  0.133E-01
  10.132  0.499E+00  0.125E-01
  10.142  0.489E+00  0.116E-01
  10.152  0.478E+00  0.107E-01
  10.162  0.467E+00  0.969E-02
  10.172  0.457E+00  0.868E-02
  10.182  0.448E+00  0.770E-02
  10.192  0.441E+00  0.677E-02
  10.202  0.436E+00  0.591E-02
  10.212  0.432E+00  0.515E-02
  10.222  0.430E+00  0.448E-02
  10.232  0.428E+00  0.392E-02
  10.242  0.426E+00  0.346E-02
  10.252  0.422E+00  0.308E-02
  10.262  0.417E+00  0.278E-02
  10.272  0.409E+00  0.254E-02
  10.282  0.397E+00  0.234E-02
  10.292  0.381E+00  0.218E-02
  10.302  0.360E+00  0.203E-02
  10.312  0.336E+00  0.189E-02
  10.322  0.307E+00  0.176E-02
  10.332  0.276E+00  0.163E-02
  10.342  0.242E+00  0.152E-02
  10.352  0.206E+00  0.145E-02
  10.362  0.170E+00  0.142E-02
  10.372  0.134E+00  0.148E-02
  10.382  0.100E+00  0.167E-02
  10.392  0.692E-01  0.204E-02
  10.402  0.413E-01  0.266E-02
  10.412  0.174E-01  0.362E-02
  10.422 -0.200E-02  0.501E-02
  10.432 -0.165E-01  0.699E-02
  10.442 -0.261E-01  0.969E-02
  10.452 -0.305E-01  0.133E-01
  10.462 -0.299E-01  0.181E-01
  10.472 -0.244E-01  0.243E-01
  10.482 -0.139E-01  0.322E-01
  10.492  0.135E-02  0.422E-01
  10.502  0.214E-01  0.545E-01
  10.512  0.464E-01  0.695E-01
  10.522  0.761E-01  0.876E-01
  10.532  0.111E+00  0.109E+00
  10.542  0.151E+00  0.134E+00
  10.552  0.195E+00  0.163E+00
  10.562  0.245E+00  0.195E+00
  10.572  0.299E+00  0.232E+00
  10.582  0.358E+00  0.271E+00
  10.592  0.420E+00  0.314E+00
  10.602  0.484E+00  0.359E+00
  10.612  0.550E+00  0.405E+00
  10.622  0.616E+00  0.452E+00
  10.632  0.680E+00  0.497E+00
  10.642  0.741E+00  0.540E+00
  10.652  0.796E+00  0.579E+00
  10.662  0.843E+00  0.613E+00
  10.672  0.881E+00  0.640E+00
  10.682  0.907E+00  0.659E+00
  10.692  0.921E+00  0.669E+00
  10.702  0.922E+00  0.670E+00
  10.712  0.908E+00  0.660E+00
  10.722  0.881E+00  0.640E+00
  10.732  0.840E+00  0.610E+00
  10.742  0.788E+00  0.572E+00
  10.752  0.724E+00  0.526E+00
  10.762  0.652E+00  0.474E+00
  10.772  0.574E+00  0.417E+00
  10.782  0.492E+00  0.357E+00
  10.792  0.409E+00  0.297E+00
  10.802  0.328E+00  0.238E+00
  10.812  0.249E+00  0.181E+00
  10.822  0.177E+00  0.128E+00
  10.832  0.111E+00  0.804E-01
  10.842  0.530E-01  0.385E-01
  10.852  0.412E-02  0.299E-02
  10.862 -0.358E-01 -0.260E-01
  10.872 -0.668E-01 -0.485E-01
  10.882 -0.894E-01 -0.649E-01
  10.892 -0.104E+00 -0.758E-01
  10.902 -0.113E+00 -0.818E-01
  10.912 -0.115E+00 -0.837E-01
  10.922 -0.113E+00 -0.824E-01
  10.932 -0.108E+00 -0.784E-01
  10.942 -0.100E+00 -0.727E-01
  10.952 -0.907E-01 -0.658E-01
  10.962 -0.804E-01 -0.584E-01
  10.972 -0.699E-01 -0.508E-01
  10.982 -0.596E-01 -0.434E-01
  10.992 -0.500E-01 -0.364E-01
  11.002 -0.412E-01 -0.300E-01
  11.012 -0.333E-01 -0.244E-01
  11.022 -0.264E-01 -0.195E-01
  11.032 -0.203E-01 -0.152E-01
  11.042 -0.151E-01 -0.116E-01
  11.052 -0.106E-01 -0.864E-02
  11.062 -0.659E-02 -0.610E-02
  11.072 -0.292E-02 -0.394E-02
  11.082  0.600E-03 -0.205E-02
  11.092  0.417E-02 -0.333E-03
  11.102  0.801E-02  0.132E-02
  11.112  0.123E-01  0.300E-02
  11.122  0.173E-01  0.481E-02
  11.132  0.231E-01  0.682E-02
  11.142  0.301E-01  0.912E-02
  11.152  0.383E-01  0.118E-01
  11.162  0.480E-01  0.149E-01
  11.172  0.593E-01  0.184E-01
  11.182  0.722E-01  0.225E-01
  11.192  0.869E-01  0.271E-01
  11.202  0.103E+00  0.322E-01
  11.212  0.121E+00  0.379E-01
  11.222  0.141E+00  0.439E-01
  11.232  0.161E+00  0.503E-01
  11.242  0.182E+00  0.569E-01
  11.252  0.204E+00  0.636E-01
  11.262  0.225E+00  0.702E-01
  11.272  0.245E+00  0.764E-01
  11.282  0.263E+00  0.822E-01
  11.292  0.279E+00  0.872E-01
  11.302  0.292E+00  0.912E-01
  11.312  0.301E+00  0.942E-01
  11.322  0.307E+00  0.959E-01
  11.332  0.308E+00  0.962E-01
  11.342  0.304E+00  0.950E-01
  11.352  0.296E+00  0.924E-01
  11.362  0.283E+00  0.884E-01
  11.372  0.266E+00  0.831E-01
  11.382  0.245E+00  0.767E-01
  11.392  0.222E+00  0.693E-01
  11.402  0.196E+00  0.613E-01
  11.412  0.169E+00  0.528E-01
  11.422  0.141E+00  0.442E-01
  11.432  0.114E+00  0.356E-01
  11.442  0.877E-01  0.274E-01
  11.452  0.631E-01  0.197E-01
  11.462  0.407E-01  0.127E-01
  11.472  0.209E-01  0.655E-02
  11.482  0.410E-02  0.128E-02
  11.492 -0.974E-02 -0.304E-02
  11.502 -0.206E-01 -0.644E-02
  11.512 -0.286E-01 -0.895E-02
  11.522 -0.341E-01 -0.106E-01
  11.532 -0.372E-01 -0.116E-01
  11.542 -0.384E-01 -0.120E-01
  11.552 -0.380E-01 -0.119E-01
  11.562 -0.364E-01 -0.114E-01
  11.572 -0.339E-01 -0.106E-01
  11.582 -0.308E-01 -0.963E-02
  11.592 -0.274E-01 -0.857E-02
  11.602 -0.240E-01 -0.748E-02
  11.612 -0.205E-01 -0.641E-02
  11.622 -0.173E-01 -0.541E-02
  11.632 -0.143E-01 -0.448E-02
  11.642 -0.117E-01 -0.366E-02
  11.652 -0.942E-02 -0.294E-02
  11.662 -0.747E-02 -0.233E-02
  11.672 -0.584E-02 -0.183E-02
  11.682 -0.451E-02 -0.141E-02
  11.692 -0.343E-02 -0.107E-02
  11.702 -0.258E-02 -0.805E-03
