#  E (eV)   dos(E)     Int dos(E) EFermi =   -0.526 eV
 -10.000  0.7509E+00  0.7509E-02
  -9.990  0.7421E+00  0.1493E-01
  -9.980  0.7337E+00  0.2227E-01
  -9.970  0.7260E+00  0.2953E-01
  -9.960  0.7195E+00  0.3672E-01
  -9.950  0.7146E+00  0.4387E-01
  -9.940  0.7114E+00  0.5098E-01
  -9.930  0.7102E+00  0.5808E-01
  -9.920  0.7111E+00  0.6520E-01
  -9.910  0.7141E+00  0.7234E-01
  -9.900  0.7190E+00  0.7953E-01
  -9.890  0.7257E+00  0.8678E-01
  -9.880  0.7338E+00  0.9412E-01
  -9.870  0.7431E+00  0.1016E+00
  -9.860  0.7530E+00  0.1091E+00
  -9.850  0.7631E+00  0.1167E+00
  -9.840  0.7731E+00  0.1244E+00
  -9.830  0.7825E+00  0.1323E+00
  -9.820  0.7908E+00  0.1402E+00
  -9.810  0.7978E+00  0.1482E+00
  -9.800  0.8033E+00  0.1562E+00
  -9.790  0.8070E+00  0.1643E+00
  -9.780  0.8089E+00  0.1723E+00
  -9.770  0.8090E+00  0.1804E+00
  -9.760  0.8075E+00  0.1885E+00
  -9.750  0.8046E+00  0.1966E+00
  -9.740  0.8004E+00  0.2046E+00
  -9.730  0.7955E+00  0.2125E+00
  -9.720  0.7900E+00  0.2204E+00
  -9.710  0.7844E+00  0.2283E+00
  -9.700  0.7789E+00  0.2361E+00
  -9.690  0.7740E+00  0.2438E+00
  -9.680  0.7698E+00  0.2515E+00
  -9.670  0.7666E+00  0.2592E+00
  -9.660  0.7644E+00  0.2668E+00
  -9.650  0.7632E+00  0.2744E+00
  -9.640  0.7631E+00  0.2821E+00
  -9.630  0.7638E+00  0.2897E+00
  -9.620  0.7652E+00  0.2974E+00
  -9.610  0.7671E+00  0.3050E+00
  -9.600  0.7692E+00  0.3127E+00
  -9.590  0.7713E+00  0.3204E+00
  -9.580  0.7730E+00  0.3282E+00
  -9.570  0.7743E+00  0.3359E+00
  -9.560  0.7750E+00  0.3437E+00
  -9.550  0.7749E+00  0.3514E+00
  -9.540  0.7742E+00  0.3591E+00
  -9.530  0.7728E+00  0.3669E+00
  -9.520  0.7710E+00  0.3746E+00
  -9.510  0.7690E+00  0.3823E+00
  -9.500  0.7669E+00  0.3899E+00
  -9.490  0.7652E+00  0.3976E+00
  -9.480  0.7641E+00  0.4052E+00
  -9.470  0.7639E+00  0.4129E+00
  -9.460  0.7648E+00  0.4205E+00
  -9.450  0.7670E+00  0.4282E+00
  -9.440  0.7706E+00  0.4359E+00
  -9.430  0.7757E+00  0.4437E+00
  -9.420  0.7820E+00  0.4515E+00
  -9.410  0.7895E+00  0.4594E+00
  -9.400  0.7979E+00  0.4673E+00
  -9.390  0.8069E+00  0.4754E+00
  -9.380  0.8159E+00  0.4836E+00
  -9.370  0.8247E+00  0.4918E+00
  -9.360  0.8327E+00  0.5001E+00
  -9.350  0.8396E+00  0.5085E+00
  -9.340  0.8449E+00  0.5170E+00
  -9.330  0.8485E+00  0.5255E+00
  -9.320  0.8499E+00  0.5340E+00
  -9.310  0.8492E+00  0.5425E+00
  -9.300  0.8463E+00  0.5509E+00
  -9.290  0.8414E+00  0.5593E+00
  -9.280  0.8345E+00  0.5677E+00
  -9.270  0.8261E+00  0.5760E+00
  -9.260  0.8165E+00  0.5841E+00
  -9.250  0.8062E+00  0.5922E+00
  -9.240  0.7956E+00  0.6001E+00
  -9.230  0.7852E+00  0.6080E+00
  -9.220  0.7756E+00  0.6157E+00
  -9.210  0.7671E+00  0.6234E+00
  -9.200  0.7603E+00  0.6310E+00
  -9.190  0.7553E+00  0.6386E+00
  -9.180  0.7525E+00  0.6461E+00
  -9.170  0.7520E+00  0.6536E+00
  -9.160  0.7539E+00  0.6612E+00
  -9.150  0.7580E+00  0.6687E+00
  -9.140  0.7642E+00  0.6764E+00
  -9.130  0.7722E+00  0.6841E+00
  -9.120  0.7817E+00  0.6919E+00
  -9.110  0.7922E+00  0.6998E+00
  -9.100  0.8035E+00  0.7079E+00
  -9.090  0.8149E+00  0.7160E+00
  -9.080  0.8260E+00  0.7243E+00
  -9.070  0.8365E+00  0.7326E+00
  -9.060  0.8460E+00  0.7411E+00
  -9.050  0.8540E+00  0.7496E+00
  -9.040  0.8605E+00  0.7583E+00
  -9.030  0.8653E+00  0.7669E+00
  -9.020  0.8682E+00  0.7756E+00
  -9.010  0.8695E+00  0.7843E+00
  -9.000  0.8690E+00  0.7930E+00
  -8.990  0.8672E+00  0.8016E+00
  -8.980  0.8641E+00  0.8103E+00
  -8.970  0.8601E+00  0.8189E+00
  -8.960  0.8554E+00  0.8274E+00
  -8.950  0.8505E+00  0.8359E+00
  -8.940  0.8455E+00  0.8444E+00
  -8.930  0.8408E+00  0.8528E+00
  -8.920  0.8365E+00  0.8612E+00
  -8.910  0.8328E+00  0.8695E+00
  -8.900  0.8297E+00  0.8778E+00
  -8.890  0.8275E+00  0.8861E+00
  -8.880  0.8260E+00  0.8943E+00
  -8.870  0.8251E+00  0.9026E+00
  -8.860  0.8249E+00  0.9108E+00
  -8.850  0.8251E+00  0.9191E+00
  -8.840  0.8257E+00  0.9273E+00
  -8.830  0.8266E+00  0.9356E+00
  -8.820  0.8277E+00  0.9439E+00
  -8.810  0.8289E+00  0.9522E+00
  -8.800  0.8303E+00  0.9605E+00
  -8.790  0.8319E+00  0.9688E+00
  -8.780  0.8338E+00  0.9771E+00
  -8.770  0.8362E+00  0.9855E+00
  -8.760  0.8393E+00  0.9939E+00
  -8.750  0.8433E+00  0.1002E+01
  -8.740  0.8484E+00  0.1011E+01
  -8.730  0.8548E+00  0.1019E+01
  -8.720  0.8627E+00  0.1028E+01
  -8.710  0.8722E+00  0.1037E+01
  -8.700  0.8835E+00  0.1046E+01
  -8.690  0.8964E+00  0.1054E+01
  -8.680  0.9110E+00  0.1064E+01
  -8.670  0.9270E+00  0.1073E+01
  -8.660  0.9442E+00  0.1082E+01
  -8.650  0.9622E+00  0.1092E+01
  -8.640  0.9807E+00  0.1102E+01
  -8.630  0.9992E+00  0.1112E+01
  -8.620  0.1017E+01  0.1122E+01
  -8.610  0.1034E+01  0.1132E+01
  -8.600  0.1050E+01  0.1143E+01
  -8.590  0.1064E+01  0.1153E+01
  -8.580  0.1076E+01  0.1164E+01
  -8.570  0.1085E+01  0.1175E+01
  -8.560  0.1092E+01  0.1186E+01
  -8.550  0.1096E+01  0.1197E+01
  -8.540  0.1098E+01  0.1208E+01
  -8.530  0.1098E+01  0.1219E+01
  -8.520  0.1096E+01  0.1230E+01
  -8.510  0.1092E+01  0.1241E+01
  -8.500  0.1088E+01  0.1252E+01
  -8.490  0.1083E+01  0.1262E+01
  -8.480  0.1079E+01  0.1273E+01
  -8.470  0.1075E+01  0.1284E+01
  -8.460  0.1072E+01  0.1295E+01
  -8.450  0.1071E+01  0.1305E+01
  -8.440  0.1072E+01  0.1316E+01
  -8.430  0.1076E+01  0.1327E+01
  -8.420  0.1082E+01  0.1338E+01
  -8.410  0.1090E+01  0.1349E+01
  -8.400  0.1100E+01  0.1360E+01
  -8.390  0.1112E+01  0.1371E+01
  -8.380  0.1125E+01  0.1382E+01
  -8.370  0.1139E+01  0.1393E+01
  -8.360  0.1154E+01  0.1405E+01
  -8.350  0.1169E+01  0.1417E+01
  -8.340  0.1183E+01  0.1428E+01
  -8.330  0.1195E+01  0.1440E+01
  -8.320  0.1206E+01  0.1452E+01
  -8.310  0.1215E+01  0.1465E+01
  -8.300  0.1221E+01  0.1477E+01
  -8.290  0.1225E+01  0.1489E+01
  -8.280  0.1226E+01  0.1501E+01
  -8.270  0.1225E+01  0.1514E+01
  -8.260  0.1221E+01  0.1526E+01
  -8.250  0.1215E+01  0.1538E+01
  -8.240  0.1207E+01  0.1550E+01
  -8.230  0.1198E+01  0.1562E+01
  -8.220  0.1189E+01  0.1574E+01
  -8.210  0.1179E+01  0.1586E+01
  -8.200  0.1170E+01  0.1597E+01
  -8.190  0.1161E+01  0.1609E+01
  -8.180  0.1154E+01  0.1620E+01
  -8.170  0.1149E+01  0.1632E+01
  -8.160  0.1146E+01  0.1643E+01
  -8.150  0.1145E+01  0.1655E+01
  -8.140  0.1146E+01  0.1666E+01
  -8.130  0.1151E+01  0.1678E+01
  -8.120  0.1157E+01  0.1689E+01
  -8.110  0.1166E+01  0.1701E+01
  -8.100  0.1176E+01  0.1713E+01
  -8.090  0.1188E+01  0.1725E+01
  -8.080  0.1201E+01  0.1737E+01
  -8.070  0.1214E+01  0.1749E+01
  -8.060  0.1227E+01  0.1761E+01
  -8.050  0.1239E+01  0.1774E+01
  -8.040  0.1249E+01  0.1786E+01
  -8.030  0.1258E+01  0.1799E+01
  -8.020  0.1265E+01  0.1811E+01
  -8.010  0.1269E+01  0.1824E+01
  -8.000  0.1271E+01  0.1837E+01
  -7.990  0.1271E+01  0.1849E+01
  -7.980  0.1269E+01  0.1862E+01
  -7.970  0.1265E+01  0.1875E+01
  -7.960  0.1259E+01  0.1887E+01
  -7.950  0.1253E+01  0.1900E+01
  -7.940  0.1247E+01  0.1912E+01
  -7.930  0.1241E+01  0.1925E+01
  -7.920  0.1237E+01  0.1937E+01
  -7.910  0.1234E+01  0.1949E+01
  -7.900  0.1233E+01  0.1962E+01
  -7.890  0.1235E+01  0.1974E+01
  -7.880  0.1240E+01  0.1987E+01
  -7.870  0.1249E+01  0.1999E+01
  -7.860  0.1260E+01  0.2012E+01
  -7.850  0.1275E+01  0.2024E+01
  -7.840  0.1292E+01  0.2037E+01
  -7.830  0.1312E+01  0.2050E+01
  -7.820  0.1334E+01  0.2064E+01
  -7.810  0.1357E+01  0.2077E+01
  -7.800  0.1381E+01  0.2091E+01
  -7.790  0.1405E+01  0.2105E+01
  -7.780  0.1428E+01  0.2119E+01
  -7.770  0.1450E+01  0.2134E+01
  -7.760  0.1470E+01  0.2149E+01
  -7.750  0.1489E+01  0.2164E+01
  -7.740  0.1504E+01  0.2179E+01
  -7.730  0.1518E+01  0.2194E+01
  -7.720  0.1528E+01  0.2209E+01
  -7.710  0.1536E+01  0.2224E+01
  -7.700  0.1542E+01  0.2240E+01
  -7.690  0.1546E+01  0.2255E+01
  -7.680  0.1548E+01  0.2271E+01
  -7.670  0.1549E+01  0.2286E+01
  -7.660  0.1549E+01  0.2302E+01
  -7.650  0.1548E+01  0.2317E+01
  -7.640  0.1548E+01  0.2333E+01
  -7.630  0.1549E+01  0.2348E+01
  -7.620  0.1550E+01  0.2364E+01
  -7.610  0.1552E+01  0.2379E+01
  -7.600  0.1556E+01  0.2395E+01
  -7.590  0.1561E+01  0.2410E+01
  -7.580  0.1568E+01  0.2426E+01
  -7.570  0.1576E+01  0.2442E+01
  -7.560  0.1586E+01  0.2458E+01
  -7.550  0.1596E+01  0.2474E+01
  -7.540  0.1608E+01  0.2490E+01
  -7.530  0.1620E+01  0.2506E+01
  -7.520  0.1633E+01  0.2522E+01
  -7.510  0.1646E+01  0.2539E+01
  -7.500  0.1659E+01  0.2555E+01
  -7.490  0.1672E+01  0.2572E+01
  -7.480  0.1684E+01  0.2589E+01
  -7.470  0.1696E+01  0.2606E+01
  -7.460  0.1706E+01  0.2623E+01
  -7.450  0.1716E+01  0.2640E+01
  -7.440  0.1724E+01  0.2657E+01
  -7.430  0.1732E+01  0.2675E+01
  -7.420  0.1738E+01  0.2692E+01
  -7.410  0.1744E+01  0.2709E+01
  -7.400  0.1748E+01  0.2727E+01
  -7.390  0.1753E+01  0.2744E+01
  -7.380  0.1757E+01  0.2762E+01
  -7.370  0.1760E+01  0.2780E+01
  -7.360  0.1764E+01  0.2797E+01
  -7.350  0.1768E+01  0.2815E+01
  -7.340  0.1773E+01  0.2833E+01
  -7.330  0.1777E+01  0.2850E+01
  -7.320  0.1783E+01  0.2868E+01
  -7.310  0.1789E+01  0.2886E+01
  -7.300  0.1796E+01  0.2904E+01
  -7.290  0.1803E+01  0.2922E+01
  -7.280  0.1812E+01  0.2940E+01
  -7.270  0.1821E+01  0.2958E+01
  -7.260  0.1831E+01  0.2977E+01
  -7.250  0.1842E+01  0.2995E+01
  -7.240  0.1854E+01  0.3014E+01
  -7.230  0.1867E+01  0.3032E+01
  -7.220  0.1881E+01  0.3051E+01
  -7.210  0.1897E+01  0.3070E+01
  -7.200  0.1914E+01  0.3089E+01
  -7.190  0.1932E+01  0.3109E+01
  -7.180  0.1952E+01  0.3128E+01
  -7.170  0.1973E+01  0.3148E+01
  -7.160  0.1996E+01  0.3168E+01
  -7.150  0.2021E+01  0.3188E+01
  -7.140  0.2047E+01  0.3209E+01
  -7.130  0.2073E+01  0.3229E+01
  -7.120  0.2101E+01  0.3250E+01
  -7.110  0.2128E+01  0.3272E+01
  -7.100  0.2155E+01  0.3293E+01
  -7.090  0.2181E+01  0.3315E+01
  -7.080  0.2206E+01  0.3337E+01
  -7.070  0.2228E+01  0.3359E+01
  -7.060  0.2248E+01  0.3382E+01
  -7.050  0.2264E+01  0.3404E+01
  -7.040  0.2277E+01  0.3427E+01
  -7.030  0.2286E+01  0.3450E+01
  -7.020  0.2290E+01  0.3473E+01
  -7.010  0.2290E+01  0.3496E+01
  -7.000  0.2285E+01  0.3519E+01
  -6.990  0.2276E+01  0.3541E+01
  -6.980  0.2263E+01  0.3564E+01
  -6.970  0.2246E+01  0.3586E+01
  -6.960  0.2226E+01  0.3609E+01
  -6.950  0.2203E+01  0.3631E+01
  -6.940  0.2178E+01  0.3653E+01
  -6.930  0.2151E+01  0.3674E+01
  -6.920  0.2123E+01  0.3695E+01
  -6.910  0.2095E+01  0.3716E+01
  -6.900  0.2068E+01  0.3737E+01
  -6.890  0.2041E+01  0.3757E+01
  -6.880  0.2015E+01  0.3777E+01
  -6.870  0.1992E+01  0.3797E+01
  -6.860  0.1970E+01  0.3817E+01
  -6.850  0.1950E+01  0.3837E+01
  -6.840  0.1933E+01  0.3856E+01
  -6.830  0.1918E+01  0.3875E+01
  -6.820  0.1905E+01  0.3894E+01
  -6.810  0.1894E+01  0.3913E+01
  -6.800  0.1884E+01  0.3932E+01
  -6.790  0.1876E+01  0.3951E+01
  -6.780  0.1869E+01  0.3969E+01
  -6.770  0.1862E+01  0.3988E+01
  -6.760  0.1855E+01  0.4007E+01
  -6.750  0.1848E+01  0.4025E+01
  -6.740  0.1840E+01  0.4043E+01
  -6.730  0.1832E+01  0.4062E+01
  -6.720  0.1822E+01  0.4080E+01
  -6.710  0.1811E+01  0.4098E+01
  -6.700  0.1798E+01  0.4116E+01
  -6.690  0.1784E+01  0.4134E+01
  -6.680  0.1770E+01  0.4152E+01
  -6.670  0.1754E+01  0.4169E+01
  -6.660  0.1737E+01  0.4187E+01
  -6.650  0.1721E+01  0.4204E+01
  -6.640  0.1704E+01  0.4221E+01
  -6.630  0.1688E+01  0.4238E+01
  -6.620  0.1672E+01  0.4254E+01
  -6.610  0.1657E+01  0.4271E+01
  -6.600  0.1644E+01  0.4287E+01
  -6.590  0.1632E+01  0.4304E+01
  -6.580  0.1621E+01  0.4320E+01
  -6.570  0.1612E+01  0.4336E+01
  -6.560  0.1604E+01  0.4352E+01
  -6.550  0.1597E+01  0.4368E+01
  -6.540  0.1592E+01  0.4384E+01
  -6.530  0.1588E+01  0.4400E+01
  -6.520  0.1585E+01  0.4416E+01
  -6.510  0.1583E+01  0.4431E+01
  -6.500  0.1581E+01  0.4447E+01
  -6.490  0.1579E+01  0.4463E+01
  -6.480  0.1578E+01  0.4479E+01
  -6.470  0.1576E+01  0.4495E+01
  -6.460  0.1574E+01  0.4510E+01
  -6.450  0.1572E+01  0.4526E+01
  -6.440  0.1570E+01  0.4542E+01
  -6.430  0.1567E+01  0.4557E+01
  -6.420  0.1563E+01  0.4573E+01
  -6.410  0.1558E+01  0.4589E+01
  -6.400  0.1554E+01  0.4604E+01
  -6.390  0.1548E+01  0.4620E+01
  -6.380  0.1542E+01  0.4635E+01
  -6.370  0.1536E+01  0.4650E+01
  -6.360  0.1530E+01  0.4666E+01
  -6.350  0.1524E+01  0.4681E+01
  -6.340  0.1517E+01  0.4696E+01
  -6.330  0.1511E+01  0.4711E+01
  -6.320  0.1505E+01  0.4726E+01
  -6.310  0.1500E+01  0.4741E+01
  -6.300  0.1495E+01  0.4756E+01
  -6.290  0.1490E+01  0.4771E+01
  -6.280  0.1485E+01  0.4786E+01
  -6.270  0.1481E+01  0.4801E+01
  -6.260  0.1477E+01  0.4816E+01
  -6.250  0.1473E+01  0.4830E+01
  -6.240  0.1470E+01  0.4845E+01
  -6.230  0.1467E+01  0.4860E+01
  -6.220  0.1463E+01  0.4874E+01
  -6.210  0.1460E+01  0.4889E+01
  -6.200  0.1457E+01  0.4904E+01
  -6.190  0.1453E+01  0.4918E+01
  -6.180  0.1450E+01  0.4933E+01
  -6.170  0.1446E+01  0.4947E+01
  -6.160  0.1442E+01  0.4961E+01
  -6.150  0.1437E+01  0.4976E+01
  -6.140  0.1433E+01  0.4990E+01
  -6.130  0.1428E+01  0.5004E+01
  -6.120  0.1422E+01  0.5019E+01
  -6.110  0.1417E+01  0.5033E+01
  -6.100  0.1411E+01  0.5047E+01
  -6.090  0.1405E+01  0.5061E+01
  -6.080  0.1399E+01  0.5075E+01
  -6.070  0.1393E+01  0.5089E+01
  -6.060  0.1388E+01  0.5103E+01
  -6.050  0.1383E+01  0.5117E+01
  -6.040  0.1378E+01  0.5130E+01
  -6.030  0.1375E+01  0.5144E+01
  -6.020  0.1372E+01  0.5158E+01
  -6.010  0.1370E+01  0.5172E+01
  -6.000  0.1370E+01  0.5185E+01
  -5.990  0.1371E+01  0.5199E+01
  -5.980  0.1372E+01  0.5213E+01
  -5.970  0.1375E+01  0.5226E+01
  -5.960  0.1378E+01  0.5240E+01
  -5.950  0.1382E+01  0.5254E+01
  -5.940  0.1385E+01  0.5268E+01
  -5.930  0.1389E+01  0.5282E+01
  -5.920  0.1392E+01  0.5296E+01
  -5.910  0.1394E+01  0.5310E+01
  -5.900  0.1394E+01  0.5324E+01
  -5.890  0.1393E+01  0.5337E+01
  -5.880  0.1391E+01  0.5351E+01
  -5.870  0.1387E+01  0.5365E+01
  -5.860  0.1381E+01  0.5379E+01
  -5.850  0.1373E+01  0.5393E+01
  -5.840  0.1364E+01  0.5406E+01
  -5.830  0.1354E+01  0.5420E+01
  -5.820  0.1343E+01  0.5433E+01
  -5.810  0.1332E+01  0.5447E+01
  -5.800  0.1320E+01  0.5460E+01
  -5.790  0.1309E+01  0.5473E+01
  -5.780  0.1299E+01  0.5486E+01
  -5.770  0.1290E+01  0.5499E+01
  -5.760  0.1282E+01  0.5512E+01
  -5.750  0.1276E+01  0.5524E+01
  -5.740  0.1272E+01  0.5537E+01
  -5.730  0.1270E+01  0.5550E+01
  -5.720  0.1270E+01  0.5563E+01
  -5.710  0.1271E+01  0.5575E+01
  -5.700  0.1274E+01  0.5588E+01
  -5.690  0.1279E+01  0.5601E+01
  -5.680  0.1285E+01  0.5614E+01
  -5.670  0.1291E+01  0.5627E+01
  -5.660  0.1298E+01  0.5640E+01
  -5.650  0.1305E+01  0.5653E+01
  -5.640  0.1311E+01  0.5666E+01
  -5.630  0.1317E+01  0.5679E+01
  -5.620  0.1322E+01  0.5692E+01
  -5.610  0.1326E+01  0.5705E+01
  -5.600  0.1329E+01  0.5719E+01
  -5.590  0.1330E+01  0.5732E+01
  -5.580  0.1329E+01  0.5745E+01
  -5.570  0.1326E+01  0.5759E+01
  -5.560  0.1322E+01  0.5772E+01
  -5.550  0.1317E+01  0.5785E+01
  -5.540  0.1310E+01  0.5798E+01
  -5.530  0.1301E+01  0.5811E+01
  -5.520  0.1292E+01  0.5824E+01
  -5.510  0.1282E+01  0.5837E+01
  -5.500  0.1271E+01  0.5849E+01
  -5.490  0.1260E+01  0.5862E+01
  -5.480  0.1250E+01  0.5875E+01
  -5.470  0.1239E+01  0.5887E+01
  -5.460  0.1230E+01  0.5899E+01
  -5.450  0.1221E+01  0.5911E+01
  -5.440  0.1214E+01  0.5924E+01
  -5.430  0.1208E+01  0.5936E+01
  -5.420  0.1204E+01  0.5948E+01
  -5.410  0.1202E+01  0.5960E+01
  -5.400  0.1202E+01  0.5972E+01
  -5.390  0.1204E+01  0.5984E+01
  -5.380  0.1208E+01  0.5996E+01
  -5.370  0.1213E+01  0.6008E+01
  -5.360  0.1220E+01  0.6020E+01
  -5.350  0.1227E+01  0.6033E+01
  -5.340  0.1235E+01  0.6045E+01
  -5.330  0.1244E+01  0.6057E+01
  -5.320  0.1252E+01  0.6070E+01
  -5.310  0.1260E+01  0.6082E+01
  -5.300  0.1266E+01  0.6095E+01
  -5.290  0.1271E+01  0.6108E+01
  -5.280  0.1274E+01  0.6121E+01
  -5.270  0.1275E+01  0.6133E+01
  -5.260  0.1274E+01  0.6146E+01
  -5.250  0.1271E+01  0.6159E+01
  -5.240  0.1265E+01  0.6171E+01
  -5.230  0.1258E+01  0.6184E+01
  -5.220  0.1249E+01  0.6196E+01
  -5.210  0.1239E+01  0.6209E+01
  -5.200  0.1228E+01  0.6221E+01
  -5.190  0.1216E+01  0.6233E+01
  -5.180  0.1205E+01  0.6245E+01
  -5.170  0.1195E+01  0.6257E+01
  -5.160  0.1186E+01  0.6269E+01
  -5.150  0.1178E+01  0.6281E+01
  -5.140  0.1171E+01  0.6293E+01
  -5.130  0.1167E+01  0.6304E+01
  -5.120  0.1164E+01  0.6316E+01
  -5.110  0.1164E+01  0.6328E+01
  -5.100  0.1165E+01  0.6339E+01
  -5.090  0.1167E+01  0.6351E+01
  -5.080  0.1171E+01  0.6363E+01
  -5.070  0.1176E+01  0.6374E+01
  -5.060  0.1181E+01  0.6386E+01
  -5.050  0.1187E+01  0.6398E+01
  -5.040  0.1192E+01  0.6410E+01
  -5.030  0.1197E+01  0.6422E+01
  -5.020  0.1201E+01  0.6434E+01
  -5.010  0.1204E+01  0.6446E+01
  -5.000  0.1206E+01  0.6458E+01
  -4.990  0.1207E+01  0.6470E+01
  -4.980  0.1207E+01  0.6482E+01
  -4.970  0.1206E+01  0.6494E+01
  -4.960  0.1205E+01  0.6506E+01
  -4.950  0.1202E+01  0.6518E+01
  -4.940  0.1200E+01  0.6530E+01
  -4.930  0.1197E+01  0.6542E+01
  -4.920  0.1193E+01  0.6554E+01
  -4.910  0.1190E+01  0.6566E+01
  -4.900  0.1187E+01  0.6578E+01
  -4.890  0.1184E+01  0.6590E+01
  -4.880  0.1181E+01  0.6602E+01
  -4.870  0.1178E+01  0.6613E+01
  -4.860  0.1175E+01  0.6625E+01
  -4.850  0.1172E+01  0.6637E+01
  -4.840  0.1169E+01  0.6649E+01
  -4.830  0.1166E+01  0.6660E+01
  -4.820  0.1162E+01  0.6672E+01
  -4.810  0.1158E+01  0.6683E+01
  -4.800  0.1154E+01  0.6695E+01
  -4.790  0.1149E+01  0.6706E+01
  -4.780  0.1145E+01  0.6718E+01
  -4.770  0.1141E+01  0.6729E+01
  -4.760  0.1137E+01  0.6741E+01
  -4.750  0.1133E+01  0.6752E+01
  -4.740  0.1131E+01  0.6763E+01
  -4.730  0.1129E+01  0.6775E+01
  -4.720  0.1129E+01  0.6786E+01
  -4.710  0.1130E+01  0.6797E+01
  -4.700  0.1132E+01  0.6809E+01
  -4.690  0.1136E+01  0.6820E+01
  -4.680  0.1140E+01  0.6831E+01
  -4.670  0.1146E+01  0.6843E+01
  -4.660  0.1153E+01  0.6854E+01
  -4.650  0.1160E+01  0.6866E+01
  -4.640  0.1167E+01  0.6878E+01
  -4.630  0.1173E+01  0.6889E+01
  -4.620  0.1179E+01  0.6901E+01
  -4.610  0.1183E+01  0.6913E+01
  -4.600  0.1186E+01  0.6925E+01
  -4.590  0.1187E+01  0.6937E+01
  -4.580  0.1186E+01  0.6949E+01
  -4.570  0.1183E+01  0.6960E+01
  -4.560  0.1178E+01  0.6972E+01
  -4.550  0.1171E+01  0.6984E+01
  -4.540  0.1162E+01  0.6995E+01
  -4.530  0.1153E+01  0.7007E+01
  -4.520  0.1142E+01  0.7018E+01
  -4.510  0.1132E+01  0.7030E+01
  -4.500  0.1122E+01  0.7041E+01
  -4.490  0.1112E+01  0.7052E+01
  -4.480  0.1104E+01  0.7063E+01
  -4.470  0.1097E+01  0.7074E+01
  -4.460  0.1092E+01  0.7085E+01
  -4.450  0.1089E+01  0.7096E+01
  -4.440  0.1088E+01  0.7107E+01
  -4.430  0.1088E+01  0.7118E+01
  -4.420  0.1091E+01  0.7129E+01
  -4.410  0.1095E+01  0.7139E+01
  -4.400  0.1101E+01  0.7150E+01
  -4.390  0.1107E+01  0.7162E+01
  -4.380  0.1114E+01  0.7173E+01
  -4.370  0.1122E+01  0.7184E+01
  -4.360  0.1129E+01  0.7195E+01
  -4.350  0.1136E+01  0.7207E+01
  -4.340  0.1142E+01  0.7218E+01
  -4.330  0.1148E+01  0.7229E+01
  -4.320  0.1152E+01  0.7241E+01
  -4.310  0.1156E+01  0.7253E+01
  -4.300  0.1159E+01  0.7264E+01
  -4.290  0.1160E+01  0.7276E+01
  -4.280  0.1160E+01  0.7287E+01
  -4.270  0.1160E+01  0.7299E+01
  -4.260  0.1158E+01  0.7311E+01
  -4.250  0.1155E+01  0.7322E+01
  -4.240  0.1151E+01  0.7334E+01
  -4.230  0.1147E+01  0.7345E+01
  -4.220  0.1141E+01  0.7356E+01
  -4.210  0.1135E+01  0.7368E+01
  -4.200  0.1129E+01  0.7379E+01
  -4.190  0.1122E+01  0.7390E+01
  -4.180  0.1115E+01  0.7401E+01
  -4.170  0.1108E+01  0.7413E+01
  -4.160  0.1101E+01  0.7424E+01
  -4.150  0.1094E+01  0.7434E+01
  -4.140  0.1088E+01  0.7445E+01
  -4.130  0.1083E+01  0.7456E+01
  -4.120  0.1079E+01  0.7467E+01
  -4.110  0.1076E+01  0.7478E+01
  -4.100  0.1074E+01  0.7488E+01
  -4.090  0.1074E+01  0.7499E+01
  -4.080  0.1075E+01  0.7510E+01
  -4.070  0.1078E+01  0.7521E+01
  -4.060  0.1082E+01  0.7532E+01
  -4.050  0.1088E+01  0.7542E+01
  -4.040  0.1095E+01  0.7553E+01
  -4.030  0.1102E+01  0.7564E+01
  -4.020  0.1111E+01  0.7576E+01
  -4.010  0.1119E+01  0.7587E+01
  -4.000  0.1128E+01  0.7598E+01
  -3.990  0.1136E+01  0.7609E+01
  -3.980  0.1144E+01  0.7621E+01
  -3.970  0.1151E+01  0.7632E+01
  -3.960  0.1157E+01  0.7644E+01
  -3.950  0.1161E+01  0.7655E+01
  -3.940  0.1164E+01  0.7667E+01
  -3.930  0.1165E+01  0.7679E+01
  -3.920  0.1164E+01  0.7690E+01
  -3.910  0.1162E+01  0.7702E+01
  -3.900  0.1158E+01  0.7714E+01
  -3.890  0.1152E+01  0.7725E+01
  -3.880  0.1144E+01  0.7737E+01
  -3.870  0.1135E+01  0.7748E+01
  -3.860  0.1125E+01  0.7759E+01
  -3.850  0.1115E+01  0.7770E+01
  -3.840  0.1104E+01  0.7781E+01
  -3.830  0.1092E+01  0.7792E+01
  -3.820  0.1081E+01  0.7803E+01
  -3.810  0.1070E+01  0.7814E+01
  -3.800  0.1060E+01  0.7824E+01
  -3.790  0.1051E+01  0.7835E+01
  -3.780  0.1042E+01  0.7845E+01
  -3.770  0.1035E+01  0.7856E+01
  -3.760  0.1028E+01  0.7866E+01
  -3.750  0.1023E+01  0.7876E+01
  -3.740  0.1018E+01  0.7886E+01
  -3.730  0.1015E+01  0.7897E+01
  -3.720  0.1012E+01  0.7907E+01
  -3.710  0.1010E+01  0.7917E+01
  -3.700  0.1007E+01  0.7927E+01
  -3.690  0.1005E+01  0.7937E+01
  -3.680  0.1003E+01  0.7947E+01
  -3.670  0.9994E+00  0.7957E+01
  -3.660  0.9954E+00  0.7967E+01
  -3.650  0.9903E+00  0.7977E+01
  -3.640  0.9839E+00  0.7987E+01
  -3.630  0.9761E+00  0.7996E+01
  -3.620  0.9669E+00  0.8006E+01
  -3.610  0.9561E+00  0.8016E+01
  -3.600  0.9437E+00  0.8025E+01
  -3.590  0.9300E+00  0.8034E+01
  -3.580  0.9150E+00  0.8043E+01
  -3.570  0.8989E+00  0.8052E+01
  -3.560  0.8819E+00  0.8061E+01
  -3.550  0.8644E+00  0.8070E+01
  -3.540  0.8466E+00  0.8078E+01
  -3.530  0.8289E+00  0.8087E+01
  -3.520  0.8116E+00  0.8095E+01
  -3.510  0.7950E+00  0.8103E+01
  -3.500  0.7796E+00  0.8111E+01
  -3.490  0.7657E+00  0.8118E+01
  -3.480  0.7536E+00  0.8126E+01
  -3.470  0.7435E+00  0.8133E+01
  -3.460  0.7358E+00  0.8141E+01
  -3.450  0.7307E+00  0.8148E+01
  -3.440  0.7284E+00  0.8155E+01
  -3.430  0.7289E+00  0.8162E+01
  -3.420  0.7323E+00  0.8170E+01
  -3.410  0.7387E+00  0.8177E+01
  -3.400  0.7479E+00  0.8185E+01
  -3.390  0.7598E+00  0.8192E+01
  -3.380  0.7741E+00  0.8200E+01
  -3.370  0.7906E+00  0.8208E+01
  -3.360  0.8088E+00  0.8216E+01
  -3.350  0.8284E+00  0.8224E+01
  -3.340  0.8489E+00  0.8233E+01
  -3.330  0.8697E+00  0.8241E+01
  -3.320  0.8902E+00  0.8250E+01
  -3.310  0.9100E+00  0.8259E+01
  -3.300  0.9284E+00  0.8269E+01
  -3.290  0.9448E+00  0.8278E+01
  -3.280  0.9588E+00  0.8288E+01
  -3.270  0.9700E+00  0.8297E+01
  -3.260  0.9779E+00  0.8307E+01
  -3.250  0.9824E+00  0.8317E+01
  -3.240  0.9832E+00  0.8327E+01
  -3.230  0.9803E+00  0.8337E+01
  -3.220  0.9738E+00  0.8346E+01
  -3.210  0.9638E+00  0.8356E+01
  -3.200  0.9506E+00  0.8366E+01
  -3.190  0.9347E+00  0.8375E+01
  -3.180  0.9165E+00  0.8384E+01
  -3.170  0.8966E+00  0.8393E+01
  -3.160  0.8757E+00  0.8402E+01
  -3.150  0.8543E+00  0.8410E+01
  -3.140  0.8332E+00  0.8419E+01
  -3.130  0.8131E+00  0.8427E+01
  -3.120  0.7946E+00  0.8435E+01
  -3.110  0.7782E+00  0.8443E+01
  -3.100  0.7646E+00  0.8450E+01
  -3.090  0.7540E+00  0.8458E+01
  -3.080  0.7468E+00  0.8465E+01
  -3.070  0.7431E+00  0.8473E+01
  -3.060  0.7430E+00  0.8480E+01
  -3.050  0.7461E+00  0.8487E+01
  -3.040  0.7524E+00  0.8495E+01
  -3.030  0.7614E+00  0.8503E+01
  -3.020  0.7724E+00  0.8510E+01
  -3.010  0.7850E+00  0.8518E+01
  -3.000  0.7984E+00  0.8526E+01
  -2.990  0.8120E+00  0.8534E+01
  -2.980  0.8249E+00  0.8543E+01
  -2.970  0.8365E+00  0.8551E+01
  -2.960  0.8462E+00  0.8559E+01
  -2.950  0.8535E+00  0.8568E+01
  -2.940  0.8579E+00  0.8577E+01
  -2.930  0.8593E+00  0.8585E+01
  -2.920  0.8573E+00  0.8594E+01
  -2.910  0.8522E+00  0.8602E+01
  -2.900  0.8441E+00  0.8611E+01
  -2.890  0.8332E+00  0.8619E+01
  -2.880  0.8201E+00  0.8627E+01
  -2.870  0.8053E+00  0.8635E+01
  -2.860  0.7894E+00  0.8643E+01
  -2.850  0.7729E+00  0.8651E+01
  -2.840  0.7567E+00  0.8658E+01
  -2.830  0.7413E+00  0.8666E+01
  -2.820  0.7274E+00  0.8673E+01
  -2.810  0.7155E+00  0.8680E+01
  -2.800  0.7061E+00  0.8687E+01
  -2.790  0.6996E+00  0.8694E+01
  -2.780  0.6963E+00  0.8701E+01
  -2.770  0.6963E+00  0.8708E+01
  -2.760  0.6997E+00  0.8715E+01
  -2.750  0.7065E+00  0.8722E+01
  -2.740  0.7164E+00  0.8729E+01
  -2.730  0.7292E+00  0.8737E+01
  -2.720  0.7444E+00  0.8744E+01
  -2.710  0.7616E+00  0.8752E+01
  -2.700  0.7802E+00  0.8760E+01
  -2.690  0.7996E+00  0.8768E+01
  -2.680  0.8190E+00  0.8776E+01
  -2.670  0.8377E+00  0.8784E+01
  -2.660  0.8551E+00  0.8793E+01
  -2.650  0.8704E+00  0.8801E+01
  -2.640  0.8829E+00  0.8810E+01
  -2.630  0.8922E+00  0.8819E+01
  -2.620  0.8976E+00  0.8828E+01
  -2.610  0.8989E+00  0.8837E+01
  -2.600  0.8957E+00  0.8846E+01
  -2.590  0.8882E+00  0.8855E+01
  -2.580  0.8762E+00  0.8864E+01
  -2.570  0.8601E+00  0.8872E+01
  -2.560  0.8403E+00  0.8881E+01
  -2.550  0.8173E+00  0.8889E+01
  -2.540  0.7916E+00  0.8897E+01
  -2.530  0.7642E+00  0.8904E+01
  -2.520  0.7356E+00  0.8912E+01
  -2.510  0.7068E+00  0.8919E+01
  -2.500  0.6786E+00  0.8926E+01
  -2.490  0.6517E+00  0.8932E+01
  -2.480  0.6268E+00  0.8938E+01
  -2.470  0.6045E+00  0.8945E+01
  -2.460  0.5854E+00  0.8950E+01
  -2.450  0.5696E+00  0.8956E+01
  -2.440  0.5575E+00  0.8962E+01
  -2.430  0.5491E+00  0.8967E+01
  -2.420  0.5442E+00  0.8973E+01
  -2.410  0.5427E+00  0.8978E+01
  -2.400  0.5441E+00  0.8983E+01
  -2.390  0.5480E+00  0.8989E+01
  -2.380  0.5538E+00  0.8994E+01
  -2.370  0.5608E+00  0.9000E+01
  -2.360  0.5686E+00  0.9006E+01
  -2.350  0.5763E+00  0.9012E+01
  -2.340  0.5834E+00  0.9017E+01
  -2.330  0.5893E+00  0.9023E+01
  -2.320  0.5935E+00  0.9029E+01
  -2.310  0.5956E+00  0.9035E+01
  -2.300  0.5953E+00  0.9041E+01
  -2.290  0.5924E+00  0.9047E+01
  -2.280  0.5869E+00  0.9053E+01
  -2.270  0.5788E+00  0.9059E+01
  -2.260  0.5682E+00  0.9064E+01
  -2.250  0.5554E+00  0.9070E+01
  -2.240  0.5408E+00  0.9075E+01
  -2.230  0.5248E+00  0.9081E+01
  -2.220  0.5077E+00  0.9086E+01
  -2.210  0.4902E+00  0.9091E+01
  -2.200  0.4726E+00  0.9095E+01
  -2.190  0.4555E+00  0.9100E+01
  -2.180  0.4392E+00  0.9104E+01
  -2.170  0.4243E+00  0.9108E+01
  -2.160  0.4110E+00  0.9113E+01
  -2.150  0.3995E+00  0.9117E+01
  -2.140  0.3902E+00  0.9120E+01
  -2.130  0.3830E+00  0.9124E+01
  -2.120  0.3779E+00  0.9128E+01
  -2.110  0.3751E+00  0.9132E+01
  -2.100  0.3742E+00  0.9136E+01
  -2.090  0.3751E+00  0.9139E+01
  -2.080  0.3776E+00  0.9143E+01
  -2.070  0.3814E+00  0.9147E+01
  -2.060  0.3861E+00  0.9151E+01
  -2.050  0.3914E+00  0.9155E+01
  -2.040  0.3969E+00  0.9159E+01
  -2.030  0.4022E+00  0.9163E+01
  -2.020  0.4071E+00  0.9167E+01
  -2.010  0.4113E+00  0.9171E+01
  -2.000  0.4143E+00  0.9175E+01
  -1.990  0.4161E+00  0.9179E+01
  -1.980  0.4165E+00  0.9183E+01
  -1.970  0.4153E+00  0.9187E+01
  -1.960  0.4125E+00  0.9192E+01
  -1.950  0.4082E+00  0.9196E+01
  -1.940  0.4024E+00  0.9200E+01
  -1.930  0.3952E+00  0.9204E+01
  -1.920  0.3869E+00  0.9208E+01
  -1.910  0.3776E+00  0.9211E+01
  -1.900  0.3676E+00  0.9215E+01
  -1.890  0.3572E+00  0.9219E+01
  -1.880  0.3466E+00  0.9222E+01
  -1.870  0.3361E+00  0.9225E+01
  -1.860  0.3259E+00  0.9229E+01
  -1.850  0.3162E+00  0.9232E+01
  -1.840  0.3073E+00  0.9235E+01
  -1.830  0.2993E+00  0.9238E+01
  -1.820  0.2923E+00  0.9241E+01
  -1.810  0.2864E+00  0.9244E+01
  -1.800  0.2816E+00  0.9246E+01
  -1.790  0.2780E+00  0.9249E+01
  -1.780  0.2756E+00  0.9252E+01
  -1.770  0.2742E+00  0.9255E+01
  -1.760  0.2737E+00  0.9257E+01
  -1.750  0.2742E+00  0.9260E+01
  -1.740  0.2754E+00  0.9263E+01
  -1.730  0.2772E+00  0.9266E+01
  -1.720  0.2795E+00  0.9269E+01
  -1.710  0.2819E+00  0.9271E+01
  -1.700  0.2845E+00  0.9274E+01
  -1.690  0.2869E+00  0.9277E+01
  -1.680  0.2889E+00  0.9280E+01
  -1.670  0.2905E+00  0.9283E+01
  -1.660  0.2915E+00  0.9286E+01
  -1.650  0.2917E+00  0.9289E+01
  -1.640  0.2910E+00  0.9292E+01
  -1.630  0.2893E+00  0.9295E+01
  -1.620  0.2867E+00  0.9297E+01
  -1.610  0.2830E+00  0.9300E+01
  -1.600  0.2784E+00  0.9303E+01
  -1.590  0.2729E+00  0.9306E+01
  -1.580  0.2667E+00  0.9308E+01
  -1.570  0.2598E+00  0.9311E+01
  -1.560  0.2524E+00  0.9314E+01
  -1.550  0.2448E+00  0.9316E+01
  -1.540  0.2371E+00  0.9318E+01
  -1.530  0.2295E+00  0.9321E+01
  -1.520  0.2222E+00  0.9323E+01
  -1.510  0.2153E+00  0.9325E+01
  -1.500  0.2090E+00  0.9327E+01
  -1.490  0.2035E+00  0.9329E+01
  -1.480  0.1988E+00  0.9331E+01
  -1.470  0.1949E+00  0.9333E+01
  -1.460  0.1920E+00  0.9335E+01
  -1.450  0.1899E+00  0.9337E+01
  -1.440  0.1887E+00  0.9339E+01
  -1.430  0.1883E+00  0.9341E+01
  -1.420  0.1886E+00  0.9343E+01
  -1.410  0.1895E+00  0.9344E+01
  -1.400  0.1907E+00  0.9346E+01
  -1.390  0.1922E+00  0.9348E+01
  -1.380  0.1938E+00  0.9350E+01
  -1.370  0.1953E+00  0.9352E+01
  -1.360  0.1966E+00  0.9354E+01
  -1.350  0.1976E+00  0.9356E+01
  -1.340  0.1980E+00  0.9358E+01
  -1.330  0.1979E+00  0.9360E+01
  -1.320  0.1971E+00  0.9362E+01
  -1.310  0.1956E+00  0.9364E+01
  -1.300  0.1933E+00  0.9366E+01
  -1.290  0.1903E+00  0.9368E+01
  -1.280  0.1866E+00  0.9370E+01
  -1.270  0.1822E+00  0.9372E+01
  -1.260  0.1773E+00  0.9373E+01
  -1.250  0.1719E+00  0.9375E+01
  -1.240  0.1662E+00  0.9377E+01
  -1.230  0.1602E+00  0.9378E+01
  -1.220  0.1542E+00  0.9380E+01
  -1.210  0.1483E+00  0.9381E+01
  -1.200  0.1426E+00  0.9383E+01
  -1.190  0.1372E+00  0.9384E+01
  -1.180  0.1323E+00  0.9385E+01
  -1.170  0.1279E+00  0.9387E+01
  -1.160  0.1242E+00  0.9388E+01
  -1.150  0.1211E+00  0.9389E+01
  -1.140  0.1187E+00  0.9390E+01
  -1.130  0.1170E+00  0.9392E+01
  -1.120  0.1159E+00  0.9393E+01
  -1.110  0.1154E+00  0.9394E+01
  -1.100  0.1153E+00  0.9395E+01
  -1.090  0.1157E+00  0.9396E+01
  -1.080  0.1163E+00  0.9397E+01
  -1.070  0.1171E+00  0.9398E+01
  -1.060  0.1179E+00  0.9400E+01
  -1.050  0.1185E+00  0.9401E+01
  -1.040  0.1189E+00  0.9402E+01
  -1.030  0.1189E+00  0.9403E+01
  -1.020  0.1184E+00  0.9404E+01
  -1.010  0.1174E+00  0.9406E+01
  -1.000  0.1158E+00  0.9407E+01
  -0.990  0.1136E+00  0.9408E+01
  -0.980  0.1108E+00  0.9409E+01
  -0.970  0.1075E+00  0.9410E+01
  -0.960  0.1038E+00  0.9411E+01
  -0.950  0.9966E-01  0.9412E+01
  -0.940  0.9529E-01  0.9413E+01
  -0.930  0.9077E-01  0.9414E+01
  -0.920  0.8625E-01  0.9415E+01
  -0.910  0.8185E-01  0.9416E+01
  -0.900  0.7769E-01  0.9416E+01
  -0.890  0.7388E-01  0.9417E+01
  -0.880  0.7052E-01  0.9418E+01
  -0.870  0.6768E-01  0.9419E+01
  -0.860  0.6541E-01  0.9419E+01
  -0.850  0.6374E-01  0.9420E+01
  -0.840  0.6267E-01  0.9420E+01
  -0.830  0.6217E-01  0.9421E+01
  -0.820  0.6221E-01  0.9422E+01
  -0.810  0.6271E-01  0.9422E+01
  -0.800  0.6361E-01  0.9423E+01
  -0.790  0.6480E-01  0.9424E+01
  -0.780  0.6618E-01  0.9424E+01
  -0.770  0.6766E-01  0.9425E+01
  -0.760  0.6914E-01  0.9426E+01
  -0.750  0.7052E-01  0.9426E+01
  -0.740  0.7171E-01  0.9427E+01
  -0.730  0.7264E-01  0.9428E+01
  -0.720  0.7326E-01  0.9428E+01
  -0.710  0.7352E-01  0.9429E+01
  -0.700  0.7341E-01  0.9430E+01
  -0.690  0.7292E-01  0.9431E+01
  -0.680  0.7207E-01  0.9431E+01
  -0.670  0.7089E-01  0.9432E+01
  -0.660  0.6943E-01  0.9433E+01
  -0.650  0.6775E-01  0.9433E+01
  -0.640  0.6593E-01  0.9434E+01
  -0.630  0.6405E-01  0.9435E+01
  -0.620  0.6219E-01  0.9435E+01
  -0.610  0.6044E-01  0.9436E+01
  -0.600  0.5888E-01  0.9437E+01
  -0.590  0.5757E-01  0.9437E+01
  -0.580  0.5658E-01  0.9438E+01
  -0.570  0.5596E-01  0.9438E+01
  -0.560  0.5575E-01  0.9439E+01
  -0.550  0.5594E-01  0.9439E+01
  -0.540  0.5654E-01  0.9440E+01
  -0.530  0.5752E-01  0.9441E+01
  -0.520  0.5885E-01  0.9441E+01
  -0.510  0.6046E-01  0.9442E+01
  -0.500  0.6228E-01  0.9442E+01
  -0.490  0.6424E-01  0.9443E+01
  -0.480  0.6625E-01  0.9444E+01
  -0.470  0.6822E-01  0.9444E+01
  -0.460  0.7007E-01  0.9445E+01
  -0.450  0.7171E-01  0.9446E+01
  -0.440  0.7309E-01  0.9447E+01
  -0.430  0.7414E-01  0.9447E+01
  -0.420  0.7483E-01  0.9448E+01
  -0.410  0.7514E-01  0.9449E+01
  -0.400  0.7505E-01  0.9450E+01
  -0.390  0.7460E-01  0.9450E+01
  -0.380  0.7382E-01  0.9451E+01
  -0.370  0.7276E-01  0.9452E+01
  -0.360  0.7151E-01  0.9452E+01
  -0.350  0.7014E-01  0.9453E+01
  -0.340  0.6875E-01  0.9454E+01
  -0.330  0.6745E-01  0.9454E+01
  -0.320  0.6633E-01  0.9455E+01
  -0.310  0.6551E-01  0.9456E+01
  -0.300  0.6508E-01  0.9456E+01
  -0.290  0.6512E-01  0.9457E+01
  -0.280  0.6569E-01  0.9458E+01
  -0.270  0.6686E-01  0.9458E+01
  -0.260  0.6863E-01  0.9459E+01
  -0.250  0.7102E-01  0.9460E+01
  -0.240  0.7399E-01  0.9461E+01
  -0.230  0.7752E-01  0.9461E+01
  -0.220  0.8152E-01  0.9462E+01
  -0.210  0.8591E-01  0.9463E+01
  -0.200  0.9058E-01  0.9464E+01
  -0.190  0.9542E-01  0.9465E+01
  -0.180  0.1003E+00  0.9466E+01
  -0.170  0.1051E+00  0.9467E+01
  -0.160  0.1097E+00  0.9468E+01
  -0.150  0.1140E+00  0.9469E+01
  -0.140  0.1179E+00  0.9470E+01
  -0.130  0.1213E+00  0.9472E+01
  -0.120  0.1242E+00  0.9473E+01
  -0.110  0.1265E+00  0.9474E+01
  -0.100  0.1282E+00  0.9475E+01
  -0.090  0.1294E+00  0.9477E+01
  -0.080  0.1302E+00  0.9478E+01
  -0.070  0.1305E+00  0.9479E+01
  -0.060  0.1305E+00  0.9481E+01
  -0.050  0.1304E+00  0.9482E+01
  -0.040  0.1301E+00  0.9483E+01
  -0.030  0.1299E+00  0.9484E+01
  -0.020  0.1299E+00  0.9486E+01
  -0.010  0.1301E+00  0.9487E+01
   0.000  0.1308E+00  0.9488E+01
   0.010  0.1321E+00  0.9490E+01
   0.020  0.1339E+00  0.9491E+01
   0.030  0.1364E+00  0.9492E+01
   0.040  0.1397E+00  0.9494E+01
   0.050  0.1438E+00  0.9495E+01
   0.060  0.1485E+00  0.9497E+01
   0.070  0.1540E+00  0.9498E+01
   0.080  0.1602E+00  0.9500E+01
   0.090  0.1668E+00  0.9502E+01
   0.100  0.1740E+00  0.9503E+01
   0.110  0.1814E+00  0.9505E+01
   0.120  0.1889E+00  0.9507E+01
   0.130  0.1964E+00  0.9509E+01
   0.140  0.2037E+00  0.9511E+01
   0.150  0.2106E+00  0.9513E+01
   0.160  0.2170E+00  0.9515E+01
   0.170  0.2227E+00  0.9517E+01
   0.180  0.2277E+00  0.9520E+01
   0.190  0.2317E+00  0.9522E+01
   0.200  0.2349E+00  0.9524E+01
   0.210  0.2371E+00  0.9527E+01
   0.220  0.2385E+00  0.9529E+01
   0.230  0.2392E+00  0.9532E+01
   0.240  0.2392E+00  0.9534E+01
   0.250  0.2387E+00  0.9536E+01
   0.260  0.2379E+00  0.9539E+01
   0.270  0.2371E+00  0.9541E+01
   0.280  0.2364E+00  0.9543E+01
   0.290  0.2361E+00  0.9546E+01
   0.300  0.2364E+00  0.9548E+01
   0.310  0.2375E+00  0.9551E+01
   0.320  0.2395E+00  0.9553E+01
   0.330  0.2427E+00  0.9555E+01
   0.340  0.2472E+00  0.9558E+01
   0.350  0.2530E+00  0.9560E+01
   0.360  0.2601E+00  0.9563E+01
   0.370  0.2686E+00  0.9566E+01
   0.380  0.2783E+00  0.9568E+01
   0.390  0.2892E+00  0.9571E+01
   0.400  0.3010E+00  0.9574E+01
   0.410  0.3137E+00  0.9577E+01
   0.420  0.3269E+00  0.9581E+01
   0.430  0.3405E+00  0.9584E+01
   0.440  0.3542E+00  0.9588E+01
   0.450  0.3678E+00  0.9591E+01
   0.460  0.3810E+00  0.9595E+01
   0.470  0.3938E+00  0.9599E+01
   0.480  0.4058E+00  0.9603E+01
   0.490  0.4172E+00  0.9607E+01
   0.500  0.4277E+00  0.9612E+01
   0.510  0.4376E+00  0.9616E+01
   0.520  0.4469E+00  0.9620E+01
   0.530  0.4557E+00  0.9625E+01
   0.540  0.4643E+00  0.9630E+01
   0.550  0.4729E+00  0.9634E+01
   0.560  0.4819E+00  0.9639E+01
   0.570  0.4915E+00  0.9644E+01
   0.580  0.5019E+00  0.9649E+01
   0.590  0.5136E+00  0.9654E+01
   0.600  0.5266E+00  0.9660E+01
   0.610  0.5410E+00  0.9665E+01
   0.620  0.5570E+00  0.9671E+01
   0.630  0.5745E+00  0.9676E+01
   0.640  0.5933E+00  0.9682E+01
   0.650  0.6134E+00  0.9688E+01
   0.660  0.6343E+00  0.9695E+01
   0.670  0.6557E+00  0.9701E+01
   0.680  0.6773E+00  0.9708E+01
   0.690  0.6986E+00  0.9715E+01
   0.700  0.7192E+00  0.9722E+01
   0.710  0.7385E+00  0.9730E+01
   0.720  0.7562E+00  0.9737E+01
   0.730  0.7718E+00  0.9745E+01
   0.740  0.7851E+00  0.9753E+01
   0.750  0.7957E+00  0.9761E+01
   0.760  0.8035E+00  0.9769E+01
   0.770  0.8083E+00  0.9777E+01
   0.780  0.8102E+00  0.9785E+01
   0.790  0.8092E+00  0.9793E+01
   0.800  0.8054E+00  0.9801E+01
   0.810  0.7991E+00  0.9809E+01
   0.820  0.7904E+00  0.9817E+01
   0.830  0.7798E+00  0.9825E+01
   0.840  0.7676E+00  0.9832E+01
   0.850  0.7542E+00  0.9840E+01
   0.860  0.7400E+00  0.9847E+01
   0.870  0.7254E+00  0.9855E+01
   0.880  0.7109E+00  0.9862E+01
   0.890  0.6967E+00  0.9869E+01
   0.900  0.6833E+00  0.9876E+01
   0.910  0.6710E+00  0.9882E+01
   0.920  0.6599E+00  0.9889E+01
   0.930  0.6504E+00  0.9895E+01
   0.940  0.6426E+00  0.9902E+01
   0.950  0.6365E+00  0.9908E+01
   0.960  0.6322E+00  0.9914E+01
   0.970  0.6295E+00  0.9921E+01
   0.980  0.6284E+00  0.9927E+01
   0.990  0.6287E+00  0.9933E+01
   1.000  0.6302E+00  0.9940E+01
   1.010  0.6327E+00  0.9946E+01
   1.020  0.6358E+00  0.9952E+01
   1.030  0.6393E+00  0.9959E+01
   1.040  0.6430E+00  0.9965E+01
   1.050  0.6465E+00  0.9972E+01
   1.060  0.6498E+00  0.9978E+01
   1.070  0.6525E+00  0.9985E+01
   1.080  0.6546E+00  0.9991E+01
   1.090  0.6559E+00  0.9998E+01
   1.100  0.6566E+00  0.1000E+02
   1.110  0.6564E+00  0.1001E+02
   1.120  0.6556E+00  0.1002E+02
   1.130  0.6543E+00  0.1002E+02
   1.140  0.6526E+00  0.1003E+02
   1.150  0.6507E+00  0.1004E+02
   1.160  0.6489E+00  0.1004E+02
   1.170  0.6473E+00  0.1005E+02
   1.180  0.6462E+00  0.1006E+02
   1.190  0.6459E+00  0.1006E+02
   1.200  0.6465E+00  0.1007E+02
   1.210  0.6484E+00  0.1008E+02
   1.220  0.6515E+00  0.1008E+02
   1.230  0.6561E+00  0.1009E+02
   1.240  0.6621E+00  0.1010E+02
   1.250  0.6697E+00  0.1010E+02
   1.260  0.6787E+00  0.1011E+02
   1.270  0.6890E+00  0.1012E+02
   1.280  0.7005E+00  0.1012E+02
   1.290  0.7130E+00  0.1013E+02
   1.300  0.7262E+00  0.1014E+02
   1.310  0.7399E+00  0.1014E+02
   1.320  0.7539E+00  0.1015E+02
   1.330  0.7678E+00  0.1016E+02
   1.340  0.7816E+00  0.1017E+02
   1.350  0.7950E+00  0.1018E+02
   1.360  0.8077E+00  0.1018E+02
   1.370  0.8198E+00  0.1019E+02
   1.380  0.8311E+00  0.1020E+02
   1.390  0.8417E+00  0.1021E+02
   1.400  0.8513E+00  0.1022E+02
   1.410  0.8602E+00  0.1023E+02
   1.420  0.8683E+00  0.1023E+02
   1.430  0.8757E+00  0.1024E+02
   1.440  0.8823E+00  0.1025E+02
   1.450  0.8882E+00  0.1026E+02
   1.460  0.8934E+00  0.1027E+02
   1.470  0.8978E+00  0.1028E+02
   1.480  0.9015E+00  0.1029E+02
   1.490  0.9043E+00  0.1030E+02
   1.500  0.9062E+00  0.1031E+02
   1.510  0.9071E+00  0.1032E+02
   1.520  0.9070E+00  0.1032E+02
   1.530  0.9058E+00  0.1033E+02
   1.540  0.9034E+00  0.1034E+02
   1.550  0.8999E+00  0.1035E+02
   1.560  0.8952E+00  0.1036E+02
   1.570  0.8895E+00  0.1037E+02
   1.580  0.8828E+00  0.1038E+02
   1.590  0.8752E+00  0.1039E+02
   1.600  0.8668E+00  0.1040E+02
   1.610  0.8578E+00  0.1040E+02
   1.620  0.8484E+00  0.1041E+02
   1.630  0.8387E+00  0.1042E+02
   1.640  0.8288E+00  0.1043E+02
   1.650  0.8188E+00  0.1044E+02
   1.660  0.8089E+00  0.1045E+02
   1.670  0.7991E+00  0.1045E+02
   1.680  0.7895E+00  0.1046E+02
   1.690  0.7799E+00  0.1047E+02
   1.700  0.7705E+00  0.1048E+02
   1.710  0.7611E+00  0.1048E+02
   1.720  0.7517E+00  0.1049E+02
   1.730  0.7423E+00  0.1050E+02
   1.740  0.7328E+00  0.1051E+02
   1.750  0.7233E+00  0.1051E+02
   1.760  0.7137E+00  0.1052E+02
   1.770  0.7042E+00  0.1053E+02
   1.780  0.6947E+00  0.1053E+02
   1.790  0.6854E+00  0.1054E+02
   1.800  0.6764E+00  0.1055E+02
   1.810  0.6678E+00  0.1056E+02
   1.820  0.6598E+00  0.1056E+02
   1.830  0.6526E+00  0.1057E+02
   1.840  0.6463E+00  0.1057E+02
   1.850  0.6410E+00  0.1058E+02
   1.860  0.6367E+00  0.1059E+02
   1.870  0.6336E+00  0.1059E+02
   1.880  0.6316E+00  0.1060E+02
   1.890  0.6307E+00  0.1061E+02
   1.900  0.6308E+00  0.1061E+02
   1.910  0.6318E+00  0.1062E+02
   1.920  0.6335E+00  0.1063E+02
   1.930  0.6357E+00  0.1063E+02
   1.940  0.6382E+00  0.1064E+02
   1.950  0.6408E+00  0.1064E+02
   1.960  0.6432E+00  0.1065E+02
   1.970  0.6453E+00  0.1066E+02
   1.980  0.6468E+00  0.1066E+02
   1.990  0.6475E+00  0.1067E+02
   2.000  0.6473E+00  0.1068E+02
   2.010  0.6461E+00  0.1068E+02
   2.020  0.6438E+00  0.1069E+02
   2.030  0.6404E+00  0.1070E+02
   2.040  0.6360E+00  0.1070E+02
   2.050  0.6306E+00  0.1071E+02
   2.060  0.6245E+00  0.1072E+02
   2.070  0.6176E+00  0.1072E+02
   2.080  0.6103E+00  0.1073E+02
   2.090  0.6027E+00  0.1073E+02
   2.100  0.5950E+00  0.1074E+02
   2.110  0.5875E+00  0.1075E+02
   2.120  0.5803E+00  0.1075E+02
   2.130  0.5736E+00  0.1076E+02
   2.140  0.5675E+00  0.1076E+02
   2.150  0.5621E+00  0.1077E+02
   2.160  0.5575E+00  0.1077E+02
   2.170  0.5537E+00  0.1078E+02
   2.180  0.5506E+00  0.1078E+02
   2.190  0.5482E+00  0.1079E+02
   2.200  0.5464E+00  0.1080E+02
   2.210  0.5452E+00  0.1080E+02
   2.220  0.5444E+00  0.1081E+02
   2.230  0.5441E+00  0.1081E+02
   2.240  0.5440E+00  0.1082E+02
   2.250  0.5442E+00  0.1082E+02
   2.260  0.5447E+00  0.1083E+02
   2.270  0.5454E+00  0.1083E+02
   2.280  0.5463E+00  0.1084E+02
   2.290  0.5475E+00  0.1084E+02
   2.300  0.5491E+00  0.1085E+02
   2.310  0.5511E+00  0.1086E+02
   2.320  0.5535E+00  0.1086E+02
   2.330  0.5564E+00  0.1087E+02
   2.340  0.5599E+00  0.1087E+02
   2.350  0.5639E+00  0.1088E+02
   2.360  0.5684E+00  0.1088E+02
   2.370  0.5735E+00  0.1089E+02
   2.380  0.5789E+00  0.1090E+02
   2.390  0.5847E+00  0.1090E+02
   2.400  0.5907E+00  0.1091E+02
   2.410  0.5968E+00  0.1091E+02
   2.420  0.6028E+00  0.1092E+02
   2.430  0.6085E+00  0.1093E+02
   2.440  0.6140E+00  0.1093E+02
   2.450  0.6189E+00  0.1094E+02
   2.460  0.6234E+00  0.1094E+02
   2.470  0.6272E+00  0.1095E+02
   2.480  0.6304E+00  0.1096E+02
   2.490  0.6329E+00  0.1096E+02
   2.500  0.6349E+00  0.1097E+02
   2.510  0.6364E+00  0.1098E+02
   2.520  0.6376E+00  0.1098E+02
   2.530  0.6385E+00  0.1099E+02
   2.540  0.6394E+00  0.1099E+02
   2.550  0.6404E+00  0.1100E+02
   2.560  0.6416E+00  0.1101E+02
   2.570  0.6433E+00  0.1101E+02
   2.580  0.6455E+00  0.1102E+02
   2.590  0.6483E+00  0.1103E+02
   2.600  0.6519E+00  0.1103E+02
   2.610  0.6562E+00  0.1104E+02
   2.620  0.6612E+00  0.1105E+02
   2.630  0.6670E+00  0.1105E+02
   2.640  0.6734E+00  0.1106E+02
   2.650  0.6803E+00  0.1107E+02
   2.660  0.6877E+00  0.1107E+02
   2.670  0.6954E+00  0.1108E+02
   2.680  0.7032E+00  0.1109E+02
   2.690  0.7111E+00  0.1109E+02
   2.700  0.7188E+00  0.1110E+02
   2.710  0.7263E+00  0.1111E+02
   2.720  0.7334E+00  0.1112E+02
   2.730  0.7400E+00  0.1112E+02
   2.740  0.7460E+00  0.1113E+02
   2.750  0.7513E+00  0.1114E+02
   2.760  0.7559E+00  0.1115E+02
   2.770  0.7597E+00  0.1115E+02
   2.780  0.7627E+00  0.1116E+02
   2.790  0.7649E+00  0.1117E+02
   2.800  0.7664E+00  0.1118E+02
   2.810  0.7672E+00  0.1118E+02
   2.820  0.7673E+00  0.1119E+02
   2.830  0.7670E+00  0.1120E+02
   2.840  0.7662E+00  0.1121E+02
   2.850  0.7652E+00  0.1122E+02
   2.860  0.7640E+00  0.1122E+02
   2.870  0.7629E+00  0.1123E+02
   2.880  0.7619E+00  0.1124E+02
   2.890  0.7614E+00  0.1125E+02
   2.900  0.7612E+00  0.1125E+02
   2.910  0.7617E+00  0.1126E+02
   2.920  0.7630E+00  0.1127E+02
   2.930  0.7650E+00  0.1128E+02
   2.940  0.7679E+00  0.1128E+02
   2.950  0.7716E+00  0.1129E+02
   2.960  0.7762E+00  0.1130E+02
   2.970  0.7817E+00  0.1131E+02
   2.980  0.7879E+00  0.1131E+02
   2.990  0.7948E+00  0.1132E+02
   3.000  0.8023E+00  0.1133E+02
   3.010  0.8103E+00  0.1134E+02
   3.020  0.8186E+00  0.1135E+02
   3.030  0.8271E+00  0.1136E+02
   3.040  0.8358E+00  0.1136E+02
   3.050  0.8445E+00  0.1137E+02
   3.060  0.8530E+00  0.1138E+02
   3.070  0.8615E+00  0.1139E+02
   3.080  0.8696E+00  0.1140E+02
   3.090  0.8776E+00  0.1141E+02
   3.100  0.8851E+00  0.1142E+02
   3.110  0.8924E+00  0.1142E+02
   3.120  0.8992E+00  0.1143E+02
   3.130  0.9057E+00  0.1144E+02
   3.140  0.9117E+00  0.1145E+02
   3.150  0.9173E+00  0.1146E+02
   3.160  0.9225E+00  0.1147E+02
   3.170  0.9271E+00  0.1148E+02
   3.180  0.9313E+00  0.1149E+02
   3.190  0.9349E+00  0.1150E+02
   3.200  0.9380E+00  0.1151E+02
   3.210  0.9404E+00  0.1152E+02
   3.220  0.9421E+00  0.1153E+02
   3.230  0.9430E+00  0.1154E+02
   3.240  0.9431E+00  0.1155E+02
   3.250  0.9423E+00  0.1155E+02
   3.260  0.9406E+00  0.1156E+02
   3.270  0.9379E+00  0.1157E+02
   3.280  0.9342E+00  0.1158E+02
   3.290  0.9295E+00  0.1159E+02
   3.300  0.9238E+00  0.1160E+02
   3.310  0.9173E+00  0.1161E+02
   3.320  0.9100E+00  0.1162E+02
   3.330  0.9021E+00  0.1163E+02
   3.340  0.8938E+00  0.1164E+02
   3.350  0.8852E+00  0.1165E+02
   3.360  0.8765E+00  0.1166E+02
   3.370  0.8681E+00  0.1166E+02
   3.380  0.8601E+00  0.1167E+02
   3.390  0.8529E+00  0.1168E+02
   3.400  0.8465E+00  0.1169E+02
   3.410  0.8412E+00  0.1170E+02
   3.420  0.8373E+00  0.1171E+02
   3.430  0.8347E+00  0.1171E+02
   3.440  0.8335E+00  0.1172E+02
   3.450  0.8339E+00  0.1173E+02
   3.460  0.8357E+00  0.1174E+02
   3.470  0.8390E+00  0.1175E+02
   3.480  0.8435E+00  0.1176E+02
   3.490  0.8492E+00  0.1176E+02
   3.500  0.8559E+00  0.1177E+02
   3.510  0.8633E+00  0.1178E+02
   3.520  0.8713E+00  0.1179E+02
   3.530  0.8795E+00  0.1180E+02
   3.540  0.8879E+00  0.1181E+02
   3.550  0.8960E+00  0.1182E+02
   3.560  0.9038E+00  0.1183E+02
   3.570  0.9109E+00  0.1184E+02
   3.580  0.9171E+00  0.1184E+02
   3.590  0.9223E+00  0.1185E+02
   3.600  0.9262E+00  0.1186E+02
   3.610  0.9289E+00  0.1187E+02
   3.620  0.9300E+00  0.1188E+02
   3.630  0.9297E+00  0.1189E+02
   3.640  0.9279E+00  0.1190E+02
   3.650  0.9246E+00  0.1191E+02
   3.660  0.9200E+00  0.1192E+02
   3.670  0.9142E+00  0.1193E+02
   3.680  0.9073E+00  0.1194E+02
   3.690  0.8996E+00  0.1195E+02
   3.700  0.8914E+00  0.1196E+02
   3.710  0.8828E+00  0.1196E+02
   3.720  0.8742E+00  0.1197E+02
   3.730  0.8658E+00  0.1198E+02
   3.740  0.8580E+00  0.1199E+02
   3.750  0.8508E+00  0.1200E+02
   3.760  0.8446E+00  0.1201E+02
   3.770  0.8394E+00  0.1202E+02
   3.780  0.8353E+00  0.1202E+02
   3.790  0.8323E+00  0.1203E+02
   3.800  0.8306E+00  0.1204E+02
   3.810  0.8298E+00  0.1205E+02
   3.820  0.8301E+00  0.1206E+02
   3.830  0.8312E+00  0.1207E+02
   3.840  0.8330E+00  0.1207E+02
   3.850  0.8355E+00  0.1208E+02
   3.860  0.8384E+00  0.1209E+02
   3.870  0.8416E+00  0.1210E+02
   3.880  0.8452E+00  0.1211E+02
   3.890  0.8491E+00  0.1212E+02
   3.900  0.8532E+00  0.1212E+02
   3.910  0.8577E+00  0.1213E+02
   3.920  0.8626E+00  0.1214E+02
   3.930  0.8681E+00  0.1215E+02
   3.940  0.8742E+00  0.1216E+02
   3.950  0.8813E+00  0.1217E+02
   3.960  0.8893E+00  0.1218E+02
   3.970  0.8983E+00  0.1219E+02
   3.980  0.9085E+00  0.1219E+02
   3.990  0.9199E+00  0.1220E+02
   4.000  0.9325E+00  0.1221E+02
   4.010  0.9461E+00  0.1222E+02
   4.020  0.9605E+00  0.1223E+02
   4.030  0.9756E+00  0.1224E+02
   4.040  0.9911E+00  0.1225E+02
   4.050  0.1006E+01  0.1226E+02
   4.060  0.1022E+01  0.1227E+02
   4.070  0.1036E+01  0.1228E+02
   4.080  0.1049E+01  0.1229E+02
   4.090  0.1060E+01  0.1230E+02
   4.100  0.1070E+01  0.1231E+02
   4.110  0.1077E+01  0.1232E+02
   4.120  0.1082E+01  0.1234E+02
   4.130  0.1084E+01  0.1235E+02
   4.140  0.1084E+01  0.1236E+02
   4.150  0.1081E+01  0.1237E+02
   4.160  0.1076E+01  0.1238E+02
   4.170  0.1069E+01  0.1239E+02
   4.180  0.1060E+01  0.1240E+02
   4.190  0.1050E+01  0.1241E+02
   4.200  0.1039E+01  0.1242E+02
   4.210  0.1028E+01  0.1243E+02
   4.220  0.1018E+01  0.1244E+02
   4.230  0.1008E+01  0.1245E+02
   4.240  0.9995E+00  0.1246E+02
   4.250  0.9930E+00  0.1247E+02
   4.260  0.9885E+00  0.1248E+02
   4.270  0.9863E+00  0.1249E+02
   4.280  0.9865E+00  0.1250E+02
   4.290  0.9890E+00  0.1251E+02
   4.300  0.9937E+00  0.1252E+02
   4.310  0.1000E+01  0.1253E+02
   4.320  0.1009E+01  0.1254E+02
   4.330  0.1018E+01  0.1255E+02
   4.340  0.1029E+01  0.1256E+02
   4.350  0.1039E+01  0.1257E+02
   4.360  0.1050E+01  0.1258E+02
   4.370  0.1061E+01  0.1259E+02
   4.380  0.1070E+01  0.1260E+02
   4.390  0.1078E+01  0.1261E+02
   4.400  0.1085E+01  0.1263E+02
   4.410  0.1091E+01  0.1264E+02
   4.420  0.1095E+01  0.1265E+02
   4.430  0.1097E+01  0.1266E+02
   4.440  0.1098E+01  0.1267E+02
   4.450  0.1098E+01  0.1268E+02
   4.460  0.1097E+01  0.1269E+02
   4.470  0.1094E+01  0.1270E+02
   4.480  0.1091E+01  0.1271E+02
   4.490  0.1087E+01  0.1272E+02
   4.500  0.1083E+01  0.1273E+02
   4.510  0.1079E+01  0.1275E+02
   4.520  0.1074E+01  0.1276E+02
   4.530  0.1070E+01  0.1277E+02
   4.540  0.1067E+01  0.1278E+02
   4.550  0.1063E+01  0.1279E+02
   4.560  0.1061E+01  0.1280E+02
   4.570  0.1058E+01  0.1281E+02
   4.580  0.1056E+01  0.1282E+02
   4.590  0.1054E+01  0.1283E+02
   4.600  0.1052E+01  0.1284E+02
   4.610  0.1050E+01  0.1285E+02
   4.620  0.1048E+01  0.1286E+02
   4.630  0.1046E+01  0.1287E+02
   4.640  0.1043E+01  0.1288E+02
   4.650  0.1040E+01  0.1289E+02
   4.660  0.1036E+01  0.1290E+02
   4.670  0.1032E+01  0.1291E+02
   4.680  0.1027E+01  0.1292E+02
   4.690  0.1022E+01  0.1293E+02
   4.700  0.1017E+01  0.1294E+02
   4.710  0.1011E+01  0.1295E+02
   4.720  0.1006E+01  0.1296E+02
   4.730  0.1001E+01  0.1297E+02
   4.740  0.9967E+00  0.1298E+02
   4.750  0.9934E+00  0.1299E+02
   4.760  0.9911E+00  0.1300E+02
   4.770  0.9901E+00  0.1301E+02
   4.780  0.9907E+00  0.1302E+02
   4.790  0.9927E+00  0.1303E+02
   4.800  0.9964E+00  0.1304E+02
   4.810  0.1002E+01  0.1305E+02
   4.820  0.1008E+01  0.1306E+02
   4.830  0.1016E+01  0.1307E+02
   4.840  0.1025E+01  0.1308E+02
   4.850  0.1035E+01  0.1310E+02
   4.860  0.1045E+01  0.1311E+02
   4.870  0.1056E+01  0.1312E+02
   4.880  0.1066E+01  0.1313E+02
   4.890  0.1076E+01  0.1314E+02
   4.900  0.1084E+01  0.1315E+02
   4.910  0.1092E+01  0.1316E+02
   4.920  0.1098E+01  0.1317E+02
   4.930  0.1103E+01  0.1318E+02
   4.940  0.1105E+01  0.1319E+02
   4.950  0.1106E+01  0.1320E+02
   4.960  0.1105E+01  0.1321E+02
   4.970  0.1102E+01  0.1323E+02
   4.980  0.1097E+01  0.1324E+02
   4.990  0.1091E+01  0.1325E+02
   5.000  0.1083E+01  0.1326E+02
   5.010  0.1074E+01  0.1327E+02
   5.020  0.1065E+01  0.1328E+02
   5.030  0.1055E+01  0.1329E+02
   5.040  0.1045E+01  0.1330E+02
   5.050  0.1036E+01  0.1331E+02
   5.060  0.1027E+01  0.1332E+02
   5.070  0.1019E+01  0.1333E+02
   5.080  0.1013E+01  0.1334E+02
   5.090  0.1009E+01  0.1335E+02
   5.100  0.1006E+01  0.1336E+02
   5.110  0.1006E+01  0.1337E+02
   5.120  0.1008E+01  0.1338E+02
   5.130  0.1011E+01  0.1339E+02
   5.140  0.1017E+01  0.1340E+02
   5.150  0.1025E+01  0.1341E+02
   5.160  0.1035E+01  0.1342E+02
   5.170  0.1046E+01  0.1343E+02
   5.180  0.1059E+01  0.1344E+02
   5.190  0.1073E+01  0.1345E+02
   5.200  0.1089E+01  0.1347E+02
   5.210  0.1105E+01  0.1348E+02
   5.220  0.1123E+01  0.1349E+02
   5.230  0.1141E+01  0.1350E+02
   5.240  0.1159E+01  0.1351E+02
   5.250  0.1178E+01  0.1352E+02
   5.260  0.1197E+01  0.1353E+02
   5.270  0.1217E+01  0.1355E+02
   5.280  0.1236E+01  0.1356E+02
   5.290  0.1256E+01  0.1357E+02
   5.300  0.1276E+01  0.1358E+02
   5.310  0.1296E+01  0.1360E+02
   5.320  0.1316E+01  0.1361E+02
   5.330  0.1336E+01  0.1362E+02
   5.340  0.1356E+01  0.1364E+02
   5.350  0.1376E+01  0.1365E+02
   5.360  0.1394E+01  0.1367E+02
   5.370  0.1412E+01  0.1368E+02
   5.380  0.1429E+01  0.1369E+02
   5.390  0.1445E+01  0.1371E+02
   5.400  0.1460E+01  0.1372E+02
   5.410  0.1472E+01  0.1374E+02
   5.420  0.1483E+01  0.1375E+02
   5.430  0.1492E+01  0.1377E+02
   5.440  0.1499E+01  0.1378E+02
   5.450  0.1503E+01  0.1380E+02
   5.460  0.1505E+01  0.1381E+02
   5.470  0.1505E+01  0.1383E+02
   5.480  0.1503E+01  0.1384E+02
   5.490  0.1498E+01  0.1386E+02
   5.500  0.1492E+01  0.1387E+02
   5.510  0.1483E+01  0.1389E+02
   5.520  0.1473E+01  0.1390E+02
   5.530  0.1462E+01  0.1392E+02
   5.540  0.1450E+01  0.1393E+02
   5.550  0.1437E+01  0.1395E+02
   5.560  0.1423E+01  0.1396E+02
   5.570  0.1409E+01  0.1397E+02
   5.580  0.1394E+01  0.1399E+02
   5.590  0.1380E+01  0.1400E+02
   5.600  0.1366E+01  0.1401E+02
   5.610  0.1353E+01  0.1403E+02
   5.620  0.1340E+01  0.1404E+02
   5.630  0.1328E+01  0.1406E+02
   5.640  0.1317E+01  0.1407E+02
   5.650  0.1307E+01  0.1408E+02
   5.660  0.1298E+01  0.1409E+02
   5.670  0.1290E+01  0.1411E+02
   5.680  0.1284E+01  0.1412E+02
   5.690  0.1279E+01  0.1413E+02
   5.700  0.1275E+01  0.1415E+02
   5.710  0.1273E+01  0.1416E+02
   5.720  0.1273E+01  0.1417E+02
   5.730  0.1274E+01  0.1418E+02
   5.740  0.1277E+01  0.1420E+02
   5.750  0.1281E+01  0.1421E+02
   5.760  0.1287E+01  0.1422E+02
   5.770  0.1295E+01  0.1424E+02
   5.780  0.1304E+01  0.1425E+02
   5.790  0.1315E+01  0.1426E+02
   5.800  0.1327E+01  0.1427E+02
   5.810  0.1340E+01  0.1429E+02
   5.820  0.1354E+01  0.1430E+02
   5.830  0.1369E+01  0.1432E+02
   5.840  0.1385E+01  0.1433E+02
   5.850  0.1400E+01  0.1434E+02
   5.860  0.1416E+01  0.1436E+02
   5.870  0.1431E+01  0.1437E+02
   5.880  0.1446E+01  0.1439E+02
   5.890  0.1460E+01  0.1440E+02
   5.900  0.1473E+01  0.1442E+02
   5.910  0.1485E+01  0.1443E+02
   5.920  0.1496E+01  0.1445E+02
   5.930  0.1504E+01  0.1446E+02
   5.940  0.1512E+01  0.1448E+02
   5.950  0.1517E+01  0.1449E+02
   5.960  0.1521E+01  0.1451E+02
   5.970  0.1523E+01  0.1452E+02
   5.980  0.1524E+01  0.1454E+02
   5.990  0.1523E+01  0.1455E+02
   6.000  0.1522E+01  0.1457E+02
   6.010  0.1519E+01  0.1458E+02
   6.020  0.1515E+01  0.1460E+02
   6.030  0.1510E+01  0.1461E+02
   6.040  0.1505E+01  0.1463E+02
   6.050  0.1499E+01  0.1464E+02
   6.060  0.1493E+01  0.1466E+02
   6.070  0.1487E+01  0.1467E+02
   6.080  0.1480E+01  0.1469E+02
   6.090  0.1474E+01  0.1470E+02
   6.100  0.1468E+01  0.1472E+02
   6.110  0.1463E+01  0.1473E+02
   6.120  0.1458E+01  0.1475E+02
   6.130  0.1453E+01  0.1476E+02
   6.140  0.1450E+01  0.1477E+02
   6.150  0.1447E+01  0.1479E+02
   6.160  0.1446E+01  0.1480E+02
   6.170  0.1445E+01  0.1482E+02
   6.180  0.1446E+01  0.1483E+02
   6.190  0.1448E+01  0.1485E+02
   6.200  0.1452E+01  0.1486E+02
   6.210  0.1456E+01  0.1488E+02
   6.220  0.1461E+01  0.1489E+02
   6.230  0.1468E+01  0.1491E+02
   6.240  0.1474E+01  0.1492E+02
   6.250  0.1481E+01  0.1493E+02
   6.260  0.1488E+01  0.1495E+02
   6.270  0.1495E+01  0.1496E+02
   6.280  0.1501E+01  0.1498E+02
   6.290  0.1507E+01  0.1499E+02
   6.300  0.1512E+01  0.1501E+02
   6.310  0.1515E+01  0.1502E+02
   6.320  0.1517E+01  0.1504E+02
   6.330  0.1518E+01  0.1506E+02
   6.340  0.1517E+01  0.1507E+02
   6.350  0.1515E+01  0.1509E+02
   6.360  0.1512E+01  0.1510E+02
   6.370  0.1507E+01  0.1512E+02
   6.380  0.1501E+01  0.1513E+02
   6.390  0.1494E+01  0.1515E+02
   6.400  0.1486E+01  0.1516E+02
   6.410  0.1478E+01  0.1518E+02
   6.420  0.1469E+01  0.1519E+02
   6.430  0.1461E+01  0.1520E+02
   6.440  0.1452E+01  0.1522E+02
   6.450  0.1444E+01  0.1523E+02
   6.460  0.1437E+01  0.1525E+02
   6.470  0.1430E+01  0.1526E+02
   6.480  0.1425E+01  0.1528E+02
   6.490  0.1421E+01  0.1529E+02
   6.500  0.1418E+01  0.1530E+02
   6.510  0.1417E+01  0.1532E+02
   6.520  0.1417E+01  0.1533E+02
   6.530  0.1419E+01  0.1535E+02
   6.540  0.1422E+01  0.1536E+02
   6.550  0.1427E+01  0.1538E+02
   6.560  0.1434E+01  0.1539E+02
   6.570  0.1443E+01  0.1540E+02
   6.580  0.1452E+01  0.1542E+02
   6.590  0.1463E+01  0.1543E+02
   6.600  0.1476E+01  0.1545E+02
   6.610  0.1489E+01  0.1546E+02
   6.620  0.1503E+01  0.1548E+02
   6.630  0.1518E+01  0.1549E+02
   6.640  0.1534E+01  0.1551E+02
   6.650  0.1551E+01  0.1552E+02
   6.660  0.1568E+01  0.1554E+02
   6.670  0.1586E+01  0.1556E+02
   6.680  0.1604E+01  0.1557E+02
   6.690  0.1623E+01  0.1559E+02
   6.700  0.1643E+01  0.1560E+02
   6.710  0.1662E+01  0.1562E+02
   6.720  0.1682E+01  0.1564E+02
   6.730  0.1703E+01  0.1566E+02
   6.740  0.1723E+01  0.1567E+02
   6.750  0.1744E+01  0.1569E+02
   6.760  0.1764E+01  0.1571E+02
   6.770  0.1785E+01  0.1573E+02
   6.780  0.1805E+01  0.1574E+02
   6.790  0.1824E+01  0.1576E+02
   6.800  0.1843E+01  0.1578E+02
   6.810  0.1861E+01  0.1580E+02
   6.820  0.1877E+01  0.1582E+02
   6.830  0.1892E+01  0.1584E+02
   6.840  0.1905E+01  0.1586E+02
   6.850  0.1917E+01  0.1587E+02
   6.860  0.1927E+01  0.1589E+02
   6.870  0.1935E+01  0.1591E+02
   6.880  0.1942E+01  0.1593E+02
   6.890  0.1947E+01  0.1595E+02
   6.900  0.1951E+01  0.1597E+02
   6.910  0.1953E+01  0.1599E+02
   6.920  0.1955E+01  0.1601E+02
   6.930  0.1957E+01  0.1603E+02
   6.940  0.1959E+01  0.1605E+02
   6.950  0.1962E+01  0.1607E+02
   6.960  0.1966E+01  0.1609E+02
   6.970  0.1972E+01  0.1611E+02
   6.980  0.1980E+01  0.1613E+02
   6.990  0.1992E+01  0.1615E+02
   7.000  0.2006E+01  0.1617E+02
   7.010  0.2025E+01  0.1619E+02
   7.020  0.2047E+01  0.1621E+02
   7.030  0.2073E+01  0.1623E+02
   7.040  0.2104E+01  0.1625E+02
   7.050  0.2138E+01  0.1627E+02
   7.060  0.2176E+01  0.1629E+02
   7.070  0.2216E+01  0.1632E+02
   7.080  0.2260E+01  0.1634E+02
   7.090  0.2305E+01  0.1636E+02
   7.100  0.2351E+01  0.1639E+02
   7.110  0.2397E+01  0.1641E+02
   7.120  0.2442E+01  0.1643E+02
   7.130  0.2485E+01  0.1646E+02
   7.140  0.2526E+01  0.1648E+02
   7.150  0.2563E+01  0.1651E+02
   7.160  0.2597E+01  0.1654E+02
   7.170  0.2626E+01  0.1656E+02
   7.180  0.2651E+01  0.1659E+02
   7.190  0.2670E+01  0.1662E+02
   7.200  0.2685E+01  0.1664E+02
   7.210  0.2695E+01  0.1667E+02
   7.220  0.2702E+01  0.1670E+02
   7.230  0.2704E+01  0.1672E+02
   7.240  0.2704E+01  0.1675E+02
   7.250  0.2701E+01  0.1678E+02
   7.260  0.2696E+01  0.1680E+02
   7.270  0.2691E+01  0.1683E+02
   7.280  0.2685E+01  0.1686E+02
   7.290  0.2680E+01  0.1688E+02
   7.300  0.2676E+01  0.1691E+02
   7.310  0.2673E+01  0.1694E+02
   7.320  0.2671E+01  0.1696E+02
   7.330  0.2672E+01  0.1699E+02
   7.340  0.2674E+01  0.1702E+02
   7.350  0.2678E+01  0.1705E+02
   7.360  0.2683E+01  0.1707E+02
   7.370  0.2690E+01  0.1710E+02
   7.380  0.2698E+01  0.1713E+02
   7.390  0.2707E+01  0.1715E+02
   7.400  0.2716E+01  0.1718E+02
   7.410  0.2725E+01  0.1721E+02
   7.420  0.2734E+01  0.1723E+02
   7.430  0.2742E+01  0.1726E+02
   7.440  0.2749E+01  0.1729E+02
   7.450  0.2756E+01  0.1732E+02
   7.460  0.2761E+01  0.1734E+02
   7.470  0.2765E+01  0.1737E+02
   7.480  0.2768E+01  0.1740E+02
   7.490  0.2769E+01  0.1743E+02
   7.500  0.2770E+01  0.1746E+02
   7.510  0.2771E+01  0.1748E+02
   7.520  0.2770E+01  0.1751E+02
   7.530  0.2769E+01  0.1754E+02
   7.540  0.2768E+01  0.1757E+02
   7.550  0.2766E+01  0.1759E+02
   7.560  0.2764E+01  0.1762E+02
   7.570  0.2763E+01  0.1765E+02
   7.580  0.2761E+01  0.1768E+02
   7.590  0.2760E+01  0.1770E+02
   7.600  0.2759E+01  0.1773E+02
   7.610  0.2759E+01  0.1776E+02
   7.620  0.2759E+01  0.1779E+02
   7.630  0.2760E+01  0.1781E+02
   7.640  0.2763E+01  0.1784E+02
   7.650  0.2767E+01  0.1787E+02
   7.660  0.2773E+01  0.1790E+02
   7.670  0.2782E+01  0.1793E+02
   7.680  0.2793E+01  0.1795E+02
   7.690  0.2807E+01  0.1798E+02
   7.700  0.2825E+01  0.1801E+02
   7.710  0.2846E+01  0.1804E+02
   7.720  0.2872E+01  0.1807E+02
   7.730  0.2903E+01  0.1810E+02
   7.740  0.2938E+01  0.1813E+02
   7.750  0.2977E+01  0.1816E+02
   7.760  0.3021E+01  0.1819E+02
   7.770  0.3069E+01  0.1822E+02
   7.780  0.3121E+01  0.1825E+02
   7.790  0.3177E+01  0.1828E+02
   7.800  0.3235E+01  0.1831E+02
   7.810  0.3295E+01  0.1834E+02
   7.820  0.3357E+01  0.1838E+02
   7.830  0.3419E+01  0.1841E+02
   7.840  0.3480E+01  0.1845E+02
   7.850  0.3540E+01  0.1848E+02
   7.860  0.3597E+01  0.1852E+02
   7.870  0.3651E+01  0.1855E+02
   7.880  0.3700E+01  0.1859E+02
   7.890  0.3743E+01  0.1863E+02
   7.900  0.3780E+01  0.1867E+02
   7.910  0.3810E+01  0.1871E+02
   7.920  0.3832E+01  0.1874E+02
   7.930  0.3847E+01  0.1878E+02
   7.940  0.3852E+01  0.1882E+02
   7.950  0.3849E+01  0.1886E+02
   7.960  0.3838E+01  0.1890E+02
   7.970  0.3818E+01  0.1894E+02
   7.980  0.3790E+01  0.1897E+02
   7.990  0.3754E+01  0.1901E+02
   8.000  0.3711E+01  0.1905E+02
   8.010  0.3661E+01  0.1908E+02
   8.020  0.3606E+01  0.1912E+02
   8.030  0.3546E+01  0.1916E+02
   8.040  0.3482E+01  0.1919E+02
   8.050  0.3415E+01  0.1923E+02
   8.060  0.3345E+01  0.1926E+02
   8.070  0.3273E+01  0.1929E+02
   8.080  0.3201E+01  0.1932E+02
   8.090  0.3129E+01  0.1935E+02
   8.100  0.3057E+01  0.1939E+02
   8.110  0.2987E+01  0.1942E+02
   8.120  0.2918E+01  0.1944E+02
   8.130  0.2851E+01  0.1947E+02
   8.140  0.2786E+01  0.1950E+02
   8.150  0.2724E+01  0.1953E+02
   8.160  0.2665E+01  0.1955E+02
   8.170  0.2609E+01  0.1958E+02
   8.180  0.2557E+01  0.1961E+02
   8.190  0.2508E+01  0.1963E+02
   8.200  0.2463E+01  0.1966E+02
   8.210  0.2422E+01  0.1968E+02
   8.220  0.2385E+01  0.1970E+02
   8.230  0.2352E+01  0.1973E+02
   8.240  0.2323E+01  0.1975E+02
   8.250  0.2298E+01  0.1977E+02
   8.260  0.2276E+01  0.1980E+02
   8.270  0.2258E+01  0.1982E+02
   8.280  0.2243E+01  0.1984E+02
   8.290  0.2230E+01  0.1986E+02
   8.300  0.2220E+01  0.1989E+02
   8.310  0.2211E+01  0.1991E+02
   8.320  0.2203E+01  0.1993E+02
   8.330  0.2196E+01  0.1995E+02
   8.340  0.2188E+01  0.1997E+02
   8.350  0.2179E+01  0.2000E+02
   8.360  0.2169E+01  0.2002E+02
   8.370  0.2158E+01  0.2004E+02
   8.380  0.2144E+01  0.2006E+02
   8.390  0.2128E+01  0.2008E+02
   8.400  0.2109E+01  0.2010E+02
   8.410  0.2088E+01  0.2012E+02
   8.420  0.2065E+01  0.2014E+02
   8.430  0.2039E+01  0.2016E+02
   8.440  0.2012E+01  0.2018E+02
   8.450  0.1983E+01  0.2020E+02
   8.460  0.1953E+01  0.2022E+02
   8.470  0.1923E+01  0.2024E+02
   8.480  0.1892E+01  0.2026E+02
   8.490  0.1860E+01  0.2028E+02
   8.500  0.1829E+01  0.2030E+02
   8.510  0.1798E+01  0.2032E+02
   8.520  0.1768E+01  0.2033E+02
   8.530  0.1739E+01  0.2035E+02
   8.540  0.1711E+01  0.2037E+02
   8.550  0.1684E+01  0.2039E+02
   8.560  0.1659E+01  0.2040E+02
   8.570  0.1635E+01  0.2042E+02
   8.580  0.1614E+01  0.2044E+02
   8.590  0.1594E+01  0.2045E+02
   8.600  0.1577E+01  0.2047E+02
   8.610  0.1563E+01  0.2048E+02
   8.620  0.1552E+01  0.2050E+02
   8.630  0.1544E+01  0.2051E+02
   8.640  0.1539E+01  0.2053E+02
   8.650  0.1537E+01  0.2054E+02
   8.660  0.1539E+01  0.2056E+02
   8.670  0.1545E+01  0.2058E+02
   8.680  0.1554E+01  0.2059E+02
   8.690  0.1566E+01  0.2061E+02
   8.700  0.1581E+01  0.2062E+02
   8.710  0.1598E+01  0.2064E+02
   8.720  0.1617E+01  0.2065E+02
   8.730  0.1638E+01  0.2067E+02
   8.740  0.1659E+01  0.2069E+02
   8.750  0.1681E+01  0.2070E+02
   8.760  0.1702E+01  0.2072E+02
   8.770  0.1721E+01  0.2074E+02
   8.780  0.1739E+01  0.2076E+02
   8.790  0.1754E+01  0.2077E+02
   8.800  0.1765E+01  0.2079E+02
   8.810  0.1773E+01  0.2081E+02
   8.820  0.1777E+01  0.2083E+02
   8.830  0.1777E+01  0.2084E+02
   8.840  0.1772E+01  0.2086E+02
   8.850  0.1763E+01  0.2088E+02
   8.860  0.1750E+01  0.2090E+02
   8.870  0.1734E+01  0.2091E+02
   8.880  0.1715E+01  0.2093E+02
   8.890  0.1693E+01  0.2095E+02
   8.900  0.1671E+01  0.2097E+02
   8.910  0.1649E+01  0.2098E+02
   8.920  0.1627E+01  0.2100E+02
   8.930  0.1606E+01  0.2101E+02
   8.940  0.1589E+01  0.2103E+02
   8.950  0.1574E+01  0.2105E+02
   8.960  0.1564E+01  0.2106E+02
   8.970  0.1557E+01  0.2108E+02
   8.980  0.1556E+01  0.2109E+02
   8.990  0.1559E+01  0.2111E+02
   9.000  0.1567E+01  0.2112E+02
   9.010  0.1579E+01  0.2114E+02
   9.020  0.1595E+01  0.2116E+02
   9.030  0.1615E+01  0.2117E+02
   9.040  0.1636E+01  0.2119E+02
   9.050  0.1660E+01  0.2120E+02
   9.060  0.1683E+01  0.2122E+02
   9.070  0.1707E+01  0.2124E+02
   9.080  0.1730E+01  0.2126E+02
   9.090  0.1750E+01  0.2127E+02
   9.100  0.1768E+01  0.2129E+02
   9.110  0.1783E+01  0.2131E+02
   9.120  0.1795E+01  0.2133E+02
   9.130  0.1803E+01  0.2134E+02
   9.140  0.1808E+01  0.2136E+02
   9.150  0.1809E+01  0.2138E+02
   9.160  0.1808E+01  0.2140E+02
   9.170  0.1803E+01  0.2142E+02
   9.180  0.1796E+01  0.2144E+02
   9.190  0.1788E+01  0.2145E+02
   9.200  0.1779E+01  0.2147E+02
   9.210  0.1769E+01  0.2149E+02
   9.220  0.1760E+01  0.2151E+02
   9.230  0.1751E+01  0.2152E+02
   9.240  0.1744E+01  0.2154E+02
   9.250  0.1738E+01  0.2156E+02
   9.260  0.1734E+01  0.2158E+02
   9.270  0.1732E+01  0.2159E+02
   9.280  0.1733E+01  0.2161E+02
   9.290  0.1736E+01  0.2163E+02
   9.300  0.1741E+01  0.2165E+02
   9.310  0.1749E+01  0.2166E+02
   9.320  0.1759E+01  0.2168E+02
   9.330  0.1772E+01  0.2170E+02
   9.340  0.1786E+01  0.2172E+02
   9.350  0.1801E+01  0.2173E+02
   9.360  0.1818E+01  0.2175E+02
   9.370  0.1835E+01  0.2177E+02
   9.380  0.1853E+01  0.2179E+02
   9.390  0.1870E+01  0.2181E+02
   9.400  0.1887E+01  0.2183E+02
   9.410  0.1903E+01  0.2185E+02
   9.420  0.1918E+01  0.2186E+02
   9.430  0.1930E+01  0.2188E+02
   9.440  0.1941E+01  0.2190E+02
   9.450  0.1949E+01  0.2192E+02
   9.460  0.1954E+01  0.2194E+02
   9.470  0.1957E+01  0.2196E+02
   9.480  0.1957E+01  0.2198E+02
   9.490  0.1954E+01  0.2200E+02
   9.500  0.1949E+01  0.2202E+02
   9.510  0.1941E+01  0.2204E+02
   9.520  0.1932E+01  0.2206E+02
   9.530  0.1921E+01  0.2208E+02
   9.540  0.1908E+01  0.2210E+02
   9.550  0.1895E+01  0.2212E+02
   9.560  0.1882E+01  0.2214E+02
   9.570  0.1869E+01  0.2215E+02
   9.580  0.1858E+01  0.2217E+02
   9.590  0.1847E+01  0.2219E+02
   9.600  0.1838E+01  0.2221E+02
   9.610  0.1830E+01  0.2223E+02
   9.620  0.1825E+01  0.2225E+02
   9.630  0.1821E+01  0.2226E+02
   9.640  0.1819E+01  0.2228E+02
   9.650  0.1819E+01  0.2230E+02
   9.660  0.1820E+01  0.2232E+02
   9.670  0.1823E+01  0.2234E+02
   9.680  0.1826E+01  0.2236E+02
   9.690  0.1830E+01  0.2237E+02
   9.700  0.1834E+01  0.2239E+02
   9.710  0.1838E+01  0.2241E+02
   9.720  0.1842E+01  0.2243E+02
   9.730  0.1845E+01  0.2245E+02
   9.740  0.1848E+01  0.2247E+02
   9.750  0.1851E+01  0.2248E+02
   9.760  0.1853E+01  0.2250E+02
   9.770  0.1855E+01  0.2252E+02
   9.780  0.1857E+01  0.2254E+02
   9.790  0.1859E+01  0.2256E+02
   9.800  0.1860E+01  0.2258E+02
   9.810  0.1862E+01  0.2260E+02
   9.820  0.1863E+01  0.2261E+02
   9.830  0.1864E+01  0.2263E+02
   9.840  0.1865E+01  0.2265E+02
   9.850  0.1865E+01  0.2267E+02
   9.860  0.1863E+01  0.2269E+02
   9.870  0.1860E+01  0.2271E+02
   9.880  0.1856E+01  0.2273E+02
   9.890  0.1849E+01  0.2274E+02
   9.900  0.1839E+01  0.2276E+02
   9.910  0.1827E+01  0.2278E+02
   9.920  0.1811E+01  0.2280E+02
   9.930  0.1792E+01  0.2282E+02
   9.940  0.1770E+01  0.2283E+02
   9.950  0.1745E+01  0.2285E+02
   9.960  0.1717E+01  0.2287E+02
   9.970  0.1687E+01  0.2289E+02
   9.980  0.1654E+01  0.2290E+02
   9.990  0.1620E+01  0.2292E+02
  10.000  0.1585E+01  0.2293E+02
