#  E (eV)   dos(E)     Int dos(E) EFermi =   -0.595 eV
 -10.000  0.7668E+00  0.7668E-02
  -9.990  0.7686E+00  0.1535E-01
  -9.980  0.7698E+00  0.2305E-01
  -9.970  0.7704E+00  0.3076E-01
  -9.960  0.7704E+00  0.3846E-01
  -9.950  0.7697E+00  0.4616E-01
  -9.940  0.7685E+00  0.5384E-01
  -9.930  0.7666E+00  0.6151E-01
  -9.920  0.7643E+00  0.6915E-01
  -9.910  0.7616E+00  0.7677E-01
  -9.900  0.7588E+00  0.8435E-01
  -9.890  0.7560E+00  0.9191E-01
  -9.880  0.7534E+00  0.9945E-01
  -9.870  0.7511E+00  0.1070E+00
  -9.860  0.7494E+00  0.1145E+00
  -9.850  0.7484E+00  0.1219E+00
  -9.840  0.7482E+00  0.1294E+00
  -9.830  0.7488E+00  0.1369E+00
  -9.820  0.7503E+00  0.1444E+00
  -9.810  0.7526E+00  0.1519E+00
  -9.800  0.7556E+00  0.1595E+00
  -9.790  0.7592E+00  0.1671E+00
  -9.780  0.7632E+00  0.1747E+00
  -9.770  0.7674E+00  0.1824E+00
  -9.760  0.7716E+00  0.1901E+00
  -9.750  0.7756E+00  0.1979E+00
  -9.740  0.7793E+00  0.2057E+00
  -9.730  0.7825E+00  0.2135E+00
  -9.720  0.7850E+00  0.2213E+00
  -9.710  0.7868E+00  0.2292E+00
  -9.700  0.7879E+00  0.2371E+00
  -9.690  0.7883E+00  0.2450E+00
  -9.680  0.7880E+00  0.2528E+00
  -9.670  0.7871E+00  0.2607E+00
  -9.660  0.7859E+00  0.2686E+00
  -9.650  0.7843E+00  0.2764E+00
  -9.640  0.7825E+00  0.2842E+00
  -9.630  0.7807E+00  0.2920E+00
  -9.620  0.7790E+00  0.2998E+00
  -9.610  0.7774E+00  0.3076E+00
  -9.600  0.7761E+00  0.3154E+00
  -9.590  0.7751E+00  0.3231E+00
  -9.580  0.7743E+00  0.3309E+00
  -9.570  0.7738E+00  0.3386E+00
  -9.560  0.7736E+00  0.3463E+00
  -9.550  0.7736E+00  0.3541E+00
  -9.540  0.7737E+00  0.3618E+00
  -9.530  0.7741E+00  0.3696E+00
  -9.520  0.7746E+00  0.3773E+00
  -9.510  0.7752E+00  0.3850E+00
  -9.500  0.7760E+00  0.3928E+00
  -9.490  0.7769E+00  0.4006E+00
  -9.480  0.7781E+00  0.4084E+00
  -9.470  0.7796E+00  0.4162E+00
  -9.460  0.7813E+00  0.4240E+00
  -9.450  0.7835E+00  0.4318E+00
  -9.440  0.7860E+00  0.4397E+00
  -9.430  0.7888E+00  0.4476E+00
  -9.420  0.7920E+00  0.4555E+00
  -9.410  0.7955E+00  0.4634E+00
  -9.400  0.7991E+00  0.4714E+00
  -9.390  0.8027E+00  0.4794E+00
  -9.380  0.8062E+00  0.4875E+00
  -9.370  0.8095E+00  0.4956E+00
  -9.360  0.8122E+00  0.5037E+00
  -9.350  0.8143E+00  0.5119E+00
  -9.340  0.8157E+00  0.5200E+00
  -9.330  0.8162E+00  0.5282E+00
  -9.320  0.8157E+00  0.5363E+00
  -9.310  0.8143E+00  0.5445E+00
  -9.300  0.8120E+00  0.5526E+00
  -9.290  0.8089E+00  0.5607E+00
  -9.280  0.8052E+00  0.5687E+00
  -9.270  0.8012E+00  0.5768E+00
  -9.260  0.7970E+00  0.5847E+00
  -9.250  0.7929E+00  0.5927E+00
  -9.240  0.7893E+00  0.6005E+00
  -9.230  0.7863E+00  0.6084E+00
  -9.220  0.7843E+00  0.6163E+00
  -9.210  0.7833E+00  0.6241E+00
  -9.200  0.7835E+00  0.6319E+00
  -9.190  0.7850E+00  0.6398E+00
  -9.180  0.7877E+00  0.6476E+00
  -9.170  0.7916E+00  0.6556E+00
  -9.160  0.7965E+00  0.6635E+00
  -9.150  0.8021E+00  0.6716E+00
  -9.140  0.8082E+00  0.6796E+00
  -9.130  0.8146E+00  0.6878E+00
  -9.120  0.8210E+00  0.6960E+00
  -9.110  0.8270E+00  0.7043E+00
  -9.100  0.8324E+00  0.7126E+00
  -9.090  0.8370E+00  0.7210E+00
  -9.080  0.8406E+00  0.7294E+00
  -9.070  0.8432E+00  0.7378E+00
  -9.060  0.8446E+00  0.7462E+00
  -9.050  0.8449E+00  0.7547E+00
  -9.040  0.8441E+00  0.7631E+00
  -9.030  0.8424E+00  0.7716E+00
  -9.020  0.8399E+00  0.7799E+00
  -9.010  0.8368E+00  0.7883E+00
  -9.000  0.8334E+00  0.7967E+00
  -8.990  0.8299E+00  0.8050E+00
  -8.980  0.8265E+00  0.8132E+00
  -8.970  0.8234E+00  0.8214E+00
  -8.960  0.8208E+00  0.8297E+00
  -8.950  0.8189E+00  0.8378E+00
  -8.940  0.8178E+00  0.8460E+00
  -8.930  0.8177E+00  0.8542E+00
  -8.920  0.8186E+00  0.8624E+00
  -8.910  0.8206E+00  0.8706E+00
  -8.900  0.8238E+00  0.8788E+00
  -8.890  0.8280E+00  0.8871E+00
  -8.880  0.8334E+00  0.8954E+00
  -8.870  0.8399E+00  0.9038E+00
  -8.860  0.8474E+00  0.9123E+00
  -8.850  0.8558E+00  0.9209E+00
  -8.840  0.8652E+00  0.9295E+00
  -8.830  0.8754E+00  0.9383E+00
  -8.820  0.8863E+00  0.9471E+00
  -8.810  0.8978E+00  0.9561E+00
  -8.800  0.9098E+00  0.9652E+00
  -8.790  0.9220E+00  0.9744E+00
  -8.780  0.9344E+00  0.9838E+00
  -8.770  0.9468E+00  0.9933E+00
  -8.760  0.9590E+00  0.1003E+01
  -8.750  0.9709E+00  0.1013E+01
  -8.740  0.9821E+00  0.1022E+01
  -8.730  0.9928E+00  0.1032E+01
  -8.720  0.1003E+01  0.1042E+01
  -8.710  0.1012E+01  0.1052E+01
  -8.700  0.1020E+01  0.1063E+01
  -8.690  0.1027E+01  0.1073E+01
  -8.680  0.1033E+01  0.1083E+01
  -8.670  0.1039E+01  0.1094E+01
  -8.660  0.1044E+01  0.1104E+01
  -8.650  0.1049E+01  0.1115E+01
  -8.640  0.1053E+01  0.1125E+01
  -8.630  0.1057E+01  0.1136E+01
  -8.620  0.1062E+01  0.1146E+01
  -8.610  0.1067E+01  0.1157E+01
  -8.600  0.1073E+01  0.1168E+01
  -8.590  0.1079E+01  0.1178E+01
  -8.580  0.1086E+01  0.1189E+01
  -8.570  0.1094E+01  0.1200E+01
  -8.560  0.1102E+01  0.1211E+01
  -8.550  0.1110E+01  0.1222E+01
  -8.540  0.1118E+01  0.1234E+01
  -8.530  0.1127E+01  0.1245E+01
  -8.520  0.1135E+01  0.1256E+01
  -8.510  0.1142E+01  0.1268E+01
  -8.500  0.1148E+01  0.1279E+01
  -8.490  0.1154E+01  0.1291E+01
  -8.480  0.1158E+01  0.1302E+01
  -8.470  0.1161E+01  0.1314E+01
  -8.460  0.1162E+01  0.1325E+01
  -8.450  0.1163E+01  0.1337E+01
  -8.440  0.1162E+01  0.1349E+01
  -8.430  0.1160E+01  0.1360E+01
  -8.420  0.1157E+01  0.1372E+01
  -8.410  0.1154E+01  0.1383E+01
  -8.400  0.1151E+01  0.1395E+01
  -8.390  0.1148E+01  0.1406E+01
  -8.380  0.1145E+01  0.1418E+01
  -8.370  0.1143E+01  0.1429E+01
  -8.360  0.1142E+01  0.1441E+01
  -8.350  0.1142E+01  0.1452E+01
  -8.340  0.1143E+01  0.1464E+01
  -8.330  0.1144E+01  0.1475E+01
  -8.320  0.1147E+01  0.1486E+01
  -8.310  0.1151E+01  0.1498E+01
  -8.300  0.1156E+01  0.1510E+01
  -8.290  0.1161E+01  0.1521E+01
  -8.280  0.1166E+01  0.1533E+01
  -8.270  0.1171E+01  0.1544E+01
  -8.260  0.1176E+01  0.1556E+01
  -8.250  0.1181E+01  0.1568E+01
  -8.240  0.1185E+01  0.1580E+01
  -8.230  0.1188E+01  0.1592E+01
  -8.220  0.1190E+01  0.1604E+01
  -8.210  0.1192E+01  0.1616E+01
  -8.200  0.1193E+01  0.1628E+01
  -8.190  0.1193E+01  0.1639E+01
  -8.180  0.1193E+01  0.1651E+01
  -8.170  0.1193E+01  0.1663E+01
  -8.160  0.1193E+01  0.1675E+01
  -8.150  0.1192E+01  0.1687E+01
  -8.140  0.1192E+01  0.1699E+01
  -8.130  0.1193E+01  0.1711E+01
  -8.120  0.1194E+01  0.1723E+01
  -8.110  0.1196E+01  0.1735E+01
  -8.100  0.1199E+01  0.1747E+01
  -8.090  0.1202E+01  0.1759E+01
  -8.080  0.1205E+01  0.1771E+01
  -8.070  0.1209E+01  0.1783E+01
  -8.060  0.1213E+01  0.1795E+01
  -8.050  0.1218E+01  0.1807E+01
  -8.040  0.1222E+01  0.1820E+01
  -8.030  0.1225E+01  0.1832E+01
  -8.020  0.1229E+01  0.1844E+01
  -8.010  0.1231E+01  0.1856E+01
  -8.000  0.1233E+01  0.1869E+01
  -7.990  0.1235E+01  0.1881E+01
  -7.980  0.1236E+01  0.1894E+01
  -7.970  0.1236E+01  0.1906E+01
  -7.960  0.1236E+01  0.1918E+01
  -7.950  0.1236E+01  0.1931E+01
  -7.940  0.1236E+01  0.1943E+01
  -7.930  0.1236E+01  0.1955E+01
  -7.920  0.1236E+01  0.1968E+01
  -7.910  0.1237E+01  0.1980E+01
  -7.900  0.1239E+01  0.1992E+01
  -7.890  0.1242E+01  0.2005E+01
  -7.880  0.1245E+01  0.2017E+01
  -7.870  0.1250E+01  0.2030E+01
  -7.860  0.1255E+01  0.2042E+01
  -7.850  0.1262E+01  0.2055E+01
  -7.840  0.1269E+01  0.2068E+01
  -7.830  0.1277E+01  0.2080E+01
  -7.820  0.1285E+01  0.2093E+01
  -7.810  0.1294E+01  0.2106E+01
  -7.800  0.1303E+01  0.2119E+01
  -7.790  0.1312E+01  0.2132E+01
  -7.780  0.1321E+01  0.2146E+01
  -7.770  0.1330E+01  0.2159E+01
  -7.760  0.1339E+01  0.2172E+01
  -7.750  0.1348E+01  0.2186E+01
  -7.740  0.1357E+01  0.2199E+01
  -7.730  0.1365E+01  0.2213E+01
  -7.720  0.1374E+01  0.2227E+01
  -7.710  0.1383E+01  0.2241E+01
  -7.700  0.1392E+01  0.2254E+01
  -7.690  0.1401E+01  0.2268E+01
  -7.680  0.1411E+01  0.2283E+01
  -7.670  0.1421E+01  0.2297E+01
  -7.660  0.1432E+01  0.2311E+01
  -7.650  0.1444E+01  0.2326E+01
  -7.640  0.1457E+01  0.2340E+01
  -7.630  0.1471E+01  0.2355E+01
  -7.620  0.1485E+01  0.2370E+01
  -7.610  0.1500E+01  0.2385E+01
  -7.600  0.1516E+01  0.2400E+01
  -7.590  0.1532E+01  0.2415E+01
  -7.580  0.1548E+01  0.2431E+01
  -7.570  0.1564E+01  0.2446E+01
  -7.560  0.1579E+01  0.2462E+01
  -7.550  0.1594E+01  0.2478E+01
  -7.540  0.1609E+01  0.2494E+01
  -7.530  0.1623E+01  0.2510E+01
  -7.520  0.1635E+01  0.2527E+01
  -7.510  0.1647E+01  0.2543E+01
  -7.500  0.1658E+01  0.2560E+01
  -7.490  0.1668E+01  0.2576E+01
  -7.480  0.1676E+01  0.2593E+01
  -7.470  0.1684E+01  0.2610E+01
  -7.460  0.1691E+01  0.2627E+01
  -7.450  0.1697E+01  0.2644E+01
  -7.440  0.1702E+01  0.2661E+01
  -7.430  0.1707E+01  0.2678E+01
  -7.420  0.1712E+01  0.2695E+01
  -7.410  0.1716E+01  0.2712E+01
  -7.400  0.1720E+01  0.2729E+01
  -7.390  0.1724E+01  0.2747E+01
  -7.380  0.1729E+01  0.2764E+01
  -7.370  0.1734E+01  0.2781E+01
  -7.360  0.1739E+01  0.2799E+01
  -7.350  0.1745E+01  0.2816E+01
  -7.340  0.1752E+01  0.2834E+01
  -7.330  0.1761E+01  0.2851E+01
  -7.320  0.1770E+01  0.2869E+01
  -7.310  0.1780E+01  0.2887E+01
  -7.300  0.1792E+01  0.2905E+01
  -7.290  0.1805E+01  0.2923E+01
  -7.280  0.1819E+01  0.2941E+01
  -7.270  0.1834E+01  0.2959E+01
  -7.260  0.1851E+01  0.2978E+01
  -7.250  0.1868E+01  0.2997E+01
  -7.240  0.1886E+01  0.3015E+01
  -7.230  0.1905E+01  0.3034E+01
  -7.220  0.1924E+01  0.3054E+01
  -7.210  0.1944E+01  0.3073E+01
  -7.200  0.1963E+01  0.3093E+01
  -7.190  0.1983E+01  0.3113E+01
  -7.180  0.2002E+01  0.3133E+01
  -7.170  0.2021E+01  0.3153E+01
  -7.160  0.2040E+01  0.3173E+01
  -7.150  0.2059E+01  0.3194E+01
  -7.140  0.2077E+01  0.3215E+01
  -7.130  0.2094E+01  0.3235E+01
  -7.120  0.2112E+01  0.3257E+01
  -7.110  0.2128E+01  0.3278E+01
  -7.100  0.2145E+01  0.3299E+01
  -7.090  0.2160E+01  0.3321E+01
  -7.080  0.2175E+01  0.3343E+01
  -7.070  0.2189E+01  0.3365E+01
  -7.060  0.2201E+01  0.3387E+01
  -7.050  0.2212E+01  0.3409E+01
  -7.040  0.2222E+01  0.3431E+01
  -7.030  0.2229E+01  0.3453E+01
  -7.020  0.2235E+01  0.3476E+01
  -7.010  0.2237E+01  0.3498E+01
  -7.000  0.2238E+01  0.3520E+01
  -6.990  0.2235E+01  0.3543E+01
  -6.980  0.2230E+01  0.3565E+01
  -6.970  0.2222E+01  0.3587E+01
  -6.960  0.2211E+01  0.3609E+01
  -6.950  0.2198E+01  0.3631E+01
  -6.940  0.2183E+01  0.3653E+01
  -6.930  0.2165E+01  0.3675E+01
  -6.920  0.2146E+01  0.3696E+01
  -6.910  0.2125E+01  0.3717E+01
  -6.900  0.2104E+01  0.3739E+01
  -6.890  0.2081E+01  0.3759E+01
  -6.880  0.2059E+01  0.3780E+01
  -6.870  0.2036E+01  0.3800E+01
  -6.860  0.2014E+01  0.3820E+01
  -6.850  0.1992E+01  0.3840E+01
  -6.840  0.1971E+01  0.3860E+01
  -6.830  0.1950E+01  0.3880E+01
  -6.820  0.1930E+01  0.3899E+01
  -6.810  0.1911E+01  0.3918E+01
  -6.800  0.1892E+01  0.3937E+01
  -6.790  0.1874E+01  0.3956E+01
  -6.780  0.1857E+01  0.3974E+01
  -6.770  0.1841E+01  0.3993E+01
  -6.760  0.1825E+01  0.4011E+01
  -6.750  0.1810E+01  0.4029E+01
  -6.740  0.1796E+01  0.4047E+01
  -6.730  0.1782E+01  0.4065E+01
  -6.720  0.1769E+01  0.4082E+01
  -6.710  0.1756E+01  0.4100E+01
  -6.700  0.1744E+01  0.4117E+01
  -6.690  0.1733E+01  0.4135E+01
  -6.680  0.1722E+01  0.4152E+01
  -6.670  0.1712E+01  0.4169E+01
  -6.660  0.1703E+01  0.4186E+01
  -6.650  0.1695E+01  0.4203E+01
  -6.640  0.1687E+01  0.4220E+01
  -6.630  0.1680E+01  0.4237E+01
  -6.620  0.1674E+01  0.4253E+01
  -6.610  0.1668E+01  0.4270E+01
  -6.600  0.1662E+01  0.4287E+01
  -6.590  0.1656E+01  0.4303E+01
  -6.580  0.1651E+01  0.4320E+01
  -6.570  0.1645E+01  0.4336E+01
  -6.560  0.1639E+01  0.4353E+01
  -6.550  0.1633E+01  0.4369E+01
  -6.540  0.1627E+01  0.4385E+01
  -6.530  0.1621E+01  0.4401E+01
  -6.520  0.1614E+01  0.4418E+01
  -6.510  0.1607E+01  0.4434E+01
  -6.500  0.1600E+01  0.4450E+01
  -6.490  0.1592E+01  0.4466E+01
  -6.480  0.1585E+01  0.4481E+01
  -6.470  0.1577E+01  0.4497E+01
  -6.460  0.1570E+01  0.4513E+01
  -6.450  0.1562E+01  0.4529E+01
  -6.440  0.1555E+01  0.4544E+01
  -6.430  0.1549E+01  0.4560E+01
  -6.420  0.1542E+01  0.4575E+01
  -6.410  0.1536E+01  0.4590E+01
  -6.400  0.1530E+01  0.4606E+01
  -6.390  0.1525E+01  0.4621E+01
  -6.380  0.1520E+01  0.4636E+01
  -6.370  0.1515E+01  0.4651E+01
  -6.360  0.1510E+01  0.4666E+01
  -6.350  0.1506E+01  0.4681E+01
  -6.340  0.1502E+01  0.4696E+01
  -6.330  0.1498E+01  0.4711E+01
  -6.320  0.1495E+01  0.4726E+01
  -6.310  0.1492E+01  0.4741E+01
  -6.300  0.1489E+01  0.4756E+01
  -6.290  0.1486E+01  0.4771E+01
  -6.280  0.1484E+01  0.4786E+01
  -6.270  0.1482E+01  0.4801E+01
  -6.260  0.1480E+01  0.4816E+01
  -6.250  0.1478E+01  0.4830E+01
  -6.240  0.1476E+01  0.4845E+01
  -6.230  0.1474E+01  0.4860E+01
  -6.220  0.1471E+01  0.4875E+01
  -6.210  0.1469E+01  0.4889E+01
  -6.200  0.1465E+01  0.4904E+01
  -6.190  0.1461E+01  0.4918E+01
  -6.180  0.1457E+01  0.4933E+01
  -6.170  0.1451E+01  0.4948E+01
  -6.160  0.1446E+01  0.4962E+01
  -6.150  0.1439E+01  0.4976E+01
  -6.140  0.1433E+01  0.4991E+01
  -6.130  0.1426E+01  0.5005E+01
  -6.120  0.1418E+01  0.5019E+01
  -6.110  0.1412E+01  0.5033E+01
  -6.100  0.1405E+01  0.5047E+01
  -6.090  0.1399E+01  0.5061E+01
  -6.080  0.1393E+01  0.5075E+01
  -6.070  0.1389E+01  0.5089E+01
  -6.060  0.1385E+01  0.5103E+01
  -6.050  0.1383E+01  0.5117E+01
  -6.040  0.1381E+01  0.5131E+01
  -6.030  0.1381E+01  0.5144E+01
  -6.020  0.1381E+01  0.5158E+01
  -6.010  0.1382E+01  0.5172E+01
  -6.000  0.1383E+01  0.5186E+01
  -5.990  0.1385E+01  0.5200E+01
  -5.980  0.1386E+01  0.5214E+01
  -5.970  0.1388E+01  0.5228E+01
  -5.960  0.1388E+01  0.5241E+01
  -5.950  0.1388E+01  0.5255E+01
  -5.940  0.1387E+01  0.5269E+01
  -5.930  0.1385E+01  0.5283E+01
  -5.920  0.1382E+01  0.5297E+01
  -5.910  0.1378E+01  0.5311E+01
  -5.900  0.1373E+01  0.5324E+01
  -5.890  0.1367E+01  0.5338E+01
  -5.880  0.1361E+01  0.5352E+01
  -5.870  0.1354E+01  0.5365E+01
  -5.860  0.1347E+01  0.5379E+01
  -5.850  0.1339E+01  0.5392E+01
  -5.840  0.1333E+01  0.5405E+01
  -5.830  0.1326E+01  0.5419E+01
  -5.820  0.1321E+01  0.5432E+01
  -5.810  0.1316E+01  0.5445E+01
  -5.800  0.1312E+01  0.5458E+01
  -5.790  0.1310E+01  0.5471E+01
  -5.780  0.1308E+01  0.5484E+01
  -5.770  0.1307E+01  0.5497E+01
  -5.760  0.1307E+01  0.5510E+01
  -5.750  0.1307E+01  0.5523E+01
  -5.740  0.1308E+01  0.5537E+01
  -5.730  0.1310E+01  0.5550E+01
  -5.720  0.1311E+01  0.5563E+01
  -5.710  0.1313E+01  0.5576E+01
  -5.700  0.1314E+01  0.5589E+01
  -5.690  0.1316E+01  0.5602E+01
  -5.680  0.1316E+01  0.5615E+01
  -5.670  0.1316E+01  0.5629E+01
  -5.660  0.1316E+01  0.5642E+01
  -5.650  0.1314E+01  0.5655E+01
  -5.640  0.1312E+01  0.5668E+01
  -5.630  0.1309E+01  0.5681E+01
  -5.620  0.1305E+01  0.5694E+01
  -5.610  0.1300E+01  0.5707E+01
  -5.600  0.1295E+01  0.5720E+01
  -5.590  0.1290E+01  0.5733E+01
  -5.580  0.1284E+01  0.5746E+01
  -5.570  0.1277E+01  0.5759E+01
  -5.560  0.1271E+01  0.5771E+01
  -5.550  0.1266E+01  0.5784E+01
  -5.540  0.1260E+01  0.5797E+01
  -5.530  0.1256E+01  0.5809E+01
  -5.520  0.1252E+01  0.5822E+01
  -5.510  0.1250E+01  0.5834E+01
  -5.500  0.1248E+01  0.5847E+01
  -5.490  0.1247E+01  0.5859E+01
  -5.480  0.1248E+01  0.5872E+01
  -5.470  0.1249E+01  0.5884E+01
  -5.460  0.1251E+01  0.5897E+01
  -5.450  0.1253E+01  0.5909E+01
  -5.440  0.1255E+01  0.5922E+01
  -5.430  0.1258E+01  0.5934E+01
  -5.420  0.1260E+01  0.5947E+01
  -5.410  0.1261E+01  0.5959E+01
  -5.400  0.1262E+01  0.5972E+01
  -5.390  0.1262E+01  0.5985E+01
  -5.380  0.1260E+01  0.5997E+01
  -5.370  0.1258E+01  0.6010E+01
  -5.360  0.1255E+01  0.6022E+01
  -5.350  0.1252E+01  0.6035E+01
  -5.340  0.1247E+01  0.6047E+01
  -5.330  0.1242E+01  0.6060E+01
  -5.320  0.1237E+01  0.6072E+01
  -5.310  0.1232E+01  0.6084E+01
  -5.300  0.1227E+01  0.6097E+01
  -5.290  0.1223E+01  0.6109E+01
  -5.280  0.1219E+01  0.6121E+01
  -5.270  0.1215E+01  0.6133E+01
  -5.260  0.1212E+01  0.6145E+01
  -5.250  0.1210E+01  0.6158E+01
  -5.240  0.1209E+01  0.6170E+01
  -5.230  0.1208E+01  0.6182E+01
  -5.220  0.1207E+01  0.6194E+01
  -5.210  0.1207E+01  0.6206E+01
  -5.200  0.1207E+01  0.6218E+01
  -5.190  0.1208E+01  0.6230E+01
  -5.180  0.1208E+01  0.6242E+01
  -5.170  0.1209E+01  0.6254E+01
  -5.160  0.1210E+01  0.6266E+01
  -5.150  0.1210E+01  0.6278E+01
  -5.140  0.1211E+01  0.6290E+01
  -5.130  0.1211E+01  0.6303E+01
  -5.120  0.1211E+01  0.6315E+01
  -5.110  0.1211E+01  0.6327E+01
  -5.100  0.1211E+01  0.6339E+01
  -5.090  0.1210E+01  0.6351E+01
  -5.080  0.1208E+01  0.6363E+01
  -5.070  0.1206E+01  0.6375E+01
  -5.060  0.1204E+01  0.6387E+01
  -5.050  0.1201E+01  0.6399E+01
  -5.040  0.1197E+01  0.6411E+01
  -5.030  0.1194E+01  0.6423E+01
  -5.020  0.1189E+01  0.6435E+01
  -5.010  0.1185E+01  0.6447E+01
  -5.000  0.1181E+01  0.6459E+01
  -4.990  0.1177E+01  0.6470E+01
  -4.980  0.1173E+01  0.6482E+01
  -4.970  0.1170E+01  0.6494E+01
  -4.960  0.1168E+01  0.6506E+01
  -4.950  0.1166E+01  0.6517E+01
  -4.940  0.1166E+01  0.6529E+01
  -4.930  0.1166E+01  0.6541E+01
  -4.920  0.1167E+01  0.6552E+01
  -4.910  0.1169E+01  0.6564E+01
  -4.900  0.1171E+01  0.6576E+01
  -4.890  0.1173E+01  0.6587E+01
  -4.880  0.1176E+01  0.6599E+01
  -4.870  0.1178E+01  0.6611E+01
  -4.860  0.1180E+01  0.6623E+01
  -4.850  0.1181E+01  0.6634E+01
  -4.840  0.1181E+01  0.6646E+01
  -4.830  0.1181E+01  0.6658E+01
  -4.820  0.1180E+01  0.6670E+01
  -4.810  0.1178E+01  0.6682E+01
  -4.800  0.1175E+01  0.6693E+01
  -4.790  0.1171E+01  0.6705E+01
  -4.780  0.1167E+01  0.6717E+01
  -4.770  0.1163E+01  0.6728E+01
  -4.760  0.1158E+01  0.6740E+01
  -4.750  0.1154E+01  0.6752E+01
  -4.740  0.1150E+01  0.6763E+01
  -4.730  0.1147E+01  0.6774E+01
  -4.720  0.1144E+01  0.6786E+01
  -4.710  0.1142E+01  0.6797E+01
  -4.700  0.1140E+01  0.6809E+01
  -4.690  0.1139E+01  0.6820E+01
  -4.680  0.1139E+01  0.6832E+01
  -4.670  0.1139E+01  0.6843E+01
  -4.660  0.1140E+01  0.6854E+01
  -4.650  0.1141E+01  0.6866E+01
  -4.640  0.1143E+01  0.6877E+01
  -4.630  0.1144E+01  0.6889E+01
  -4.620  0.1145E+01  0.6900E+01
  -4.610  0.1147E+01  0.6912E+01
  -4.600  0.1148E+01  0.6923E+01
  -4.590  0.1149E+01  0.6934E+01
  -4.580  0.1149E+01  0.6946E+01
  -4.570  0.1150E+01  0.6957E+01
  -4.560  0.1150E+01  0.6969E+01
  -4.550  0.1149E+01  0.6980E+01
  -4.540  0.1148E+01  0.6992E+01
  -4.530  0.1147E+01  0.7003E+01
  -4.520  0.1146E+01  0.7015E+01
  -4.510  0.1144E+01  0.7026E+01
  -4.500  0.1141E+01  0.7038E+01
  -4.490  0.1139E+01  0.7049E+01
  -4.480  0.1136E+01  0.7060E+01
  -4.470  0.1133E+01  0.7072E+01
  -4.460  0.1130E+01  0.7083E+01
  -4.450  0.1127E+01  0.7094E+01
  -4.440  0.1124E+01  0.7106E+01
  -4.430  0.1121E+01  0.7117E+01
  -4.420  0.1119E+01  0.7128E+01
  -4.410  0.1117E+01  0.7139E+01
  -4.400  0.1115E+01  0.7150E+01
  -4.390  0.1115E+01  0.7161E+01
  -4.380  0.1114E+01  0.7173E+01
  -4.370  0.1115E+01  0.7184E+01
  -4.360  0.1116E+01  0.7195E+01
  -4.350  0.1117E+01  0.7206E+01
  -4.340  0.1119E+01  0.7217E+01
  -4.330  0.1121E+01  0.7229E+01
  -4.320  0.1123E+01  0.7240E+01
  -4.310  0.1126E+01  0.7251E+01
  -4.300  0.1128E+01  0.7262E+01
  -4.290  0.1130E+01  0.7274E+01
  -4.280  0.1132E+01  0.7285E+01
  -4.270  0.1133E+01  0.7296E+01
  -4.260  0.1134E+01  0.7308E+01
  -4.250  0.1134E+01  0.7319E+01
  -4.240  0.1134E+01  0.7330E+01
  -4.230  0.1132E+01  0.7342E+01
  -4.220  0.1131E+01  0.7353E+01
  -4.210  0.1128E+01  0.7364E+01
  -4.200  0.1125E+01  0.7375E+01
  -4.190  0.1122E+01  0.7387E+01
  -4.180  0.1118E+01  0.7398E+01
  -4.170  0.1114E+01  0.7409E+01
  -4.160  0.1110E+01  0.7420E+01
  -4.150  0.1107E+01  0.7431E+01
  -4.140  0.1103E+01  0.7442E+01
  -4.130  0.1100E+01  0.7453E+01
  -4.120  0.1098E+01  0.7464E+01
  -4.110  0.1096E+01  0.7475E+01
  -4.100  0.1095E+01  0.7486E+01
  -4.090  0.1095E+01  0.7497E+01
  -4.080  0.1096E+01  0.7508E+01
  -4.070  0.1098E+01  0.7519E+01
  -4.060  0.1101E+01  0.7530E+01
  -4.050  0.1104E+01  0.7541E+01
  -4.040  0.1108E+01  0.7552E+01
  -4.030  0.1113E+01  0.7563E+01
  -4.020  0.1117E+01  0.7574E+01
  -4.010  0.1121E+01  0.7586E+01
  -4.000  0.1125E+01  0.7597E+01
  -3.990  0.1129E+01  0.7608E+01
  -3.980  0.1131E+01  0.7619E+01
  -3.970  0.1133E+01  0.7631E+01
  -3.960  0.1133E+01  0.7642E+01
  -3.950  0.1133E+01  0.7653E+01
  -3.940  0.1131E+01  0.7665E+01
  -3.930  0.1128E+01  0.7676E+01
  -3.920  0.1124E+01  0.7687E+01
  -3.910  0.1119E+01  0.7698E+01
  -3.900  0.1114E+01  0.7710E+01
  -3.890  0.1109E+01  0.7721E+01
  -3.880  0.1103E+01  0.7732E+01
  -3.870  0.1097E+01  0.7743E+01
  -3.860  0.1092E+01  0.7754E+01
  -3.850  0.1087E+01  0.7764E+01
  -3.840  0.1083E+01  0.7775E+01
  -3.830  0.1079E+01  0.7786E+01
  -3.820  0.1077E+01  0.7797E+01
  -3.810  0.1075E+01  0.7808E+01
  -3.800  0.1073E+01  0.7818E+01
  -3.790  0.1072E+01  0.7829E+01
  -3.780  0.1072E+01  0.7840E+01
  -3.770  0.1071E+01  0.7850E+01
  -3.760  0.1070E+01  0.7861E+01
  -3.750  0.1069E+01  0.7872E+01
  -3.740  0.1066E+01  0.7883E+01
  -3.730  0.1063E+01  0.7893E+01
  -3.720  0.1058E+01  0.7904E+01
  -3.710  0.1051E+01  0.7914E+01
  -3.700  0.1042E+01  0.7925E+01
  -3.690  0.1031E+01  0.7935E+01
  -3.680  0.1018E+01  0.7945E+01
  -3.670  0.1003E+01  0.7955E+01
  -3.660  0.9861E+00  0.7965E+01
  -3.650  0.9677E+00  0.7975E+01
  -3.640  0.9479E+00  0.7984E+01
  -3.630  0.9272E+00  0.7993E+01
  -3.620  0.9060E+00  0.8003E+01
  -3.610  0.8847E+00  0.8011E+01
  -3.600  0.8637E+00  0.8020E+01
  -3.590  0.8436E+00  0.8028E+01
  -3.580  0.8248E+00  0.8037E+01
  -3.570  0.8076E+00  0.8045E+01
  -3.560  0.7924E+00  0.8053E+01
  -3.550  0.7795E+00  0.8061E+01
  -3.540  0.7689E+00  0.8068E+01
  -3.530  0.7608E+00  0.8076E+01
  -3.520  0.7553E+00  0.8083E+01
  -3.510  0.7522E+00  0.8091E+01
  -3.500  0.7513E+00  0.8098E+01
  -3.490  0.7525E+00  0.8106E+01
  -3.480  0.7554E+00  0.8113E+01
  -3.470  0.7598E+00  0.8121E+01
  -3.460  0.7653E+00  0.8129E+01
  -3.450  0.7715E+00  0.8136E+01
  -3.440  0.7781E+00  0.8144E+01
  -3.430  0.7848E+00  0.8152E+01
  -3.420  0.7912E+00  0.8160E+01
  -3.410  0.7971E+00  0.8168E+01
  -3.400  0.8024E+00  0.8176E+01
  -3.390  0.8069E+00  0.8184E+01
  -3.380  0.8105E+00  0.8192E+01
  -3.370  0.8133E+00  0.8200E+01
  -3.360  0.8154E+00  0.8208E+01
  -3.350  0.8168E+00  0.8217E+01
  -3.340  0.8178E+00  0.8225E+01
  -3.330  0.8185E+00  0.8233E+01
  -3.320  0.8193E+00  0.8241E+01
  -3.310  0.8203E+00  0.8249E+01
  -3.300  0.8218E+00  0.8258E+01
  -3.290  0.8239E+00  0.8266E+01
  -3.280  0.8269E+00  0.8274E+01
  -3.270  0.8308E+00  0.8282E+01
  -3.260  0.8357E+00  0.8291E+01
  -3.250  0.8416E+00  0.8299E+01
  -3.240  0.8485E+00  0.8308E+01
  -3.230  0.8562E+00  0.8316E+01
  -3.220  0.8647E+00  0.8325E+01
  -3.210  0.8736E+00  0.8334E+01
  -3.200  0.8827E+00  0.8342E+01
  -3.190  0.8918E+00  0.8351E+01
  -3.180  0.9006E+00  0.8360E+01
  -3.170  0.9087E+00  0.8369E+01
  -3.160  0.9159E+00  0.8379E+01
  -3.150  0.9219E+00  0.8388E+01
  -3.140  0.9265E+00  0.8397E+01
  -3.130  0.9295E+00  0.8406E+01
  -3.120  0.9308E+00  0.8416E+01
  -3.110  0.9304E+00  0.8425E+01
  -3.100  0.9282E+00  0.8434E+01
  -3.090  0.9242E+00  0.8444E+01
  -3.080  0.9187E+00  0.8453E+01
  -3.070  0.9118E+00  0.8462E+01
  -3.060  0.9038E+00  0.8471E+01
  -3.050  0.8950E+00  0.8480E+01
  -3.040  0.8856E+00  0.8489E+01
  -3.030  0.8762E+00  0.8497E+01
  -3.020  0.8670E+00  0.8506E+01
  -3.010  0.8584E+00  0.8515E+01
  -3.000  0.8509E+00  0.8523E+01
  -2.990  0.8446E+00  0.8532E+01
  -2.980  0.8401E+00  0.8540E+01
  -2.970  0.8374E+00  0.8548E+01
  -2.960  0.8368E+00  0.8557E+01
  -2.950  0.8382E+00  0.8565E+01
  -2.940  0.8419E+00  0.8574E+01
  -2.930  0.8475E+00  0.8582E+01
  -2.920  0.8550E+00  0.8591E+01
  -2.910  0.8642E+00  0.8599E+01
  -2.900  0.8745E+00  0.8608E+01
  -2.890  0.8857E+00  0.8617E+01
  -2.880  0.8973E+00  0.8626E+01
  -2.870  0.9089E+00  0.8635E+01
  -2.860  0.9199E+00  0.8644E+01
  -2.850  0.9299E+00  0.8653E+01
  -2.840  0.9385E+00  0.8663E+01
  -2.830  0.9454E+00  0.8672E+01
  -2.820  0.9503E+00  0.8682E+01
  -2.810  0.9529E+00  0.8691E+01
  -2.800  0.9533E+00  0.8701E+01
  -2.790  0.9515E+00  0.8710E+01
  -2.780  0.9475E+00  0.8720E+01
  -2.770  0.9415E+00  0.8729E+01
  -2.760  0.9339E+00  0.8739E+01
  -2.750  0.9247E+00  0.8748E+01
  -2.740  0.9145E+00  0.8757E+01
  -2.730  0.9035E+00  0.8766E+01
  -2.720  0.8919E+00  0.8775E+01
  -2.710  0.8802E+00  0.8784E+01
  -2.700  0.8684E+00  0.8792E+01
  -2.690  0.8568E+00  0.8801E+01
  -2.680  0.8454E+00  0.8809E+01
  -2.670  0.8343E+00  0.8818E+01
  -2.660  0.8235E+00  0.8826E+01
  -2.650  0.8129E+00  0.8834E+01
  -2.640  0.8025E+00  0.8842E+01
  -2.630  0.7921E+00  0.8850E+01
  -2.620  0.7816E+00  0.8858E+01
  -2.610  0.7711E+00  0.8866E+01
  -2.600  0.7604E+00  0.8873E+01
  -2.590  0.7494E+00  0.8881E+01
  -2.580  0.7382E+00  0.8888E+01
  -2.570  0.7268E+00  0.8895E+01
  -2.560  0.7153E+00  0.8902E+01
  -2.550  0.7037E+00  0.8910E+01
  -2.540  0.6922E+00  0.8916E+01
  -2.530  0.6807E+00  0.8923E+01
  -2.520  0.6695E+00  0.8930E+01
  -2.510  0.6585E+00  0.8937E+01
  -2.500  0.6480E+00  0.8943E+01
  -2.490  0.6379E+00  0.8949E+01
  -2.480  0.6282E+00  0.8956E+01
  -2.470  0.6190E+00  0.8962E+01
  -2.460  0.6102E+00  0.8968E+01
  -2.450  0.6019E+00  0.8974E+01
  -2.440  0.5939E+00  0.8980E+01
  -2.430  0.5862E+00  0.8986E+01
  -2.420  0.5788E+00  0.8992E+01
  -2.410  0.5716E+00  0.8997E+01
  -2.400  0.5645E+00  0.9003E+01
  -2.390  0.5576E+00  0.9009E+01
  -2.380  0.5507E+00  0.9014E+01
  -2.370  0.5439E+00  0.9019E+01
  -2.360  0.5373E+00  0.9025E+01
  -2.350  0.5307E+00  0.9030E+01
  -2.340  0.5244E+00  0.9035E+01
  -2.330  0.5182E+00  0.9041E+01
  -2.320  0.5124E+00  0.9046E+01
  -2.310  0.5069E+00  0.9051E+01
  -2.300  0.5017E+00  0.9056E+01
  -2.290  0.4969E+00  0.9061E+01
  -2.280  0.4926E+00  0.9066E+01
  -2.270  0.4886E+00  0.9071E+01
  -2.260  0.4850E+00  0.9075E+01
  -2.250  0.4816E+00  0.9080E+01
  -2.240  0.4785E+00  0.9085E+01
  -2.230  0.4756E+00  0.9090E+01
  -2.220  0.4726E+00  0.9094E+01
  -2.210  0.4696E+00  0.9099E+01
  -2.200  0.4664E+00  0.9104E+01
  -2.190  0.4630E+00  0.9108E+01
  -2.180  0.4592E+00  0.9113E+01
  -2.170  0.4550E+00  0.9118E+01
  -2.160  0.4504E+00  0.9122E+01
  -2.150  0.4454E+00  0.9127E+01
  -2.140  0.4399E+00  0.9131E+01
  -2.130  0.4341E+00  0.9135E+01
  -2.120  0.4280E+00  0.9140E+01
  -2.110  0.4217E+00  0.9144E+01
  -2.100  0.4152E+00  0.9148E+01
  -2.090  0.4088E+00  0.9152E+01
  -2.080  0.4025E+00  0.9156E+01
  -2.070  0.3964E+00  0.9160E+01
  -2.060  0.3907E+00  0.9164E+01
  -2.050  0.3855E+00  0.9168E+01
  -2.040  0.3807E+00  0.9172E+01
  -2.030  0.3766E+00  0.9175E+01
  -2.020  0.3730E+00  0.9179E+01
  -2.010  0.3701E+00  0.9183E+01
  -2.000  0.3677E+00  0.9186E+01
  -1.990  0.3659E+00  0.9190E+01
  -1.980  0.3645E+00  0.9194E+01
  -1.970  0.3634E+00  0.9197E+01
  -1.960  0.3624E+00  0.9201E+01
  -1.950  0.3616E+00  0.9205E+01
  -1.940  0.3607E+00  0.9208E+01
  -1.930  0.3595E+00  0.9212E+01
  -1.920  0.3581E+00  0.9215E+01
  -1.910  0.3562E+00  0.9219E+01
  -1.900  0.3538E+00  0.9223E+01
  -1.890  0.3508E+00  0.9226E+01
  -1.880  0.3473E+00  0.9230E+01
  -1.870  0.3432E+00  0.9233E+01
  -1.860  0.3386E+00  0.9236E+01
  -1.850  0.3335E+00  0.9240E+01
  -1.840  0.3280E+00  0.9243E+01
  -1.830  0.3222E+00  0.9246E+01
  -1.820  0.3164E+00  0.9249E+01
  -1.810  0.3105E+00  0.9252E+01
  -1.800  0.3048E+00  0.9256E+01
  -1.790  0.2994E+00  0.9258E+01
  -1.780  0.2943E+00  0.9261E+01
  -1.770  0.2898E+00  0.9264E+01
  -1.760  0.2859E+00  0.9267E+01
  -1.750  0.2825E+00  0.9270E+01
  -1.740  0.2798E+00  0.9273E+01
  -1.730  0.2777E+00  0.9276E+01
  -1.720  0.2762E+00  0.9278E+01
  -1.710  0.2751E+00  0.9281E+01
  -1.700  0.2744E+00  0.9284E+01
  -1.690  0.2740E+00  0.9287E+01
  -1.680  0.2737E+00  0.9289E+01
  -1.670  0.2733E+00  0.9292E+01
  -1.660  0.2728E+00  0.9295E+01
  -1.650  0.2720E+00  0.9298E+01
  -1.640  0.2708E+00  0.9300E+01
  -1.630  0.2691E+00  0.9303E+01
  -1.620  0.2669E+00  0.9306E+01
  -1.610  0.2642E+00  0.9308E+01
  -1.600  0.2609E+00  0.9311E+01
  -1.590  0.2571E+00  0.9313E+01
  -1.580  0.2529E+00  0.9316E+01
  -1.570  0.2483E+00  0.9318E+01
  -1.560  0.2435E+00  0.9321E+01
  -1.550  0.2386E+00  0.9323E+01
  -1.540  0.2337E+00  0.9326E+01
  -1.530  0.2289E+00  0.9328E+01
  -1.520  0.2244E+00  0.9330E+01
  -1.510  0.2201E+00  0.9332E+01
  -1.500  0.2162E+00  0.9334E+01
  -1.490  0.2128E+00  0.9337E+01
  -1.480  0.2098E+00  0.9339E+01
  -1.470  0.2073E+00  0.9341E+01
  -1.460  0.2052E+00  0.9343E+01
  -1.450  0.2035E+00  0.9345E+01
  -1.440  0.2022E+00  0.9347E+01
  -1.430  0.2011E+00  0.9349E+01
  -1.420  0.2002E+00  0.9351E+01
  -1.410  0.1994E+00  0.9353E+01
  -1.400  0.1987E+00  0.9355E+01
  -1.390  0.1978E+00  0.9357E+01
  -1.380  0.1967E+00  0.9359E+01
  -1.370  0.1955E+00  0.9361E+01
  -1.360  0.1939E+00  0.9363E+01
  -1.350  0.1920E+00  0.9365E+01
  -1.340  0.1897E+00  0.9367E+01
  -1.330  0.1870E+00  0.9368E+01
  -1.320  0.1840E+00  0.9370E+01
  -1.310  0.1807E+00  0.9372E+01
  -1.300  0.1771E+00  0.9374E+01
  -1.290  0.1732E+00  0.9376E+01
  -1.280  0.1693E+00  0.9377E+01
  -1.270  0.1653E+00  0.9379E+01
  -1.260  0.1614E+00  0.9381E+01
  -1.250  0.1576E+00  0.9382E+01
  -1.240  0.1540E+00  0.9384E+01
  -1.230  0.1507E+00  0.9385E+01
  -1.220  0.1477E+00  0.9387E+01
  -1.210  0.1450E+00  0.9388E+01
  -1.200  0.1427E+00  0.9389E+01
  -1.190  0.1408E+00  0.9391E+01
  -1.180  0.1391E+00  0.9392E+01
  -1.170  0.1377E+00  0.9394E+01
  -1.160  0.1364E+00  0.9395E+01
  -1.150  0.1352E+00  0.9396E+01
  -1.140  0.1341E+00  0.9398E+01
  -1.130  0.1328E+00  0.9399E+01
  -1.120  0.1314E+00  0.9400E+01
  -1.110  0.1298E+00  0.9402E+01
  -1.100  0.1279E+00  0.9403E+01
  -1.090  0.1257E+00  0.9404E+01
  -1.080  0.1232E+00  0.9405E+01
  -1.070  0.1204E+00  0.9407E+01
  -1.060  0.1174E+00  0.9408E+01
  -1.050  0.1141E+00  0.9409E+01
  -1.040  0.1107E+00  0.9410E+01
  -1.030  0.1073E+00  0.9411E+01
  -1.020  0.1038E+00  0.9412E+01
  -1.010  0.1003E+00  0.9413E+01
  -1.000  0.9703E-01  0.9414E+01
  -0.990  0.9387E-01  0.9415E+01
  -0.980  0.9090E-01  0.9416E+01
  -0.970  0.8814E-01  0.9417E+01
  -0.960  0.8557E-01  0.9418E+01
  -0.950  0.8320E-01  0.9419E+01
  -0.940  0.8100E-01  0.9419E+01
  -0.930  0.7894E-01  0.9420E+01
  -0.920  0.7697E-01  0.9421E+01
  -0.910  0.7507E-01  0.9422E+01
  -0.900  0.7320E-01  0.9422E+01
  -0.890  0.7134E-01  0.9423E+01
  -0.880  0.6946E-01  0.9424E+01
  -0.870  0.6755E-01  0.9424E+01
  -0.860  0.6562E-01  0.9425E+01
  -0.850  0.6366E-01  0.9426E+01
  -0.840  0.6170E-01  0.9426E+01
  -0.830  0.5975E-01  0.9427E+01
  -0.820  0.5783E-01  0.9428E+01
  -0.810  0.5597E-01  0.9428E+01
  -0.800  0.5418E-01  0.9429E+01
  -0.790  0.5248E-01  0.9429E+01
  -0.780  0.5089E-01  0.9430E+01
  -0.770  0.4940E-01  0.9430E+01
  -0.760  0.4801E-01  0.9431E+01
  -0.750  0.4671E-01  0.9431E+01
  -0.740  0.4549E-01  0.9432E+01
  -0.730  0.4433E-01  0.9432E+01
  -0.720  0.4322E-01  0.9432E+01
  -0.710  0.4213E-01  0.9433E+01
  -0.700  0.4104E-01  0.9433E+01
  -0.690  0.3995E-01  0.9434E+01
  -0.680  0.3885E-01  0.9434E+01
  -0.670  0.3774E-01  0.9434E+01
  -0.660  0.3662E-01  0.9435E+01
  -0.650  0.3550E-01  0.9435E+01
  -0.640  0.3439E-01  0.9436E+01
  -0.630  0.3333E-01  0.9436E+01
  -0.620  0.3232E-01  0.9436E+01
  -0.610  0.3140E-01  0.9437E+01
  -0.600  0.3058E-01  0.9437E+01
  -0.590  0.2990E-01  0.9437E+01
  -0.580  0.2936E-01  0.9437E+01
  -0.570  0.2899E-01  0.9438E+01
  -0.560  0.2878E-01  0.9438E+01
  -0.550  0.2875E-01  0.9438E+01
  -0.540  0.2889E-01  0.9439E+01
  -0.530  0.2918E-01  0.9439E+01
  -0.520  0.2962E-01  0.9439E+01
  -0.510  0.3017E-01  0.9439E+01
  -0.500  0.3082E-01  0.9440E+01
  -0.490  0.3153E-01  0.9440E+01
  -0.480  0.3229E-01  0.9440E+01
  -0.470  0.3305E-01  0.9441E+01
  -0.460  0.3381E-01  0.9441E+01
  -0.450  0.3455E-01  0.9441E+01
  -0.440  0.3526E-01  0.9442E+01
  -0.430  0.3593E-01  0.9442E+01
  -0.420  0.3657E-01  0.9442E+01
  -0.410  0.3720E-01  0.9443E+01
  -0.400  0.3783E-01  0.9443E+01
  -0.390  0.3851E-01  0.9444E+01
  -0.380  0.3925E-01  0.9444E+01
  -0.370  0.4009E-01  0.9444E+01
  -0.360  0.4107E-01  0.9445E+01
  -0.350  0.4221E-01  0.9445E+01
  -0.340  0.4354E-01  0.9446E+01
  -0.330  0.4507E-01  0.9446E+01
  -0.320  0.4680E-01  0.9447E+01
  -0.310  0.4875E-01  0.9447E+01
  -0.300  0.5089E-01  0.9448E+01
  -0.290  0.5321E-01  0.9448E+01
  -0.280  0.5567E-01  0.9449E+01
  -0.270  0.5824E-01  0.9449E+01
  -0.260  0.6089E-01  0.9450E+01
  -0.250  0.6358E-01  0.9451E+01
  -0.240  0.6628E-01  0.9451E+01
  -0.230  0.6895E-01  0.9452E+01
  -0.220  0.7159E-01  0.9453E+01
  -0.210  0.7417E-01  0.9453E+01
  -0.200  0.7670E-01  0.9454E+01
  -0.190  0.7917E-01  0.9455E+01
  -0.180  0.8162E-01  0.9456E+01
  -0.170  0.8406E-01  0.9457E+01
  -0.160  0.8651E-01  0.9457E+01
  -0.150  0.8902E-01  0.9458E+01
  -0.140  0.9161E-01  0.9459E+01
  -0.130  0.9430E-01  0.9460E+01
  -0.120  0.9712E-01  0.9461E+01
  -0.110  0.1001E+00  0.9462E+01
  -0.100  0.1032E+00  0.9463E+01
  -0.090  0.1064E+00  0.9464E+01
  -0.080  0.1098E+00  0.9465E+01
  -0.070  0.1132E+00  0.9466E+01
  -0.060  0.1168E+00  0.9468E+01
  -0.050  0.1203E+00  0.9469E+01
  -0.040  0.1239E+00  0.9470E+01
  -0.030  0.1274E+00  0.9471E+01
  -0.020  0.1308E+00  0.9473E+01
  -0.010  0.1342E+00  0.9474E+01
   0.000  0.1374E+00  0.9475E+01
   0.010  0.1404E+00  0.9477E+01
   0.020  0.1434E+00  0.9478E+01
   0.030  0.1462E+00  0.9480E+01
   0.040  0.1489E+00  0.9481E+01
   0.050  0.1515E+00  0.9483E+01
   0.060  0.1540E+00  0.9484E+01
   0.070  0.1565E+00  0.9486E+01
   0.080  0.1589E+00  0.9487E+01
   0.090  0.1614E+00  0.9489E+01
   0.100  0.1640E+00  0.9491E+01
   0.110  0.1666E+00  0.9492E+01
   0.120  0.1693E+00  0.9494E+01
   0.130  0.1721E+00  0.9496E+01
   0.140  0.1750E+00  0.9497E+01
   0.150  0.1780E+00  0.9499E+01
   0.160  0.1811E+00  0.9501E+01
   0.170  0.1843E+00  0.9503E+01
   0.180  0.1876E+00  0.9505E+01
   0.190  0.1910E+00  0.9507E+01
   0.200  0.1945E+00  0.9509E+01
   0.210  0.1981E+00  0.9511E+01
   0.220  0.2019E+00  0.9513E+01
   0.230  0.2057E+00  0.9515E+01
   0.240  0.2096E+00  0.9517E+01
   0.250  0.2136E+00  0.9519E+01
   0.260  0.2177E+00  0.9521E+01
   0.270  0.2218E+00  0.9523E+01
   0.280  0.2260E+00  0.9526E+01
   0.290  0.2301E+00  0.9528E+01
   0.300  0.2343E+00  0.9530E+01
   0.310  0.2384E+00  0.9533E+01
   0.320  0.2424E+00  0.9535E+01
   0.330  0.2463E+00  0.9537E+01
   0.340  0.2500E+00  0.9540E+01
   0.350  0.2536E+00  0.9543E+01
   0.360  0.2570E+00  0.9545E+01
   0.370  0.2603E+00  0.9548E+01
   0.380  0.2634E+00  0.9550E+01
   0.390  0.2665E+00  0.9553E+01
   0.400  0.2695E+00  0.9556E+01
   0.410  0.2726E+00  0.9558E+01
   0.420  0.2759E+00  0.9561E+01
   0.430  0.2793E+00  0.9564E+01
   0.440  0.2830E+00  0.9567E+01
   0.450  0.2871E+00  0.9570E+01
   0.460  0.2917E+00  0.9573E+01
   0.470  0.2967E+00  0.9576E+01
   0.480  0.3023E+00  0.9579E+01
   0.490  0.3083E+00  0.9582E+01
   0.500  0.3149E+00  0.9585E+01
   0.510  0.3219E+00  0.9588E+01
   0.520  0.3294E+00  0.9591E+01
   0.530  0.3371E+00  0.9595E+01
   0.540  0.3450E+00  0.9598E+01
   0.550  0.3530E+00  0.9602E+01
   0.560  0.3609E+00  0.9605E+01
   0.570  0.3687E+00  0.9609E+01
   0.580  0.3763E+00  0.9613E+01
   0.590  0.3836E+00  0.9617E+01
   0.600  0.3905E+00  0.9620E+01
   0.610  0.3970E+00  0.9624E+01
   0.620  0.4032E+00  0.9628E+01
   0.630  0.4092E+00  0.9633E+01
   0.640  0.4150E+00  0.9637E+01
   0.650  0.4209E+00  0.9641E+01
   0.660  0.4271E+00  0.9645E+01
   0.670  0.4337E+00  0.9650E+01
   0.680  0.4411E+00  0.9654E+01
   0.690  0.4494E+00  0.9658E+01
   0.700  0.4590E+00  0.9663E+01
   0.710  0.4701E+00  0.9668E+01
   0.720  0.4828E+00  0.9673E+01
   0.730  0.4974E+00  0.9678E+01
   0.740  0.5140E+00  0.9683E+01
   0.750  0.5324E+00  0.9688E+01
   0.760  0.5529E+00  0.9694E+01
   0.770  0.5751E+00  0.9699E+01
   0.780  0.5990E+00  0.9705E+01
   0.790  0.6242E+00  0.9711E+01
   0.800  0.6506E+00  0.9718E+01
   0.810  0.6778E+00  0.9725E+01
   0.820  0.7053E+00  0.9732E+01
   0.830  0.7329E+00  0.9739E+01
   0.840  0.7600E+00  0.9747E+01
   0.850  0.7864E+00  0.9755E+01
   0.860  0.8116E+00  0.9763E+01
   0.870  0.8353E+00  0.9771E+01
   0.880  0.8573E+00  0.9780E+01
   0.890  0.8773E+00  0.9788E+01
   0.900  0.8951E+00  0.9797E+01
   0.910  0.9108E+00  0.9806E+01
   0.920  0.9243E+00  0.9816E+01
   0.930  0.9355E+00  0.9825E+01
   0.940  0.9446E+00  0.9835E+01
   0.950  0.9518E+00  0.9844E+01
   0.960  0.9572E+00  0.9854E+01
   0.970  0.9609E+00  0.9863E+01
   0.980  0.9633E+00  0.9873E+01
   0.990  0.9644E+00  0.9883E+01
   1.000  0.9646E+00  0.9892E+01
   1.010  0.9639E+00  0.9902E+01
   1.020  0.9626E+00  0.9911E+01
   1.030  0.9608E+00  0.9921E+01
   1.040  0.9585E+00  0.9931E+01
   1.050  0.9559E+00  0.9940E+01
   1.060  0.9530E+00  0.9950E+01
   1.070  0.9498E+00  0.9959E+01
   1.080  0.9464E+00  0.9969E+01
   1.090  0.9427E+00  0.9978E+01
   1.100  0.9388E+00  0.9987E+01
   1.110  0.9348E+00  0.9997E+01
   1.120  0.9306E+00  0.1001E+02
   1.130  0.9264E+00  0.1002E+02
   1.140  0.9223E+00  0.1002E+02
   1.150  0.9183E+00  0.1003E+02
   1.160  0.9145E+00  0.1004E+02
   1.170  0.9112E+00  0.1005E+02
   1.180  0.9084E+00  0.1006E+02
   1.190  0.9063E+00  0.1007E+02
   1.200  0.9049E+00  0.1008E+02
   1.210  0.9044E+00  0.1009E+02
   1.220  0.9048E+00  0.1010E+02
   1.230  0.9062E+00  0.1011E+02
   1.240  0.9085E+00  0.1012E+02
   1.250  0.9116E+00  0.1012E+02
   1.260  0.9154E+00  0.1013E+02
   1.270  0.9199E+00  0.1014E+02
   1.280  0.9248E+00  0.1015E+02
   1.290  0.9299E+00  0.1016E+02
   1.300  0.9351E+00  0.1017E+02
   1.310  0.9400E+00  0.1018E+02
   1.320  0.9444E+00  0.1019E+02
   1.330  0.9480E+00  0.1020E+02
   1.340  0.9507E+00  0.1021E+02
   1.350  0.9523E+00  0.1022E+02
   1.360  0.9524E+00  0.1023E+02
   1.370  0.9511E+00  0.1024E+02
   1.380  0.9483E+00  0.1025E+02
   1.390  0.9437E+00  0.1026E+02
   1.400  0.9375E+00  0.1027E+02
   1.410  0.9297E+00  0.1027E+02
   1.420  0.9204E+00  0.1028E+02
   1.430  0.9096E+00  0.1029E+02
   1.440  0.8977E+00  0.1030E+02
   1.450  0.8846E+00  0.1031E+02
   1.460  0.8708E+00  0.1032E+02
   1.470  0.8564E+00  0.1033E+02
   1.480  0.8418E+00  0.1034E+02
   1.490  0.8270E+00  0.1034E+02
   1.500  0.8125E+00  0.1035E+02
   1.510  0.7985E+00  0.1036E+02
   1.520  0.7851E+00  0.1037E+02
   1.530  0.7726E+00  0.1038E+02
   1.540  0.7611E+00  0.1038E+02
   1.550  0.7508E+00  0.1039E+02
   1.560  0.7417E+00  0.1040E+02
   1.570  0.7339E+00  0.1041E+02
   1.580  0.7273E+00  0.1041E+02
   1.590  0.7221E+00  0.1042E+02
   1.600  0.7180E+00  0.1043E+02
   1.610  0.7150E+00  0.1044E+02
   1.620  0.7130E+00  0.1044E+02
   1.630  0.7117E+00  0.1045E+02
   1.640  0.7111E+00  0.1046E+02
   1.650  0.7108E+00  0.1046E+02
   1.660  0.7108E+00  0.1047E+02
   1.670  0.7107E+00  0.1048E+02
   1.680  0.7103E+00  0.1049E+02
   1.690  0.7095E+00  0.1049E+02
   1.700  0.7082E+00  0.1050E+02
   1.710  0.7061E+00  0.1051E+02
   1.720  0.7032E+00  0.1051E+02
   1.730  0.6994E+00  0.1052E+02
   1.740  0.6946E+00  0.1053E+02
   1.750  0.6890E+00  0.1053E+02
   1.760  0.6827E+00  0.1054E+02
   1.770  0.6756E+00  0.1055E+02
   1.780  0.6681E+00  0.1055E+02
   1.790  0.6601E+00  0.1056E+02
   1.800  0.6521E+00  0.1057E+02
   1.810  0.6441E+00  0.1057E+02
   1.820  0.6364E+00  0.1058E+02
   1.830  0.6291E+00  0.1059E+02
   1.840  0.6224E+00  0.1059E+02
   1.850  0.6164E+00  0.1060E+02
   1.860  0.6113E+00  0.1061E+02
   1.870  0.6072E+00  0.1061E+02
   1.880  0.6040E+00  0.1062E+02
   1.890  0.6017E+00  0.1062E+02
   1.900  0.6004E+00  0.1063E+02
   1.910  0.6000E+00  0.1064E+02
   1.920  0.6003E+00  0.1064E+02
   1.930  0.6013E+00  0.1065E+02
   1.940  0.6028E+00  0.1065E+02
   1.950  0.6048E+00  0.1066E+02
   1.960  0.6070E+00  0.1067E+02
   1.970  0.6093E+00  0.1067E+02
   1.980  0.6115E+00  0.1068E+02
   1.990  0.6135E+00  0.1068E+02
   2.000  0.6151E+00  0.1069E+02
   2.010  0.6163E+00  0.1070E+02
   2.020  0.6167E+00  0.1070E+02
   2.030  0.6164E+00  0.1071E+02
   2.040  0.6153E+00  0.1071E+02
   2.050  0.6132E+00  0.1072E+02
   2.060  0.6102E+00  0.1073E+02
   2.070  0.6062E+00  0.1073E+02
   2.080  0.6013E+00  0.1074E+02
   2.090  0.5957E+00  0.1074E+02
   2.100  0.5894E+00  0.1075E+02
   2.110  0.5825E+00  0.1076E+02
   2.120  0.5754E+00  0.1076E+02
   2.130  0.5683E+00  0.1077E+02
   2.140  0.5612E+00  0.1077E+02
   2.150  0.5546E+00  0.1078E+02
   2.160  0.5486E+00  0.1078E+02
   2.170  0.5433E+00  0.1079E+02
   2.180  0.5390E+00  0.1080E+02
   2.190  0.5357E+00  0.1080E+02
   2.200  0.5335E+00  0.1081E+02
   2.210  0.5325E+00  0.1081E+02
   2.220  0.5325E+00  0.1082E+02
   2.230  0.5336E+00  0.1082E+02
   2.240  0.5354E+00  0.1083E+02
   2.250  0.5380E+00  0.1083E+02
   2.260  0.5412E+00  0.1084E+02
   2.270  0.5446E+00  0.1084E+02
   2.280  0.5482E+00  0.1085E+02
   2.290  0.5517E+00  0.1085E+02
   2.300  0.5550E+00  0.1086E+02
   2.310  0.5579E+00  0.1087E+02
   2.320  0.5604E+00  0.1087E+02
   2.330  0.5623E+00  0.1088E+02
   2.340  0.5635E+00  0.1088E+02
   2.350  0.5642E+00  0.1089E+02
   2.360  0.5642E+00  0.1089E+02
   2.370  0.5637E+00  0.1090E+02
   2.380  0.5627E+00  0.1091E+02
   2.390  0.5612E+00  0.1091E+02
   2.400  0.5595E+00  0.1092E+02
   2.410  0.5576E+00  0.1092E+02
   2.420  0.5556E+00  0.1093E+02
   2.430  0.5538E+00  0.1093E+02
   2.440  0.5521E+00  0.1094E+02
   2.450  0.5509E+00  0.1094E+02
   2.460  0.5502E+00  0.1095E+02
   2.470  0.5502E+00  0.1096E+02
   2.480  0.5510E+00  0.1096E+02
   2.490  0.5527E+00  0.1097E+02
   2.500  0.5556E+00  0.1097E+02
   2.510  0.5595E+00  0.1098E+02
   2.520  0.5647E+00  0.1098E+02
   2.530  0.5712E+00  0.1099E+02
   2.540  0.5789E+00  0.1099E+02
   2.550  0.5878E+00  0.1100E+02
   2.560  0.5978E+00  0.1101E+02
   2.570  0.6088E+00  0.1101E+02
   2.580  0.6206E+00  0.1102E+02
   2.590  0.6331E+00  0.1103E+02
   2.600  0.6458E+00  0.1103E+02
   2.610  0.6587E+00  0.1104E+02
   2.620  0.6713E+00  0.1104E+02
   2.630  0.6835E+00  0.1105E+02
   2.640  0.6949E+00  0.1106E+02
   2.650  0.7052E+00  0.1107E+02
   2.660  0.7142E+00  0.1107E+02
   2.670  0.7218E+00  0.1108E+02
   2.680  0.7278E+00  0.1109E+02
   2.690  0.7322E+00  0.1109E+02
   2.700  0.7348E+00  0.1110E+02
   2.710  0.7359E+00  0.1111E+02
   2.720  0.7354E+00  0.1112E+02
   2.730  0.7336E+00  0.1112E+02
   2.740  0.7307E+00  0.1113E+02
   2.750  0.7269E+00  0.1114E+02
   2.760  0.7226E+00  0.1115E+02
   2.770  0.7179E+00  0.1115E+02
   2.780  0.7132E+00  0.1116E+02
   2.790  0.7087E+00  0.1117E+02
   2.800  0.7048E+00  0.1117E+02
   2.810  0.7016E+00  0.1118E+02
   2.820  0.6994E+00  0.1119E+02
   2.830  0.6982E+00  0.1120E+02
   2.840  0.6982E+00  0.1120E+02
   2.850  0.6996E+00  0.1121E+02
   2.860  0.7022E+00  0.1122E+02
   2.870  0.7062E+00  0.1122E+02
   2.880  0.7116E+00  0.1123E+02
   2.890  0.7182E+00  0.1124E+02
   2.900  0.7260E+00  0.1124E+02
   2.910  0.7350E+00  0.1125E+02
   2.920  0.7449E+00  0.1126E+02
   2.930  0.7557E+00  0.1127E+02
   2.940  0.7672E+00  0.1127E+02
   2.950  0.7793E+00  0.1128E+02
   2.960  0.7917E+00  0.1129E+02
   2.970  0.8043E+00  0.1130E+02
   2.980  0.8169E+00  0.1131E+02
   2.990  0.8291E+00  0.1132E+02
   3.000  0.8409E+00  0.1132E+02
   3.010  0.8520E+00  0.1133E+02
   3.020  0.8622E+00  0.1134E+02
   3.030  0.8713E+00  0.1135E+02
   3.040  0.8793E+00  0.1136E+02
   3.050  0.8859E+00  0.1137E+02
   3.060  0.8911E+00  0.1138E+02
   3.070  0.8949E+00  0.1138E+02
   3.080  0.8973E+00  0.1139E+02
   3.090  0.8984E+00  0.1140E+02
   3.100  0.8982E+00  0.1141E+02
   3.110  0.8970E+00  0.1142E+02
   3.120  0.8950E+00  0.1143E+02
   3.130  0.8922E+00  0.1144E+02
   3.140  0.8890E+00  0.1145E+02
   3.150  0.8856E+00  0.1146E+02
   3.160  0.8822E+00  0.1147E+02
   3.170  0.8790E+00  0.1147E+02
   3.180  0.8762E+00  0.1148E+02
   3.190  0.8740E+00  0.1149E+02
   3.200  0.8725E+00  0.1150E+02
   3.210  0.8717E+00  0.1151E+02
   3.220  0.8719E+00  0.1152E+02
   3.230  0.8729E+00  0.1153E+02
   3.240  0.8748E+00  0.1154E+02
   3.250  0.8774E+00  0.1154E+02
   3.260  0.8807E+00  0.1155E+02
   3.270  0.8846E+00  0.1156E+02
   3.280  0.8889E+00  0.1157E+02
   3.290  0.8935E+00  0.1158E+02
   3.300  0.8982E+00  0.1159E+02
   3.310  0.9027E+00  0.1160E+02
   3.320  0.9070E+00  0.1161E+02
   3.330  0.9109E+00  0.1162E+02
   3.340  0.9141E+00  0.1162E+02
   3.350  0.9166E+00  0.1163E+02
   3.360  0.9183E+00  0.1164E+02
   3.370  0.9191E+00  0.1165E+02
   3.380  0.9188E+00  0.1166E+02
   3.390  0.9176E+00  0.1167E+02
   3.400  0.9155E+00  0.1168E+02
   3.410  0.9125E+00  0.1169E+02
   3.420  0.9086E+00  0.1170E+02
   3.430  0.9041E+00  0.1171E+02
   3.440  0.8990E+00  0.1172E+02
   3.450  0.8936E+00  0.1172E+02
   3.460  0.8879E+00  0.1173E+02
   3.470  0.8822E+00  0.1174E+02
   3.480  0.8766E+00  0.1175E+02
   3.490  0.8713E+00  0.1176E+02
   3.500  0.8665E+00  0.1177E+02
   3.510  0.8621E+00  0.1178E+02
   3.520  0.8585E+00  0.1179E+02
   3.530  0.8555E+00  0.1179E+02
   3.540  0.8533E+00  0.1180E+02
   3.550  0.8520E+00  0.1181E+02
   3.560  0.8514E+00  0.1182E+02
   3.570  0.8517E+00  0.1183E+02
   3.580  0.8527E+00  0.1184E+02
   3.590  0.8544E+00  0.1185E+02
   3.600  0.8568E+00  0.1185E+02
   3.610  0.8596E+00  0.1186E+02
   3.620  0.8629E+00  0.1187E+02
   3.630  0.8665E+00  0.1188E+02
   3.640  0.8703E+00  0.1189E+02
   3.650  0.8741E+00  0.1190E+02
   3.660  0.8779E+00  0.1191E+02
   3.670  0.8814E+00  0.1192E+02
   3.680  0.8846E+00  0.1192E+02
   3.690  0.8873E+00  0.1193E+02
   3.700  0.8895E+00  0.1194E+02
   3.710  0.8912E+00  0.1195E+02
   3.720  0.8921E+00  0.1196E+02
   3.730  0.8924E+00  0.1197E+02
   3.740  0.8919E+00  0.1198E+02
   3.750  0.8907E+00  0.1199E+02
   3.760  0.8889E+00  0.1200E+02
   3.770  0.8864E+00  0.1200E+02
   3.780  0.8833E+00  0.1201E+02
   3.790  0.8797E+00  0.1202E+02
   3.800  0.8757E+00  0.1203E+02
   3.810  0.8715E+00  0.1204E+02
   3.820  0.8670E+00  0.1205E+02
   3.830  0.8626E+00  0.1206E+02
   3.840  0.8582E+00  0.1207E+02
   3.850  0.8541E+00  0.1207E+02
   3.860  0.8505E+00  0.1208E+02
   3.870  0.8474E+00  0.1209E+02
   3.880  0.8452E+00  0.1210E+02
   3.890  0.8438E+00  0.1211E+02
   3.900  0.8435E+00  0.1212E+02
   3.910  0.8445E+00  0.1212E+02
   3.920  0.8467E+00  0.1213E+02
   3.930  0.8504E+00  0.1214E+02
   3.940  0.8556E+00  0.1215E+02
   3.950  0.8622E+00  0.1216E+02
   3.960  0.8703E+00  0.1217E+02
   3.970  0.8798E+00  0.1218E+02
   3.980  0.8905E+00  0.1219E+02
   3.990  0.9024E+00  0.1219E+02
   4.000  0.9151E+00  0.1220E+02
   4.010  0.9284E+00  0.1221E+02
   4.020  0.9420E+00  0.1222E+02
   4.030  0.9558E+00  0.1223E+02
   4.040  0.9692E+00  0.1224E+02
   4.050  0.9821E+00  0.1225E+02
   4.060  0.9942E+00  0.1226E+02
   4.070  0.1005E+01  0.1227E+02
   4.080  0.1015E+01  0.1228E+02
   4.090  0.1023E+01  0.1229E+02
   4.100  0.1030E+01  0.1230E+02
   4.110  0.1035E+01  0.1231E+02
   4.120  0.1039E+01  0.1232E+02
   4.130  0.1042E+01  0.1233E+02
   4.140  0.1043E+01  0.1234E+02
   4.150  0.1043E+01  0.1235E+02
   4.160  0.1043E+01  0.1236E+02
   4.170  0.1042E+01  0.1237E+02
   4.180  0.1040E+01  0.1238E+02
   4.190  0.1039E+01  0.1240E+02
   4.200  0.1037E+01  0.1241E+02
   4.210  0.1036E+01  0.1242E+02
   4.220  0.1035E+01  0.1243E+02
   4.230  0.1034E+01  0.1244E+02
   4.240  0.1034E+01  0.1245E+02
   4.250  0.1034E+01  0.1246E+02
   4.260  0.1035E+01  0.1247E+02
   4.270  0.1036E+01  0.1248E+02
   4.280  0.1037E+01  0.1249E+02
   4.290  0.1039E+01  0.1250E+02
   4.300  0.1040E+01  0.1251E+02
   4.310  0.1042E+01  0.1252E+02
   4.320  0.1044E+01  0.1253E+02
   4.330  0.1046E+01  0.1254E+02
   4.340  0.1048E+01  0.1255E+02
   4.350  0.1050E+01  0.1256E+02
   4.360  0.1052E+01  0.1257E+02
   4.370  0.1055E+01  0.1258E+02
   4.380  0.1057E+01  0.1259E+02
   4.390  0.1060E+01  0.1260E+02
   4.400  0.1063E+01  0.1261E+02
   4.410  0.1066E+01  0.1263E+02
   4.420  0.1069E+01  0.1264E+02
   4.430  0.1072E+01  0.1265E+02
   4.440  0.1075E+01  0.1266E+02
   4.450  0.1077E+01  0.1267E+02
   4.460  0.1078E+01  0.1268E+02
   4.470  0.1078E+01  0.1269E+02
   4.480  0.1078E+01  0.1270E+02
   4.490  0.1077E+01  0.1271E+02
   4.500  0.1074E+01  0.1272E+02
   4.510  0.1071E+01  0.1273E+02
   4.520  0.1066E+01  0.1274E+02
   4.530  0.1061E+01  0.1275E+02
   4.540  0.1055E+01  0.1276E+02
   4.550  0.1049E+01  0.1277E+02
   4.560  0.1042E+01  0.1279E+02
   4.570  0.1035E+01  0.1280E+02
   4.580  0.1029E+01  0.1281E+02
   4.590  0.1024E+01  0.1282E+02
   4.600  0.1019E+01  0.1283E+02
   4.610  0.1016E+01  0.1284E+02
   4.620  0.1013E+01  0.1285E+02
   4.630  0.1012E+01  0.1286E+02
   4.640  0.1013E+01  0.1287E+02
   4.650  0.1014E+01  0.1288E+02
   4.660  0.1017E+01  0.1289E+02
   4.670  0.1021E+01  0.1290E+02
   4.680  0.1025E+01  0.1291E+02
   4.690  0.1030E+01  0.1292E+02
   4.700  0.1036E+01  0.1293E+02
   4.710  0.1041E+01  0.1294E+02
   4.720  0.1046E+01  0.1295E+02
   4.730  0.1051E+01  0.1296E+02
   4.740  0.1055E+01  0.1297E+02
   4.750  0.1058E+01  0.1298E+02
   4.760  0.1060E+01  0.1299E+02
   4.770  0.1062E+01  0.1300E+02
   4.780  0.1063E+01  0.1301E+02
   4.790  0.1062E+01  0.1302E+02
   4.800  0.1062E+01  0.1303E+02
   4.810  0.1060E+01  0.1304E+02
   4.820  0.1059E+01  0.1306E+02
   4.830  0.1056E+01  0.1307E+02
   4.840  0.1054E+01  0.1308E+02
   4.850  0.1052E+01  0.1309E+02
   4.860  0.1050E+01  0.1310E+02
   4.870  0.1047E+01  0.1311E+02
   4.880  0.1045E+01  0.1312E+02
   4.890  0.1044E+01  0.1313E+02
   4.900  0.1042E+01  0.1314E+02
   4.910  0.1040E+01  0.1315E+02
   4.920  0.1039E+01  0.1316E+02
   4.930  0.1037E+01  0.1317E+02
   4.940  0.1036E+01  0.1318E+02
   4.950  0.1034E+01  0.1319E+02
   4.960  0.1033E+01  0.1320E+02
   4.970  0.1031E+01  0.1321E+02
   4.980  0.1030E+01  0.1322E+02
   4.990  0.1029E+01  0.1323E+02
   5.000  0.1028E+01  0.1324E+02
   5.010  0.1028E+01  0.1325E+02
   5.020  0.1029E+01  0.1326E+02
   5.030  0.1030E+01  0.1327E+02
   5.040  0.1033E+01  0.1328E+02
   5.050  0.1037E+01  0.1329E+02
   5.060  0.1042E+01  0.1330E+02
   5.070  0.1048E+01  0.1331E+02
   5.080  0.1056E+01  0.1333E+02
   5.090  0.1066E+01  0.1334E+02
   5.100  0.1076E+01  0.1335E+02
   5.110  0.1088E+01  0.1336E+02
   5.120  0.1101E+01  0.1337E+02
   5.130  0.1115E+01  0.1338E+02
   5.140  0.1129E+01  0.1339E+02
   5.150  0.1143E+01  0.1340E+02
   5.160  0.1157E+01  0.1341E+02
   5.170  0.1171E+01  0.1343E+02
   5.180  0.1184E+01  0.1344E+02
   5.190  0.1196E+01  0.1345E+02
   5.200  0.1206E+01  0.1346E+02
   5.210  0.1216E+01  0.1347E+02
   5.220  0.1224E+01  0.1349E+02
   5.230  0.1231E+01  0.1350E+02
   5.240  0.1236E+01  0.1351E+02
   5.250  0.1240E+01  0.1352E+02
   5.260  0.1242E+01  0.1354E+02
   5.270  0.1243E+01  0.1355E+02
   5.280  0.1244E+01  0.1356E+02
   5.290  0.1243E+01  0.1357E+02
   5.300  0.1241E+01  0.1359E+02
   5.310  0.1239E+01  0.1360E+02
   5.320  0.1236E+01  0.1361E+02
   5.330  0.1233E+01  0.1362E+02
   5.340  0.1229E+01  0.1363E+02
   5.350  0.1224E+01  0.1365E+02
   5.360  0.1219E+01  0.1366E+02
   5.370  0.1214E+01  0.1367E+02
   5.380  0.1208E+01  0.1368E+02
   5.390  0.1201E+01  0.1370E+02
   5.400  0.1194E+01  0.1371E+02
   5.410  0.1186E+01  0.1372E+02
   5.420  0.1178E+01  0.1373E+02
   5.430  0.1170E+01  0.1374E+02
   5.440  0.1161E+01  0.1375E+02
   5.450  0.1153E+01  0.1377E+02
   5.460  0.1144E+01  0.1378E+02
   5.470  0.1136E+01  0.1379E+02
   5.480  0.1128E+01  0.1380E+02
   5.490  0.1122E+01  0.1381E+02
   5.500  0.1116E+01  0.1382E+02
   5.510  0.1111E+01  0.1383E+02
   5.520  0.1107E+01  0.1384E+02
   5.530  0.1106E+01  0.1386E+02
   5.540  0.1105E+01  0.1387E+02
   5.550  0.1107E+01  0.1388E+02
   5.560  0.1110E+01  0.1389E+02
   5.570  0.1115E+01  0.1390E+02
   5.580  0.1122E+01  0.1391E+02
   5.590  0.1130E+01  0.1392E+02
   5.600  0.1140E+01  0.1393E+02
   5.610  0.1152E+01  0.1395E+02
   5.620  0.1166E+01  0.1396E+02
   5.630  0.1181E+01  0.1397E+02
   5.640  0.1197E+01  0.1398E+02
   5.650  0.1214E+01  0.1399E+02
   5.660  0.1232E+01  0.1401E+02
   5.670  0.1251E+01  0.1402E+02
   5.680  0.1270E+01  0.1403E+02
   5.690  0.1290E+01  0.1404E+02
   5.700  0.1310E+01  0.1406E+02
   5.710  0.1329E+01  0.1407E+02
   5.720  0.1348E+01  0.1408E+02
   5.730  0.1367E+01  0.1410E+02
   5.740  0.1384E+01  0.1411E+02
   5.750  0.1402E+01  0.1412E+02
   5.760  0.1418E+01  0.1414E+02
   5.770  0.1433E+01  0.1415E+02
   5.780  0.1447E+01  0.1417E+02
   5.790  0.1459E+01  0.1418E+02
   5.800  0.1471E+01  0.1420E+02
   5.810  0.1481E+01  0.1421E+02
   5.820  0.1490E+01  0.1423E+02
   5.830  0.1498E+01  0.1424E+02
   5.840  0.1504E+01  0.1426E+02
   5.850  0.1510E+01  0.1427E+02
   5.860  0.1514E+01  0.1429E+02
   5.870  0.1517E+01  0.1430E+02
   5.880  0.1520E+01  0.1432E+02
   5.890  0.1521E+01  0.1433E+02
   5.900  0.1522E+01  0.1435E+02
   5.910  0.1522E+01  0.1436E+02
   5.920  0.1521E+01  0.1438E+02
   5.930  0.1520E+01  0.1439E+02
   5.940  0.1518E+01  0.1441E+02
   5.950  0.1516E+01  0.1442E+02
   5.960  0.1513E+01  0.1444E+02
   5.970  0.1510E+01  0.1445E+02
   5.980  0.1507E+01  0.1447E+02
   5.990  0.1503E+01  0.1448E+02
   6.000  0.1500E+01  0.1450E+02
   6.010  0.1496E+01  0.1451E+02
   6.020  0.1491E+01  0.1453E+02
   6.030  0.1487E+01  0.1454E+02
   6.040  0.1482E+01  0.1456E+02
   6.050  0.1478E+01  0.1457E+02
   6.060  0.1473E+01  0.1459E+02
   6.070  0.1469E+01  0.1460E+02
   6.080  0.1465E+01  0.1462E+02
   6.090  0.1461E+01  0.1463E+02
   6.100  0.1458E+01  0.1465E+02
   6.110  0.1455E+01  0.1466E+02
   6.120  0.1453E+01  0.1468E+02
   6.130  0.1452E+01  0.1469E+02
   6.140  0.1451E+01  0.1470E+02
   6.150  0.1451E+01  0.1472E+02
   6.160  0.1451E+01  0.1473E+02
   6.170  0.1453E+01  0.1475E+02
   6.180  0.1454E+01  0.1476E+02
   6.190  0.1456E+01  0.1478E+02
   6.200  0.1458E+01  0.1479E+02
   6.210  0.1461E+01  0.1481E+02
   6.220  0.1463E+01  0.1482E+02
   6.230  0.1465E+01  0.1484E+02
   6.240  0.1467E+01  0.1485E+02
   6.250  0.1469E+01  0.1487E+02
   6.260  0.1470E+01  0.1488E+02
   6.270  0.1471E+01  0.1489E+02
   6.280  0.1471E+01  0.1491E+02
   6.290  0.1471E+01  0.1492E+02
   6.300  0.1470E+01  0.1494E+02
   6.310  0.1469E+01  0.1495E+02
   6.320  0.1468E+01  0.1497E+02
   6.330  0.1466E+01  0.1498E+02
   6.340  0.1463E+01  0.1500E+02
   6.350  0.1461E+01  0.1501E+02
   6.360  0.1459E+01  0.1503E+02
   6.370  0.1456E+01  0.1504E+02
   6.380  0.1454E+01  0.1506E+02
   6.390  0.1452E+01  0.1507E+02
   6.400  0.1450E+01  0.1508E+02
   6.410  0.1448E+01  0.1510E+02
   6.420  0.1446E+01  0.1511E+02
   6.430  0.1445E+01  0.1513E+02
   6.440  0.1445E+01  0.1514E+02
   6.450  0.1444E+01  0.1516E+02
   6.460  0.1444E+01  0.1517E+02
   6.470  0.1444E+01  0.1519E+02
   6.480  0.1445E+01  0.1520E+02
   6.490  0.1445E+01  0.1521E+02
   6.500  0.1446E+01  0.1523E+02
   6.510  0.1447E+01  0.1524E+02
   6.520  0.1448E+01  0.1526E+02
   6.530  0.1450E+01  0.1527E+02
   6.540  0.1452E+01  0.1529E+02
   6.550  0.1454E+01  0.1530E+02
   6.560  0.1457E+01  0.1532E+02
   6.570  0.1460E+01  0.1533E+02
   6.580  0.1465E+01  0.1535E+02
   6.590  0.1470E+01  0.1536E+02
   6.600  0.1477E+01  0.1538E+02
   6.610  0.1485E+01  0.1539E+02
   6.620  0.1495E+01  0.1540E+02
   6.630  0.1507E+01  0.1542E+02
   6.640  0.1520E+01  0.1544E+02
   6.650  0.1535E+01  0.1545E+02
   6.660  0.1552E+01  0.1547E+02
   6.670  0.1570E+01  0.1548E+02
   6.680  0.1590E+01  0.1550E+02
   6.690  0.1611E+01  0.1551E+02
   6.700  0.1633E+01  0.1553E+02
   6.710  0.1656E+01  0.1555E+02
   6.720  0.1679E+01  0.1556E+02
   6.730  0.1702E+01  0.1558E+02
   6.740  0.1725E+01  0.1560E+02
   6.750  0.1748E+01  0.1562E+02
   6.760  0.1770E+01  0.1563E+02
   6.770  0.1791E+01  0.1565E+02
   6.780  0.1811E+01  0.1567E+02
   6.790  0.1829E+01  0.1569E+02
   6.800  0.1847E+01  0.1571E+02
   6.810  0.1863E+01  0.1572E+02
   6.820  0.1878E+01  0.1574E+02
   6.830  0.1892E+01  0.1576E+02
   6.840  0.1905E+01  0.1578E+02
   6.850  0.1918E+01  0.1580E+02
   6.860  0.1931E+01  0.1582E+02
   6.870  0.1944E+01  0.1584E+02
   6.880  0.1958E+01  0.1586E+02
   6.890  0.1973E+01  0.1588E+02
   6.900  0.1989E+01  0.1590E+02
   6.910  0.2007E+01  0.1592E+02
   6.920  0.2027E+01  0.1594E+02
   6.930  0.2048E+01  0.1596E+02
   6.940  0.2072E+01  0.1598E+02
   6.950  0.2098E+01  0.1600E+02
   6.960  0.2125E+01  0.1602E+02
   6.970  0.2154E+01  0.1604E+02
   6.980  0.2185E+01  0.1607E+02
   6.990  0.2215E+01  0.1609E+02
   7.000  0.2246E+01  0.1611E+02
   7.010  0.2277E+01  0.1613E+02
   7.020  0.2307E+01  0.1616E+02
   7.030  0.2334E+01  0.1618E+02
   7.040  0.2360E+01  0.1620E+02
   7.050  0.2383E+01  0.1623E+02
   7.060  0.2403E+01  0.1625E+02
   7.070  0.2419E+01  0.1627E+02
   7.080  0.2432E+01  0.1630E+02
   7.090  0.2441E+01  0.1632E+02
   7.100  0.2446E+01  0.1635E+02
   7.110  0.2447E+01  0.1637E+02
   7.120  0.2445E+01  0.1640E+02
   7.130  0.2441E+01  0.1642E+02
   7.140  0.2434E+01  0.1645E+02
   7.150  0.2426E+01  0.1647E+02
   7.160  0.2416E+01  0.1649E+02
   7.170  0.2406E+01  0.1652E+02
   7.180  0.2396E+01  0.1654E+02
   7.190  0.2387E+01  0.1657E+02
   7.200  0.2380E+01  0.1659E+02
   7.210  0.2374E+01  0.1661E+02
   7.220  0.2371E+01  0.1664E+02
   7.230  0.2371E+01  0.1666E+02
   7.240  0.2374E+01  0.1668E+02
   7.250  0.2379E+01  0.1671E+02
   7.260  0.2388E+01  0.1673E+02
   7.270  0.2399E+01  0.1676E+02
   7.280  0.2414E+01  0.1678E+02
   7.290  0.2431E+01  0.1680E+02
   7.300  0.2451E+01  0.1683E+02
   7.310  0.2473E+01  0.1685E+02
   7.320  0.2496E+01  0.1688E+02
   7.330  0.2521E+01  0.1690E+02
   7.340  0.2547E+01  0.1693E+02
   7.350  0.2574E+01  0.1696E+02
   7.360  0.2600E+01  0.1698E+02
   7.370  0.2627E+01  0.1701E+02
   7.380  0.2652E+01  0.1703E+02
   7.390  0.2677E+01  0.1706E+02
   7.400  0.2700E+01  0.1709E+02
   7.410  0.2721E+01  0.1712E+02
   7.420  0.2740E+01  0.1714E+02
   7.430  0.2756E+01  0.1717E+02
   7.440  0.2770E+01  0.1720E+02
   7.450  0.2781E+01  0.1723E+02
   7.460  0.2789E+01  0.1725E+02
   7.470  0.2794E+01  0.1728E+02
   7.480  0.2796E+01  0.1731E+02
   7.490  0.2795E+01  0.1734E+02
   7.500  0.2792E+01  0.1737E+02
   7.510  0.2787E+01  0.1739E+02
   7.520  0.2781E+01  0.1742E+02
   7.530  0.2774E+01  0.1745E+02
   7.540  0.2766E+01  0.1748E+02
   7.550  0.2759E+01  0.1750E+02
   7.560  0.2753E+01  0.1753E+02
   7.570  0.2749E+01  0.1756E+02
   7.580  0.2748E+01  0.1759E+02
   7.590  0.2749E+01  0.1761E+02
   7.600  0.2754E+01  0.1764E+02
   7.610  0.2763E+01  0.1767E+02
   7.620  0.2776E+01  0.1770E+02
   7.630  0.2792E+01  0.1772E+02
   7.640  0.2813E+01  0.1775E+02
   7.650  0.2837E+01  0.1778E+02
   7.660  0.2864E+01  0.1781E+02
   7.670  0.2895E+01  0.1784E+02
   7.680  0.2928E+01  0.1787E+02
   7.690  0.2964E+01  0.1790E+02
   7.700  0.3001E+01  0.1793E+02
   7.710  0.3039E+01  0.1796E+02
   7.720  0.3079E+01  0.1799E+02
   7.730  0.3119E+01  0.1802E+02
   7.740  0.3159E+01  0.1805E+02
   7.750  0.3200E+01  0.1808E+02
   7.760  0.3241E+01  0.1812E+02
   7.770  0.3281E+01  0.1815E+02
   7.780  0.3321E+01  0.1818E+02
   7.790  0.3360E+01  0.1822E+02
   7.800  0.3398E+01  0.1825E+02
   7.810  0.3434E+01  0.1828E+02
   7.820  0.3469E+01  0.1832E+02
   7.830  0.3502E+01  0.1835E+02
   7.840  0.3533E+01  0.1839E+02
   7.850  0.3560E+01  0.1842E+02
   7.860  0.3585E+01  0.1846E+02
   7.870  0.3605E+01  0.1850E+02
   7.880  0.3622E+01  0.1853E+02
   7.890  0.3634E+01  0.1857E+02
   7.900  0.3642E+01  0.1861E+02
   7.910  0.3645E+01  0.1864E+02
   7.920  0.3644E+01  0.1868E+02
   7.930  0.3638E+01  0.1871E+02
   7.940  0.3628E+01  0.1875E+02
   7.950  0.3614E+01  0.1879E+02
   7.960  0.3596E+01  0.1882E+02
   7.970  0.3575E+01  0.1886E+02
   7.980  0.3551E+01  0.1889E+02
   7.990  0.3524E+01  0.1893E+02
   8.000  0.3494E+01  0.1896E+02
   8.010  0.3463E+01  0.1900E+02
   8.020  0.3429E+01  0.1903E+02
   8.030  0.3393E+01  0.1907E+02
   8.040  0.3356E+01  0.1910E+02
   8.050  0.3317E+01  0.1913E+02
   8.060  0.3277E+01  0.1917E+02
   8.070  0.3235E+01  0.1920E+02
   8.080  0.3191E+01  0.1923E+02
   8.090  0.3145E+01  0.1926E+02
   8.100  0.3098E+01  0.1929E+02
   8.110  0.3049E+01  0.1932E+02
   8.120  0.3000E+01  0.1935E+02
   8.130  0.2949E+01  0.1938E+02
   8.140  0.2898E+01  0.1941E+02
   8.150  0.2847E+01  0.1944E+02
   8.160  0.2796E+01  0.1947E+02
   8.170  0.2746E+01  0.1950E+02
   8.180  0.2697E+01  0.1952E+02
   8.190  0.2650E+01  0.1955E+02
   8.200  0.2606E+01  0.1958E+02
   8.210  0.2564E+01  0.1960E+02
   8.220  0.2525E+01  0.1963E+02
   8.230  0.2489E+01  0.1965E+02
   8.240  0.2457E+01  0.1968E+02
   8.250  0.2429E+01  0.1970E+02
   8.260  0.2404E+01  0.1972E+02
   8.270  0.2381E+01  0.1975E+02
   8.280  0.2362E+01  0.1977E+02
   8.290  0.2345E+01  0.1980E+02
   8.300  0.2331E+01  0.1982E+02
   8.310  0.2318E+01  0.1984E+02
   8.320  0.2305E+01  0.1987E+02
   8.330  0.2294E+01  0.1989E+02
   8.340  0.2282E+01  0.1991E+02
   8.350  0.2270E+01  0.1993E+02
   8.360  0.2256E+01  0.1996E+02
   8.370  0.2242E+01  0.1998E+02
   8.380  0.2225E+01  0.2000E+02
   8.390  0.2206E+01  0.2002E+02
   8.400  0.2185E+01  0.2004E+02
   8.410  0.2161E+01  0.2007E+02
   8.420  0.2135E+01  0.2009E+02
   8.430  0.2106E+01  0.2011E+02
   8.440  0.2075E+01  0.2013E+02
   8.450  0.2042E+01  0.2015E+02
   8.460  0.2007E+01  0.2017E+02
   8.470  0.1971E+01  0.2019E+02
   8.480  0.1935E+01  0.2021E+02
   8.490  0.1898E+01  0.2023E+02
   8.500  0.1862E+01  0.2025E+02
   8.510  0.1828E+01  0.2027E+02
   8.520  0.1795E+01  0.2028E+02
   8.530  0.1765E+01  0.2030E+02
   8.540  0.1737E+01  0.2032E+02
   8.550  0.1713E+01  0.2034E+02
   8.560  0.1693E+01  0.2035E+02
   8.570  0.1677E+01  0.2037E+02
   8.580  0.1664E+01  0.2039E+02
   8.590  0.1655E+01  0.2040E+02
   8.600  0.1650E+01  0.2042E+02
   8.610  0.1648E+01  0.2044E+02
   8.620  0.1648E+01  0.2045E+02
   8.630  0.1651E+01  0.2047E+02
   8.640  0.1655E+01  0.2048E+02
   8.650  0.1661E+01  0.2050E+02
   8.660  0.1666E+01  0.2052E+02
   8.670  0.1672E+01  0.2053E+02
   8.680  0.1677E+01  0.2055E+02
   8.690  0.1682E+01  0.2057E+02
   8.700  0.1685E+01  0.2059E+02
   8.710  0.1686E+01  0.2060E+02
   8.720  0.1686E+01  0.2062E+02
   8.730  0.1684E+01  0.2064E+02
   8.740  0.1681E+01  0.2065E+02
   8.750  0.1676E+01  0.2067E+02
   8.760  0.1670E+01  0.2069E+02
   8.770  0.1662E+01  0.2070E+02
   8.780  0.1654E+01  0.2072E+02
   8.790  0.1646E+01  0.2074E+02
   8.800  0.1637E+01  0.2075E+02
   8.810  0.1628E+01  0.2077E+02
   8.820  0.1619E+01  0.2078E+02
   8.830  0.1611E+01  0.2080E+02
   8.840  0.1603E+01  0.2082E+02
   8.850  0.1596E+01  0.2083E+02
   8.860  0.1590E+01  0.2085E+02
   8.870  0.1584E+01  0.2086E+02
   8.880  0.1579E+01  0.2088E+02
   8.890  0.1575E+01  0.2090E+02
   8.900  0.1572E+01  0.2091E+02
   8.910  0.1569E+01  0.2093E+02
   8.920  0.1567E+01  0.2094E+02
   8.930  0.1564E+01  0.2096E+02
   8.940  0.1562E+01  0.2097E+02
   8.950  0.1560E+01  0.2099E+02
   8.960  0.1558E+01  0.2101E+02
   8.970  0.1556E+01  0.2102E+02
   8.980  0.1553E+01  0.2104E+02
   8.990  0.1550E+01  0.2105E+02
   9.000  0.1547E+01  0.2107E+02
   9.010  0.1543E+01  0.2108E+02
   9.020  0.1539E+01  0.2110E+02
   9.030  0.1535E+01  0.2111E+02
   9.040  0.1531E+01  0.2113E+02
   9.050  0.1527E+01  0.2114E+02
   9.060  0.1523E+01  0.2116E+02
   9.070  0.1520E+01  0.2117E+02
   9.080  0.1517E+01  0.2119E+02
   9.090  0.1514E+01  0.2120E+02
   9.100  0.1512E+01  0.2122E+02
   9.110  0.1511E+01  0.2123E+02
   9.120  0.1511E+01  0.2125E+02
   9.130  0.1511E+01  0.2127E+02
   9.140  0.1513E+01  0.2128E+02
   9.150  0.1515E+01  0.2130E+02
   9.160  0.1517E+01  0.2131E+02
   9.170  0.1521E+01  0.2133E+02
   9.180  0.1525E+01  0.2134E+02
   9.190  0.1529E+01  0.2136E+02
   9.200  0.1534E+01  0.2137E+02
   9.210  0.1538E+01  0.2139E+02
   9.220  0.1543E+01  0.2140E+02
   9.230  0.1547E+01  0.2142E+02
   9.240  0.1551E+01  0.2143E+02
   9.250  0.1555E+01  0.2145E+02
   9.260  0.1557E+01  0.2146E+02
   9.270  0.1559E+01  0.2148E+02
   9.280  0.1560E+01  0.2150E+02
   9.290  0.1559E+01  0.2151E+02
   9.300  0.1557E+01  0.2153E+02
   9.310  0.1554E+01  0.2154E+02
   9.320  0.1549E+01  0.2156E+02
   9.330  0.1543E+01  0.2157E+02
   9.340  0.1535E+01  0.2159E+02
   9.350  0.1526E+01  0.2160E+02
   9.360  0.1515E+01  0.2162E+02
   9.370  0.1503E+01  0.2163E+02
   9.380  0.1491E+01  0.2165E+02
   9.390  0.1477E+01  0.2166E+02
   9.400  0.1464E+01  0.2168E+02
   9.410  0.1451E+01  0.2169E+02
   9.420  0.1438E+01  0.2171E+02
   9.430  0.1426E+01  0.2172E+02
   9.440  0.1416E+01  0.2174E+02
   9.450  0.1407E+01  0.2175E+02
   9.460  0.1401E+01  0.2176E+02
   9.470  0.1398E+01  0.2178E+02
   9.480  0.1397E+01  0.2179E+02
   9.490  0.1400E+01  0.2181E+02
   9.500  0.1406E+01  0.2182E+02
   9.510  0.1415E+01  0.2183E+02
   9.520  0.1427E+01  0.2185E+02
   9.530  0.1441E+01  0.2186E+02
   9.540  0.1458E+01  0.2188E+02
   9.550  0.1477E+01  0.2189E+02
   9.560  0.1497E+01  0.2191E+02
   9.570  0.1517E+01  0.2192E+02
   9.580  0.1538E+01  0.2194E+02
   9.590  0.1557E+01  0.2195E+02
   9.600  0.1575E+01  0.2197E+02
   9.610  0.1592E+01  0.2198E+02
   9.620  0.1606E+01  0.2200E+02
   9.630  0.1617E+01  0.2202E+02
   9.640  0.1626E+01  0.2203E+02
   9.650  0.1632E+01  0.2205E+02
   9.660  0.1635E+01  0.2207E+02
   9.670  0.1636E+01  0.2208E+02
   9.680  0.1634E+01  0.2210E+02
   9.690  0.1632E+01  0.2212E+02
   9.700  0.1628E+01  0.2213E+02
   9.710  0.1623E+01  0.2215E+02
   9.720  0.1620E+01  0.2216E+02
   9.730  0.1617E+01  0.2218E+02
   9.740  0.1615E+01  0.2220E+02
   9.750  0.1616E+01  0.2221E+02
   9.760  0.1619E+01  0.2223E+02
   9.770  0.1625E+01  0.2224E+02
   9.780  0.1633E+01  0.2226E+02
   9.790  0.1646E+01  0.2228E+02
   9.800  0.1661E+01  0.2229E+02
   9.810  0.1679E+01  0.2231E+02
   9.820  0.1700E+01  0.2233E+02
   9.830  0.1723E+01  0.2235E+02
   9.840  0.1748E+01  0.2236E+02
   9.850  0.1775E+01  0.2238E+02
   9.860  0.1803E+01  0.2240E+02
   9.870  0.1832E+01  0.2242E+02
   9.880  0.1861E+01  0.2244E+02
   9.890  0.1889E+01  0.2245E+02
   9.900  0.1917E+01  0.2247E+02
   9.910  0.1944E+01  0.2249E+02
   9.920  0.1969E+01  0.2251E+02
   9.930  0.1992E+01  0.2253E+02
   9.940  0.2012E+01  0.2255E+02
   9.950  0.2030E+01  0.2257E+02
   9.960  0.2045E+01  0.2259E+02
   9.970  0.2058E+01  0.2261E+02
   9.980  0.2067E+01  0.2263E+02
   9.990  0.2073E+01  0.2266E+02
  10.000  0.2076E+01  0.2268E+02
