#  E (eV)   dos(E)     Int dos(E) EFermi =   -0.536 eV
 -10.000  0.1130E+01  0.1130E-01
  -9.990  0.1142E+01  0.2272E-01
  -9.980  0.1149E+01  0.3421E-01
  -9.970  0.1149E+01  0.4570E-01
  -9.960  0.1143E+01  0.5714E-01
  -9.950  0.1131E+01  0.6845E-01
  -9.940  0.1113E+01  0.7959E-01
  -9.930  0.1090E+01  0.9048E-01
  -9.920  0.1061E+01  0.1011E+00
  -9.910  0.1027E+01  0.1114E+00
  -9.900  0.9882E+00  0.1212E+00
  -9.890  0.9455E+00  0.1307E+00
  -9.880  0.8993E+00  0.1397E+00
  -9.870  0.8502E+00  0.1482E+00
  -9.860  0.7988E+00  0.1562E+00
  -9.850  0.7460E+00  0.1636E+00
  -9.840  0.6923E+00  0.1706E+00
  -9.830  0.6385E+00  0.1769E+00
  -9.820  0.5853E+00  0.1828E+00
  -9.810  0.5335E+00  0.1881E+00
  -9.800  0.4836E+00  0.1930E+00
  -9.790  0.4365E+00  0.1973E+00
  -9.780  0.3926E+00  0.2013E+00
  -9.770  0.3526E+00  0.2048E+00
  -9.760  0.3168E+00  0.2080E+00
  -9.750  0.2858E+00  0.2108E+00
  -9.740  0.2598E+00  0.2134E+00
  -9.730  0.2391E+00  0.2158E+00
  -9.720  0.2240E+00  0.2180E+00
  -9.710  0.2145E+00  0.2202E+00
  -9.700  0.2107E+00  0.2223E+00
  -9.690  0.2126E+00  0.2244E+00
  -9.680  0.2200E+00  0.2266E+00
  -9.670  0.2329E+00  0.2289E+00
  -9.660  0.2509E+00  0.2315E+00
  -9.650  0.2738E+00  0.2342E+00
  -9.640  0.3011E+00  0.2372E+00
  -9.630  0.3325E+00  0.2405E+00
  -9.620  0.3675E+00  0.2442E+00
  -9.610  0.4056E+00  0.2483E+00
  -9.600  0.4463E+00  0.2527E+00
  -9.590  0.4890E+00  0.2576E+00
  -9.580  0.5333E+00  0.2629E+00
  -9.570  0.5786E+00  0.2687E+00
  -9.560  0.6247E+00  0.2750E+00
  -9.550  0.6712E+00  0.2817E+00
  -9.540  0.7177E+00  0.2889E+00
  -9.530  0.7641E+00  0.2965E+00
  -9.520  0.8103E+00  0.3046E+00
  -9.510  0.8563E+00  0.3132E+00
  -9.500  0.9019E+00  0.3222E+00
  -9.490  0.9473E+00  0.3317E+00
  -9.480  0.9923E+00  0.3416E+00
  -9.470  0.1037E+01  0.3520E+00
  -9.460  0.1081E+01  0.3628E+00
  -9.450  0.1125E+01  0.3740E+00
  -9.440  0.1168E+01  0.3857E+00
  -9.430  0.1210E+01  0.3978E+00
  -9.420  0.1250E+01  0.4103E+00
  -9.410  0.1287E+01  0.4232E+00
  -9.400  0.1322E+01  0.4364E+00
  -9.390  0.1352E+01  0.4499E+00
  -9.380  0.1379E+01  0.4637E+00
  -9.370  0.1400E+01  0.4777E+00
  -9.360  0.1415E+01  0.4918E+00
  -9.350  0.1423E+01  0.5061E+00
  -9.340  0.1425E+01  0.5203E+00
  -9.330  0.1420E+01  0.5345E+00
  -9.320  0.1408E+01  0.5486E+00
  -9.310  0.1388E+01  0.5625E+00
  -9.300  0.1363E+01  0.5761E+00
  -9.290  0.1331E+01  0.5894E+00
  -9.280  0.1295E+01  0.6024E+00
  -9.270  0.1254E+01  0.6149E+00
  -9.260  0.1210E+01  0.6270E+00
  -9.250  0.1164E+01  0.6387E+00
  -9.240  0.1117E+01  0.6498E+00
  -9.230  0.1070E+01  0.6605E+00
  -9.220  0.1023E+01  0.6708E+00
  -9.210  0.9776E+00  0.6805E+00
  -9.200  0.9341E+00  0.6899E+00
  -9.190  0.8928E+00  0.6988E+00
  -9.180  0.8538E+00  0.7073E+00
  -9.170  0.8172E+00  0.7155E+00
  -9.160  0.7827E+00  0.7233E+00
  -9.150  0.7501E+00  0.7308E+00
  -9.140  0.7189E+00  0.7380E+00
  -9.130  0.6888E+00  0.7449E+00
  -9.120  0.6592E+00  0.7515E+00
  -9.110  0.6298E+00  0.7578E+00
  -9.100  0.6003E+00  0.7638E+00
  -9.090  0.5703E+00  0.7695E+00
  -9.080  0.5398E+00  0.7749E+00
  -9.070  0.5087E+00  0.7800E+00
  -9.060  0.4772E+00  0.7848E+00
  -9.050  0.4454E+00  0.7892E+00
  -9.040  0.4138E+00  0.7934E+00
  -9.030  0.3827E+00  0.7972E+00
  -9.020  0.3527E+00  0.8007E+00
  -9.010  0.3244E+00  0.8040E+00
  -9.000  0.2984E+00  0.8070E+00
  -8.990  0.2753E+00  0.8097E+00
  -8.980  0.2559E+00  0.8123E+00
  -8.970  0.2406E+00  0.8147E+00
  -8.960  0.2302E+00  0.8170E+00
  -8.950  0.2253E+00  0.8192E+00
  -8.940  0.2262E+00  0.8215E+00
  -8.930  0.2337E+00  0.8238E+00
  -8.920  0.2479E+00  0.8263E+00
  -8.910  0.2693E+00  0.8290E+00
  -8.900  0.2981E+00  0.8320E+00
  -8.890  0.3345E+00  0.8353E+00
  -8.880  0.3783E+00  0.8391E+00
  -8.870  0.4296E+00  0.8434E+00
  -8.860  0.4879E+00  0.8483E+00
  -8.850  0.5529E+00  0.8538E+00
  -8.840  0.6238E+00  0.8600E+00
  -8.830  0.6999E+00  0.8670E+00
  -8.820  0.7802E+00  0.8748E+00
  -8.810  0.8634E+00  0.8835E+00
  -8.800  0.9484E+00  0.8930E+00
  -8.790  0.1034E+01  0.9033E+00
  -8.780  0.1117E+01  0.9145E+00
  -8.770  0.1199E+01  0.9265E+00
  -8.760  0.1275E+01  0.9392E+00
  -8.750  0.1346E+01  0.9527E+00
  -8.740  0.1410E+01  0.9668E+00
  -8.730  0.1466E+01  0.9814E+00
  -8.720  0.1512E+01  0.9966E+00
  -8.710  0.1549E+01  0.1012E+01
  -8.700  0.1576E+01  0.1028E+01
  -8.690  0.1593E+01  0.1044E+01
  -8.680  0.1600E+01  0.1060E+01
  -8.670  0.1598E+01  0.1076E+01
  -8.660  0.1588E+01  0.1092E+01
  -8.650  0.1570E+01  0.1107E+01
  -8.640  0.1547E+01  0.1123E+01
  -8.630  0.1519E+01  0.1138E+01
  -8.620  0.1487E+01  0.1153E+01
  -8.610  0.1454E+01  0.1167E+01
  -8.600  0.1420E+01  0.1182E+01
  -8.590  0.1387E+01  0.1195E+01
  -8.580  0.1354E+01  0.1209E+01
  -8.570  0.1324E+01  0.1222E+01
  -8.560  0.1296E+01  0.1235E+01
  -8.550  0.1271E+01  0.1248E+01
  -8.540  0.1249E+01  0.1260E+01
  -8.530  0.1230E+01  0.1273E+01
  -8.520  0.1213E+01  0.1285E+01
  -8.510  0.1197E+01  0.1297E+01
  -8.500  0.1184E+01  0.1309E+01
  -8.490  0.1170E+01  0.1320E+01
  -8.480  0.1157E+01  0.1332E+01
  -8.470  0.1144E+01  0.1343E+01
  -8.460  0.1130E+01  0.1355E+01
  -8.450  0.1114E+01  0.1366E+01
  -8.440  0.1096E+01  0.1377E+01
  -8.430  0.1077E+01  0.1388E+01
  -8.420  0.1056E+01  0.1398E+01
  -8.410  0.1033E+01  0.1408E+01
  -8.400  0.1009E+01  0.1419E+01
  -8.390  0.9829E+00  0.1428E+01
  -8.380  0.9563E+00  0.1438E+01
  -8.370  0.9294E+00  0.1447E+01
  -8.360  0.9030E+00  0.1456E+01
  -8.350  0.8775E+00  0.1465E+01
  -8.340  0.8538E+00  0.1474E+01
  -8.330  0.8325E+00  0.1482E+01
  -8.320  0.8144E+00  0.1490E+01
  -8.310  0.8003E+00  0.1498E+01
  -8.300  0.7907E+00  0.1506E+01
  -8.290  0.7861E+00  0.1514E+01
  -8.280  0.7872E+00  0.1522E+01
  -8.270  0.7943E+00  0.1530E+01
  -8.260  0.8077E+00  0.1538E+01
  -8.250  0.8275E+00  0.1546E+01
  -8.240  0.8536E+00  0.1554E+01
  -8.230  0.8860E+00  0.1563E+01
  -8.220  0.9242E+00  0.1573E+01
  -8.210  0.9678E+00  0.1582E+01
  -8.200  0.1016E+01  0.1592E+01
  -8.190  0.1068E+01  0.1603E+01
  -8.180  0.1123E+01  0.1614E+01
  -8.170  0.1180E+01  0.1626E+01
  -8.160  0.1237E+01  0.1639E+01
  -8.150  0.1294E+01  0.1651E+01
  -8.140  0.1347E+01  0.1665E+01
  -8.130  0.1398E+01  0.1679E+01
  -8.120  0.1443E+01  0.1693E+01
  -8.110  0.1482E+01  0.1708E+01
  -8.100  0.1513E+01  0.1723E+01
  -8.090  0.1535E+01  0.1739E+01
  -8.080  0.1549E+01  0.1754E+01
  -8.070  0.1552E+01  0.1770E+01
  -8.060  0.1546E+01  0.1785E+01
  -8.050  0.1530E+01  0.1800E+01
  -8.040  0.1505E+01  0.1815E+01
  -8.030  0.1471E+01  0.1830E+01
  -8.020  0.1430E+01  0.1844E+01
  -8.010  0.1384E+01  0.1858E+01
  -8.000  0.1333E+01  0.1872E+01
  -7.990  0.1279E+01  0.1884E+01
  -7.980  0.1225E+01  0.1897E+01
  -7.970  0.1172E+01  0.1908E+01
  -7.960  0.1122E+01  0.1920E+01
  -7.950  0.1077E+01  0.1930E+01
  -7.940  0.1039E+01  0.1941E+01
  -7.930  0.1009E+01  0.1951E+01
  -7.920  0.9878E+00  0.1961E+01
  -7.910  0.9767E+00  0.1970E+01
  -7.900  0.9762E+00  0.1980E+01
  -7.890  0.9864E+00  0.1990E+01
  -7.880  0.1007E+01  0.2000E+01
  -7.870  0.1038E+01  0.2011E+01
  -7.860  0.1079E+01  0.2021E+01
  -7.850  0.1128E+01  0.2033E+01
  -7.840  0.1184E+01  0.2044E+01
  -7.830  0.1245E+01  0.2057E+01
  -7.820  0.1310E+01  0.2070E+01
  -7.810  0.1377E+01  0.2084E+01
  -7.800  0.1444E+01  0.2098E+01
  -7.790  0.1510E+01  0.2113E+01
  -7.780  0.1571E+01  0.2129E+01
  -7.770  0.1627E+01  0.2145E+01
  -7.760  0.1676E+01  0.2162E+01
  -7.750  0.1717E+01  0.2179E+01
  -7.740  0.1749E+01  0.2197E+01
  -7.730  0.1772E+01  0.2214E+01
  -7.720  0.1784E+01  0.2232E+01
  -7.710  0.1786E+01  0.2250E+01
  -7.700  0.1779E+01  0.2268E+01
  -7.690  0.1763E+01  0.2286E+01
  -7.680  0.1739E+01  0.2303E+01
  -7.670  0.1708E+01  0.2320E+01
  -7.660  0.1672E+01  0.2337E+01
  -7.650  0.1632E+01  0.2353E+01
  -7.640  0.1590E+01  0.2369E+01
  -7.630  0.1547E+01  0.2384E+01
  -7.620  0.1505E+01  0.2400E+01
  -7.610  0.1464E+01  0.2414E+01
  -7.600  0.1427E+01  0.2428E+01
  -7.590  0.1393E+01  0.2442E+01
  -7.580  0.1364E+01  0.2456E+01
  -7.570  0.1340E+01  0.2469E+01
  -7.560  0.1321E+01  0.2483E+01
  -7.550  0.1308E+01  0.2496E+01
  -7.540  0.1301E+01  0.2509E+01
  -7.530  0.1298E+01  0.2522E+01
  -7.520  0.1301E+01  0.2535E+01
  -7.510  0.1307E+01  0.2548E+01
  -7.500  0.1318E+01  0.2561E+01
  -7.490  0.1331E+01  0.2574E+01
  -7.480  0.1347E+01  0.2588E+01
  -7.470  0.1364E+01  0.2601E+01
  -7.460  0.1383E+01  0.2615E+01
  -7.450  0.1403E+01  0.2629E+01
  -7.440  0.1423E+01  0.2643E+01
  -7.430  0.1444E+01  0.2658E+01
  -7.420  0.1464E+01  0.2673E+01
  -7.410  0.1485E+01  0.2687E+01
  -7.400  0.1507E+01  0.2702E+01
  -7.390  0.1529E+01  0.2718E+01
  -7.380  0.1553E+01  0.2733E+01
  -7.370  0.1579E+01  0.2749E+01
  -7.360  0.1607E+01  0.2765E+01
  -7.350  0.1639E+01  0.2782E+01
  -7.340  0.1674E+01  0.2798E+01
  -7.330  0.1714E+01  0.2815E+01
  -7.320  0.1758E+01  0.2833E+01
  -7.310  0.1807E+01  0.2851E+01
  -7.300  0.1860E+01  0.2870E+01
  -7.290  0.1916E+01  0.2889E+01
  -7.280  0.1974E+01  0.2909E+01
  -7.270  0.2034E+01  0.2929E+01
  -7.260  0.2094E+01  0.2950E+01
  -7.250  0.2152E+01  0.2971E+01
  -7.240  0.2207E+01  0.2993E+01
  -7.230  0.2257E+01  0.3016E+01
  -7.220  0.2300E+01  0.3039E+01
  -7.210  0.2335E+01  0.3062E+01
  -7.200  0.2360E+01  0.3086E+01
  -7.190  0.2376E+01  0.3110E+01
  -7.180  0.2380E+01  0.3134E+01
  -7.170  0.2374E+01  0.3157E+01
  -7.160  0.2357E+01  0.3181E+01
  -7.150  0.2330E+01  0.3204E+01
  -7.140  0.2295E+01  0.3227E+01
  -7.130  0.2253E+01  0.3250E+01
  -7.120  0.2204E+01  0.3272E+01
  -7.110  0.2152E+01  0.3293E+01
  -7.100  0.2098E+01  0.3314E+01
  -7.090  0.2044E+01  0.3335E+01
  -7.080  0.1991E+01  0.3355E+01
  -7.070  0.1941E+01  0.3374E+01
  -7.060  0.1896E+01  0.3393E+01
  -7.050  0.1858E+01  0.3411E+01
  -7.040  0.1826E+01  0.3430E+01
  -7.030  0.1803E+01  0.3448E+01
  -7.020  0.1788E+01  0.3466E+01
  -7.010  0.1782E+01  0.3483E+01
  -7.000  0.1786E+01  0.3501E+01
  -6.990  0.1799E+01  0.3519E+01
  -6.980  0.1822E+01  0.3538E+01
  -6.970  0.1853E+01  0.3556E+01
  -6.960  0.1892E+01  0.3575E+01
  -6.950  0.1938E+01  0.3594E+01
  -6.940  0.1990E+01  0.3614E+01
  -6.930  0.2047E+01  0.3635E+01
  -6.920  0.2108E+01  0.3656E+01
  -6.910  0.2171E+01  0.3678E+01
  -6.900  0.2234E+01  0.3700E+01
  -6.890  0.2296E+01  0.3723E+01
  -6.880  0.2355E+01  0.3746E+01
  -6.870  0.2408E+01  0.3770E+01
  -6.860  0.2455E+01  0.3795E+01
  -6.850  0.2493E+01  0.3820E+01
  -6.840  0.2520E+01  0.3845E+01
  -6.830  0.2537E+01  0.3870E+01
  -6.820  0.2540E+01  0.3896E+01
  -6.810  0.2530E+01  0.3921E+01
  -6.800  0.2507E+01  0.3946E+01
  -6.790  0.2470E+01  0.3971E+01
  -6.780  0.2420E+01  0.3995E+01
  -6.770  0.2357E+01  0.4019E+01
  -6.760  0.2283E+01  0.4042E+01
  -6.750  0.2201E+01  0.4064E+01
  -6.740  0.2111E+01  0.4085E+01
  -6.730  0.2016E+01  0.4105E+01
  -6.720  0.1919E+01  0.4124E+01
  -6.710  0.1821E+01  0.4142E+01
  -6.700  0.1727E+01  0.4159E+01
  -6.690  0.1637E+01  0.4176E+01
  -6.680  0.1554E+01  0.4191E+01
  -6.670  0.1480E+01  0.4206E+01
  -6.660  0.1416E+01  0.4220E+01
  -6.650  0.1364E+01  0.4234E+01
  -6.640  0.1324E+01  0.4247E+01
  -6.630  0.1296E+01  0.4260E+01
  -6.620  0.1280E+01  0.4273E+01
  -6.610  0.1275E+01  0.4286E+01
  -6.600  0.1279E+01  0.4299E+01
  -6.590  0.1291E+01  0.4311E+01
  -6.580  0.1310E+01  0.4325E+01
  -6.570  0.1334E+01  0.4338E+01
  -6.560  0.1359E+01  0.4351E+01
  -6.550  0.1385E+01  0.4365E+01
  -6.540  0.1410E+01  0.4379E+01
  -6.530  0.1432E+01  0.4394E+01
  -6.520  0.1449E+01  0.4408E+01
  -6.510  0.1461E+01  0.4423E+01
  -6.500  0.1467E+01  0.4438E+01
  -6.490  0.1467E+01  0.4452E+01
  -6.480  0.1462E+01  0.4467E+01
  -6.470  0.1451E+01  0.4481E+01
  -6.460  0.1435E+01  0.4496E+01
  -6.450  0.1416E+01  0.4510E+01
  -6.440  0.1394E+01  0.4524E+01
  -6.430  0.1372E+01  0.4538E+01
  -6.420  0.1350E+01  0.4551E+01
  -6.410  0.1331E+01  0.4564E+01
  -6.400  0.1314E+01  0.4577E+01
  -6.390  0.1301E+01  0.4590E+01
  -6.380  0.1292E+01  0.4603E+01
  -6.370  0.1290E+01  0.4616E+01
  -6.360  0.1293E+01  0.4629E+01
  -6.350  0.1302E+01  0.4642E+01
  -6.340  0.1317E+01  0.4655E+01
  -6.330  0.1338E+01  0.4669E+01
  -6.320  0.1364E+01  0.4682E+01
  -6.310  0.1395E+01  0.4696E+01
  -6.300  0.1429E+01  0.4711E+01
  -6.290  0.1467E+01  0.4725E+01
  -6.280  0.1508E+01  0.4740E+01
  -6.270  0.1550E+01  0.4756E+01
  -6.260  0.1593E+01  0.4772E+01
  -6.250  0.1636E+01  0.4788E+01
  -6.240  0.1678E+01  0.4805E+01
  -6.230  0.1719E+01  0.4822E+01
  -6.220  0.1757E+01  0.4840E+01
  -6.210  0.1793E+01  0.4858E+01
  -6.200  0.1824E+01  0.4876E+01
  -6.190  0.1851E+01  0.4894E+01
  -6.180  0.1872E+01  0.4913E+01
  -6.170  0.1889E+01  0.4932E+01
  -6.160  0.1899E+01  0.4951E+01
  -6.150  0.1903E+01  0.4970E+01
  -6.140  0.1900E+01  0.4989E+01
  -6.130  0.1891E+01  0.5008E+01
  -6.120  0.1875E+01  0.5027E+01
  -6.110  0.1852E+01  0.5045E+01
  -6.100  0.1824E+01  0.5063E+01
  -6.090  0.1789E+01  0.5081E+01
  -6.080  0.1749E+01  0.5099E+01
  -6.070  0.1704E+01  0.5116E+01
  -6.060  0.1654E+01  0.5132E+01
  -6.050  0.1602E+01  0.5148E+01
  -6.040  0.1547E+01  0.5164E+01
  -6.030  0.1490E+01  0.5179E+01
  -6.020  0.1432E+01  0.5193E+01
  -6.010  0.1374E+01  0.5207E+01
  -6.000  0.1317E+01  0.5220E+01
  -5.990  0.1262E+01  0.5233E+01
  -5.980  0.1209E+01  0.5245E+01
  -5.970  0.1160E+01  0.5256E+01
  -5.960  0.1115E+01  0.5267E+01
  -5.950  0.1074E+01  0.5278E+01
  -5.940  0.1038E+01  0.5289E+01
  -5.930  0.1007E+01  0.5299E+01
  -5.920  0.9831E+00  0.5309E+01
  -5.910  0.9649E+00  0.5318E+01
  -5.900  0.9530E+00  0.5328E+01
  -5.890  0.9476E+00  0.5337E+01
  -5.880  0.9486E+00  0.5347E+01
  -5.870  0.9559E+00  0.5356E+01
  -5.860  0.9692E+00  0.5366E+01
  -5.850  0.9882E+00  0.5376E+01
  -5.840  0.1012E+01  0.5386E+01
  -5.830  0.1041E+01  0.5396E+01
  -5.820  0.1075E+01  0.5407E+01
  -5.810  0.1111E+01  0.5418E+01
  -5.800  0.1150E+01  0.5430E+01
  -5.790  0.1191E+01  0.5442E+01
  -5.780  0.1233E+01  0.5454E+01
  -5.770  0.1276E+01  0.5467E+01
  -5.760  0.1318E+01  0.5480E+01
  -5.750  0.1359E+01  0.5493E+01
  -5.740  0.1399E+01  0.5507E+01
  -5.730  0.1436E+01  0.5522E+01
  -5.720  0.1471E+01  0.5537E+01
  -5.710  0.1503E+01  0.5552E+01
  -5.700  0.1532E+01  0.5567E+01
  -5.690  0.1557E+01  0.5582E+01
  -5.680  0.1579E+01  0.5598E+01
  -5.670  0.1597E+01  0.5614E+01
  -5.660  0.1611E+01  0.5630E+01
  -5.650  0.1621E+01  0.5647E+01
  -5.640  0.1627E+01  0.5663E+01
  -5.630  0.1628E+01  0.5679E+01
  -5.620  0.1625E+01  0.5695E+01
  -5.610  0.1617E+01  0.5711E+01
  -5.600  0.1603E+01  0.5728E+01
  -5.590  0.1585E+01  0.5743E+01
  -5.580  0.1561E+01  0.5759E+01
  -5.570  0.1533E+01  0.5774E+01
  -5.560  0.1499E+01  0.5789E+01
  -5.550  0.1461E+01  0.5804E+01
  -5.540  0.1419E+01  0.5818E+01
  -5.530  0.1374E+01  0.5832E+01
  -5.520  0.1326E+01  0.5845E+01
  -5.510  0.1276E+01  0.5858E+01
  -5.500  0.1225E+01  0.5870E+01
  -5.490  0.1174E+01  0.5882E+01
  -5.480  0.1124E+01  0.5893E+01
  -5.470  0.1076E+01  0.5904E+01
  -5.460  0.1030E+01  0.5914E+01
  -5.450  0.9879E+00  0.5924E+01
  -5.440  0.9490E+00  0.5933E+01
  -5.430  0.9140E+00  0.5943E+01
  -5.420  0.8833E+00  0.5951E+01
  -5.410  0.8568E+00  0.5960E+01
  -5.400  0.8347E+00  0.5968E+01
  -5.390  0.8169E+00  0.5977E+01
  -5.380  0.8034E+00  0.5985E+01
  -5.370  0.7942E+00  0.5993E+01
  -5.360  0.7892E+00  0.6000E+01
  -5.350  0.7886E+00  0.6008E+01
  -5.340  0.7924E+00  0.6016E+01
  -5.330  0.8009E+00  0.6024E+01
  -5.320  0.8143E+00  0.6032E+01
  -5.310  0.8329E+00  0.6041E+01
  -5.300  0.8569E+00  0.6049E+01
  -5.290  0.8867E+00  0.6058E+01
  -5.280  0.9224E+00  0.6067E+01
  -5.270  0.9641E+00  0.6077E+01
  -5.260  0.1012E+01  0.6087E+01
  -5.250  0.1065E+01  0.6098E+01
  -5.240  0.1124E+01  0.6109E+01
  -5.230  0.1187E+01  0.6121E+01
  -5.220  0.1255E+01  0.6133E+01
  -5.210  0.1325E+01  0.6147E+01
  -5.200  0.1397E+01  0.6161E+01
  -5.190  0.1470E+01  0.6175E+01
  -5.180  0.1541E+01  0.6191E+01
  -5.170  0.1611E+01  0.6207E+01
  -5.160  0.1676E+01  0.6224E+01
  -5.150  0.1736E+01  0.6241E+01
  -5.140  0.1790E+01  0.6259E+01
  -5.130  0.1836E+01  0.6277E+01
  -5.120  0.1873E+01  0.6296E+01
  -5.110  0.1900E+01  0.6315E+01
  -5.100  0.1917E+01  0.6334E+01
  -5.090  0.1923E+01  0.6353E+01
  -5.080  0.1919E+01  0.6373E+01
  -5.070  0.1904E+01  0.6392E+01
  -5.060  0.1878E+01  0.6410E+01
  -5.050  0.1843E+01  0.6429E+01
  -5.040  0.1798E+01  0.6447E+01
  -5.030  0.1746E+01  0.6464E+01
  -5.020  0.1687E+01  0.6481E+01
  -5.010  0.1623E+01  0.6497E+01
  -5.000  0.1555E+01  0.6513E+01
  -4.990  0.1484E+01  0.6528E+01
  -4.980  0.1412E+01  0.6542E+01
  -4.970  0.1339E+01  0.6555E+01
  -4.960  0.1268E+01  0.6568E+01
  -4.950  0.1199E+01  0.6580E+01
  -4.940  0.1133E+01  0.6591E+01
  -4.930  0.1071E+01  0.6602E+01
  -4.920  0.1012E+01  0.6612E+01
  -4.910  0.9579E+00  0.6622E+01
  -4.900  0.9076E+00  0.6631E+01
  -4.890  0.8612E+00  0.6639E+01
  -4.880  0.8186E+00  0.6648E+01
  -4.870  0.7793E+00  0.6655E+01
  -4.860  0.7429E+00  0.6663E+01
  -4.850  0.7091E+00  0.6670E+01
  -4.840  0.6775E+00  0.6677E+01
  -4.830  0.6477E+00  0.6683E+01
  -4.820  0.6198E+00  0.6689E+01
  -4.810  0.5938E+00  0.6695E+01
  -4.800  0.5696E+00  0.6701E+01
  -4.790  0.5478E+00  0.6706E+01
  -4.780  0.5287E+00  0.6712E+01
  -4.770  0.5129E+00  0.6717E+01
  -4.760  0.5010E+00  0.6722E+01
  -4.750  0.4938E+00  0.6727E+01
  -4.740  0.4919E+00  0.6732E+01
  -4.730  0.4961E+00  0.6737E+01
  -4.720  0.5071E+00  0.6742E+01
  -4.710  0.5253E+00  0.6747E+01
  -4.700  0.5511E+00  0.6753E+01
  -4.690  0.5849E+00  0.6758E+01
  -4.680  0.6267E+00  0.6765E+01
  -4.670  0.6764E+00  0.6771E+01
  -4.660  0.7337E+00  0.6779E+01
  -4.650  0.7981E+00  0.6787E+01
  -4.640  0.8688E+00  0.6795E+01
  -4.630  0.9451E+00  0.6805E+01
  -4.620  0.1026E+01  0.6815E+01
  -4.610  0.1110E+01  0.6826E+01
  -4.600  0.1196E+01  0.6838E+01
  -4.590  0.1283E+01  0.6851E+01
  -4.580  0.1369E+01  0.6865E+01
  -4.570  0.1453E+01  0.6879E+01
  -4.560  0.1533E+01  0.6895E+01
  -4.550  0.1607E+01  0.6911E+01
  -4.540  0.1676E+01  0.6927E+01
  -4.530  0.1736E+01  0.6945E+01
  -4.520  0.1788E+01  0.6963E+01
  -4.510  0.1830E+01  0.6981E+01
  -4.500  0.1862E+01  0.7000E+01
  -4.490  0.1882E+01  0.7018E+01
  -4.480  0.1892E+01  0.7037E+01
  -4.470  0.1890E+01  0.7056E+01
  -4.460  0.1878E+01  0.7075E+01
  -4.450  0.1857E+01  0.7094E+01
  -4.440  0.1826E+01  0.7112E+01
  -4.430  0.1788E+01  0.7130E+01
  -4.420  0.1743E+01  0.7147E+01
  -4.410  0.1692E+01  0.7164E+01
  -4.400  0.1639E+01  0.7180E+01
  -4.390  0.1582E+01  0.7196E+01
  -4.380  0.1525E+01  0.7211E+01
  -4.370  0.1468E+01  0.7226E+01
  -4.360  0.1412E+01  0.7240E+01
  -4.350  0.1358E+01  0.7254E+01
  -4.340  0.1306E+01  0.7267E+01
  -4.330  0.1256E+01  0.7279E+01
  -4.320  0.1209E+01  0.7292E+01
  -4.310  0.1165E+01  0.7303E+01
  -4.300  0.1123E+01  0.7314E+01
  -4.290  0.1083E+01  0.7325E+01
  -4.280  0.1046E+01  0.7336E+01
  -4.270  0.1010E+01  0.7346E+01
  -4.260  0.9750E+00  0.7356E+01
  -4.250  0.9420E+00  0.7365E+01
  -4.240  0.9106E+00  0.7374E+01
  -4.230  0.8809E+00  0.7383E+01
  -4.220  0.8533E+00  0.7391E+01
  -4.210  0.8281E+00  0.7400E+01
  -4.200  0.8058E+00  0.7408E+01
  -4.190  0.7869E+00  0.7416E+01
  -4.180  0.7717E+00  0.7423E+01
  -4.170  0.7607E+00  0.7431E+01
  -4.160  0.7542E+00  0.7439E+01
  -4.150  0.7523E+00  0.7446E+01
  -4.140  0.7551E+00  0.7454E+01
  -4.130  0.7625E+00  0.7461E+01
  -4.120  0.7742E+00  0.7469E+01
  -4.110  0.7898E+00  0.7477E+01
  -4.100  0.8086E+00  0.7485E+01
  -4.090  0.8299E+00  0.7493E+01
  -4.080  0.8530E+00  0.7502E+01
  -4.070  0.8770E+00  0.7511E+01
  -4.060  0.9009E+00  0.7520E+01
  -4.050  0.9239E+00  0.7529E+01
  -4.040  0.9451E+00  0.7538E+01
  -4.030  0.9638E+00  0.7548E+01
  -4.020  0.9792E+00  0.7558E+01
  -4.010  0.9909E+00  0.7568E+01
  -4.000  0.9985E+00  0.7578E+01
  -3.990  0.1002E+01  0.7588E+01
  -3.980  0.1001E+01  0.7598E+01
  -3.970  0.9960E+00  0.7608E+01
  -3.960  0.9874E+00  0.7617E+01
  -3.950  0.9757E+00  0.7627E+01
  -3.940  0.9615E+00  0.7637E+01
  -3.930  0.9458E+00  0.7646E+01
  -3.920  0.9294E+00  0.7656E+01
  -3.910  0.9132E+00  0.7665E+01
  -3.900  0.8982E+00  0.7674E+01
  -3.890  0.8854E+00  0.7683E+01
  -3.880  0.8757E+00  0.7691E+01
  -3.870  0.8698E+00  0.7700E+01
  -3.860  0.8685E+00  0.7709E+01
  -3.850  0.8723E+00  0.7717E+01
  -3.840  0.8816E+00  0.7726E+01
  -3.830  0.8966E+00  0.7735E+01
  -3.820  0.9173E+00  0.7744E+01
  -3.810  0.9435E+00  0.7754E+01
  -3.800  0.9750E+00  0.7764E+01
  -3.790  0.1011E+01  0.7774E+01
  -3.780  0.1051E+01  0.7784E+01
  -3.770  0.1094E+01  0.7795E+01
  -3.760  0.1139E+01  0.7806E+01
  -3.750  0.1185E+01  0.7818E+01
  -3.740  0.1231E+01  0.7831E+01
  -3.730  0.1275E+01  0.7843E+01
  -3.720  0.1316E+01  0.7857E+01
  -3.710  0.1354E+01  0.7870E+01
  -3.700  0.1387E+01  0.7884E+01
  -3.690  0.1415E+01  0.7898E+01
  -3.680  0.1436E+01  0.7912E+01
  -3.670  0.1450E+01  0.7927E+01
  -3.660  0.1457E+01  0.7942E+01
  -3.650  0.1457E+01  0.7956E+01
  -3.640  0.1449E+01  0.7971E+01
  -3.630  0.1434E+01  0.7985E+01
  -3.620  0.1413E+01  0.7999E+01
  -3.610  0.1385E+01  0.8013E+01
  -3.600  0.1353E+01  0.8026E+01
  -3.590  0.1316E+01  0.8040E+01
  -3.580  0.1275E+01  0.8052E+01
  -3.570  0.1232E+01  0.8065E+01
  -3.560  0.1188E+01  0.8077E+01
  -3.550  0.1143E+01  0.8088E+01
  -3.540  0.1099E+01  0.8099E+01
  -3.530  0.1055E+01  0.8110E+01
  -3.520  0.1013E+01  0.8120E+01
  -3.510  0.9727E+00  0.8129E+01
  -3.500  0.9350E+00  0.8139E+01
  -3.490  0.8997E+00  0.8148E+01
  -3.480  0.8671E+00  0.8156E+01
  -3.470  0.8370E+00  0.8165E+01
  -3.460  0.8095E+00  0.8173E+01
  -3.450  0.7844E+00  0.8181E+01
  -3.440  0.7615E+00  0.8188E+01
  -3.430  0.7408E+00  0.8196E+01
  -3.420  0.7221E+00  0.8203E+01
  -3.410  0.7054E+00  0.8210E+01
  -3.400  0.6907E+00  0.8217E+01
  -3.390  0.6779E+00  0.8224E+01
  -3.380  0.6670E+00  0.8230E+01
  -3.370  0.6581E+00  0.8237E+01
  -3.360  0.6512E+00  0.8243E+01
  -3.350  0.6462E+00  0.8250E+01
  -3.340  0.6430E+00  0.8256E+01
  -3.330  0.6415E+00  0.8263E+01
  -3.320  0.6413E+00  0.8269E+01
  -3.310  0.6421E+00  0.8276E+01
  -3.300  0.6435E+00  0.8282E+01
  -3.290  0.6449E+00  0.8288E+01
  -3.280  0.6459E+00  0.8295E+01
  -3.270  0.6458E+00  0.8301E+01
  -3.260  0.6441E+00  0.8308E+01
  -3.250  0.6403E+00  0.8314E+01
  -3.240  0.6340E+00  0.8321E+01
  -3.230  0.6249E+00  0.8327E+01
  -3.220  0.6129E+00  0.8333E+01
  -3.210  0.5981E+00  0.8339E+01
  -3.200  0.5806E+00  0.8345E+01
  -3.190  0.5607E+00  0.8350E+01
  -3.180  0.5391E+00  0.8356E+01
  -3.170  0.5162E+00  0.8361E+01
  -3.160  0.4929E+00  0.8366E+01
  -3.150  0.4700E+00  0.8371E+01
  -3.140  0.4484E+00  0.8375E+01
  -3.130  0.4289E+00  0.8379E+01
  -3.120  0.4124E+00  0.8383E+01
  -3.110  0.3997E+00  0.8387E+01
  -3.100  0.3915E+00  0.8391E+01
  -3.090  0.3886E+00  0.8395E+01
  -3.080  0.3914E+00  0.8399E+01
  -3.070  0.4004E+00  0.8403E+01
  -3.060  0.4159E+00  0.8407E+01
  -3.050  0.4381E+00  0.8412E+01
  -3.040  0.4672E+00  0.8416E+01
  -3.030  0.5031E+00  0.8421E+01
  -3.020  0.5458E+00  0.8427E+01
  -3.010  0.5951E+00  0.8433E+01
  -3.000  0.6506E+00  0.8439E+01
  -2.990  0.7122E+00  0.8446E+01
  -2.980  0.7792E+00  0.8454E+01
  -2.970  0.8511E+00  0.8463E+01
  -2.960  0.9274E+00  0.8472E+01
  -2.950  0.1007E+01  0.8482E+01
  -2.940  0.1090E+01  0.8493E+01
  -2.930  0.1174E+01  0.8505E+01
  -2.920  0.1258E+01  0.8517E+01
  -2.910  0.1342E+01  0.8531E+01
  -2.900  0.1423E+01  0.8545E+01
  -2.890  0.1501E+01  0.8560E+01
  -2.880  0.1573E+01  0.8576E+01
  -2.870  0.1639E+01  0.8592E+01
  -2.860  0.1696E+01  0.8609E+01
  -2.850  0.1744E+01  0.8626E+01
  -2.840  0.1781E+01  0.8644E+01
  -2.830  0.1805E+01  0.8662E+01
  -2.820  0.1816E+01  0.8680E+01
  -2.810  0.1813E+01  0.8699E+01
  -2.800  0.1797E+01  0.8717E+01
  -2.790  0.1766E+01  0.8734E+01
  -2.780  0.1723E+01  0.8751E+01
  -2.770  0.1666E+01  0.8768E+01
  -2.760  0.1599E+01  0.8784E+01
  -2.750  0.1521E+01  0.8799E+01
  -2.740  0.1435E+01  0.8814E+01
  -2.730  0.1344E+01  0.8827E+01
  -2.720  0.1248E+01  0.8840E+01
  -2.710  0.1150E+01  0.8851E+01
  -2.700  0.1051E+01  0.8862E+01
  -2.690  0.9544E+00  0.8871E+01
  -2.680  0.8609E+00  0.8880E+01
  -2.670  0.7720E+00  0.8887E+01
  -2.660  0.6888E+00  0.8894E+01
  -2.650  0.6123E+00  0.8900E+01
  -2.640  0.5429E+00  0.8906E+01
  -2.630  0.4809E+00  0.8911E+01
  -2.620  0.4264E+00  0.8915E+01
  -2.610  0.3791E+00  0.8919E+01
  -2.600  0.3388E+00  0.8922E+01
  -2.590  0.3048E+00  0.8925E+01
  -2.580  0.2768E+00  0.8928E+01
  -2.570  0.2540E+00  0.8931E+01
  -2.560  0.2359E+00  0.8933E+01
  -2.550  0.2220E+00  0.8935E+01
  -2.540  0.2117E+00  0.8937E+01
  -2.530  0.2047E+00  0.8939E+01
  -2.520  0.2005E+00  0.8941E+01
  -2.510  0.1991E+00  0.8943E+01
  -2.500  0.2001E+00  0.8945E+01
  -2.490  0.2035E+00  0.8947E+01
  -2.480  0.2091E+00  0.8949E+01
  -2.470  0.2170E+00  0.8952E+01
  -2.460  0.2270E+00  0.8954E+01
  -2.450  0.2391E+00  0.8956E+01
  -2.440  0.2532E+00  0.8959E+01
  -2.430  0.2690E+00  0.8961E+01
  -2.420  0.2864E+00  0.8964E+01
  -2.410  0.3051E+00  0.8967E+01
  -2.400  0.3248E+00  0.8971E+01
  -2.390  0.3451E+00  0.8974E+01
  -2.380  0.3657E+00  0.8978E+01
  -2.370  0.3861E+00  0.8982E+01
  -2.360  0.4061E+00  0.8986E+01
  -2.350  0.4253E+00  0.8990E+01
  -2.340  0.4434E+00  0.8994E+01
  -2.330  0.4603E+00  0.8999E+01
  -2.320  0.4758E+00  0.9004E+01
  -2.310  0.4899E+00  0.9009E+01
  -2.300  0.5026E+00  0.9014E+01
  -2.290  0.5140E+00  0.9019E+01
  -2.280  0.5243E+00  0.9024E+01
  -2.270  0.5336E+00  0.9029E+01
  -2.260  0.5421E+00  0.9035E+01
  -2.250  0.5500E+00  0.9040E+01
  -2.240  0.5574E+00  0.9046E+01
  -2.230  0.5645E+00  0.9051E+01
  -2.220  0.5714E+00  0.9057E+01
  -2.210  0.5780E+00  0.9063E+01
  -2.200  0.5845E+00  0.9069E+01
  -2.190  0.5907E+00  0.9075E+01
  -2.180  0.5965E+00  0.9081E+01
  -2.170  0.6019E+00  0.9087E+01
  -2.160  0.6068E+00  0.9093E+01
  -2.150  0.6110E+00  0.9099E+01
  -2.140  0.6145E+00  0.9105E+01
  -2.130  0.6172E+00  0.9111E+01
  -2.120  0.6190E+00  0.9117E+01
  -2.110  0.6201E+00  0.9124E+01
  -2.100  0.6203E+00  0.9130E+01
  -2.090  0.6198E+00  0.9136E+01
  -2.080  0.6186E+00  0.9142E+01
  -2.070  0.6169E+00  0.9148E+01
  -2.060  0.6145E+00  0.9154E+01
  -2.050  0.6116E+00  0.9161E+01
  -2.040  0.6082E+00  0.9167E+01
  -2.030  0.6043E+00  0.9173E+01
  -2.020  0.5996E+00  0.9179E+01
  -2.010  0.5943E+00  0.9185E+01
  -2.000  0.5880E+00  0.9191E+01
  -1.990  0.5806E+00  0.9196E+01
  -1.980  0.5720E+00  0.9202E+01
  -1.970  0.5619E+00  0.9208E+01
  -1.960  0.5501E+00  0.9213E+01
  -1.950  0.5366E+00  0.9219E+01
  -1.940  0.5213E+00  0.9224E+01
  -1.930  0.5039E+00  0.9229E+01
  -1.920  0.4847E+00  0.9234E+01
  -1.910  0.4635E+00  0.9238E+01
  -1.900  0.4406E+00  0.9243E+01
  -1.890  0.4162E+00  0.9247E+01
  -1.880  0.3905E+00  0.9251E+01
  -1.870  0.3638E+00  0.9254E+01
  -1.860  0.3365E+00  0.9258E+01
  -1.850  0.3089E+00  0.9261E+01
  -1.840  0.2814E+00  0.9264E+01
  -1.830  0.2544E+00  0.9266E+01
  -1.820  0.2282E+00  0.9269E+01
  -1.810  0.2032E+00  0.9271E+01
  -1.800  0.1796E+00  0.9272E+01
  -1.790  0.1578E+00  0.9274E+01
  -1.780  0.1380E+00  0.9275E+01
  -1.770  0.1202E+00  0.9276E+01
  -1.760  0.1048E+00  0.9278E+01
  -1.750  0.9171E-01  0.9278E+01
  -1.740  0.8104E-01  0.9279E+01
  -1.730  0.7281E-01  0.9280E+01
  -1.720  0.6704E-01  0.9281E+01
  -1.710  0.6370E-01  0.9281E+01
  -1.700  0.6275E-01  0.9282E+01
  -1.690  0.6412E-01  0.9283E+01
  -1.680  0.6774E-01  0.9283E+01
  -1.670  0.7351E-01  0.9284E+01
  -1.660  0.8129E-01  0.9285E+01
  -1.650  0.9094E-01  0.9286E+01
  -1.640  0.1023E+00  0.9287E+01
  -1.630  0.1150E+00  0.9288E+01
  -1.620  0.1290E+00  0.9289E+01
  -1.610  0.1438E+00  0.9291E+01
  -1.600  0.1593E+00  0.9292E+01
  -1.590  0.1749E+00  0.9294E+01
  -1.580  0.1904E+00  0.9296E+01
  -1.570  0.2054E+00  0.9298E+01
  -1.560  0.2195E+00  0.9300E+01
  -1.550  0.2324E+00  0.9302E+01
  -1.540  0.2439E+00  0.9305E+01
  -1.530  0.2536E+00  0.9307E+01
  -1.520  0.2615E+00  0.9310E+01
  -1.510  0.2675E+00  0.9313E+01
  -1.500  0.2716E+00  0.9315E+01
  -1.490  0.2738E+00  0.9318E+01
  -1.480  0.2745E+00  0.9321E+01
  -1.470  0.2737E+00  0.9324E+01
  -1.460  0.2718E+00  0.9326E+01
  -1.450  0.2691E+00  0.9329E+01
  -1.440  0.2660E+00  0.9332E+01
  -1.430  0.2628E+00  0.9334E+01
  -1.420  0.2597E+00  0.9337E+01
  -1.410  0.2571E+00  0.9339E+01
  -1.400  0.2551E+00  0.9342E+01
  -1.390  0.2539E+00  0.9345E+01
  -1.380  0.2534E+00  0.9347E+01
  -1.370  0.2536E+00  0.9350E+01
  -1.360  0.2544E+00  0.9352E+01
  -1.350  0.2555E+00  0.9355E+01
  -1.340  0.2569E+00  0.9357E+01
  -1.330  0.2580E+00  0.9360E+01
  -1.320  0.2588E+00  0.9362E+01
  -1.310  0.2588E+00  0.9365E+01
  -1.300  0.2578E+00  0.9368E+01
  -1.290  0.2556E+00  0.9370E+01
  -1.280  0.2519E+00  0.9373E+01
  -1.270  0.2468E+00  0.9375E+01
  -1.260  0.2401E+00  0.9378E+01
  -1.250  0.2318E+00  0.9380E+01
  -1.240  0.2220E+00  0.9382E+01
  -1.230  0.2109E+00  0.9384E+01
  -1.220  0.1987E+00  0.9386E+01
  -1.210  0.1855E+00  0.9388E+01
  -1.200  0.1717E+00  0.9390E+01
  -1.190  0.1576E+00  0.9391E+01
  -1.180  0.1434E+00  0.9393E+01
  -1.170  0.1294E+00  0.9394E+01
  -1.160  0.1159E+00  0.9395E+01
  -1.150  0.1031E+00  0.9396E+01
  -1.140  0.9115E-01  0.9397E+01
  -1.130  0.8032E-01  0.9398E+01
  -1.120  0.7072E-01  0.9399E+01
  -1.110  0.6245E-01  0.9399E+01
  -1.100  0.5558E-01  0.9400E+01
  -1.090  0.5016E-01  0.9400E+01
  -1.080  0.4622E-01  0.9401E+01
  -1.070  0.4373E-01  0.9401E+01
  -1.060  0.4268E-01  0.9402E+01
  -1.050  0.4301E-01  0.9402E+01
  -1.040  0.4465E-01  0.9403E+01
  -1.030  0.4750E-01  0.9403E+01
  -1.020  0.5147E-01  0.9404E+01
  -1.010  0.5641E-01  0.9404E+01
  -1.000  0.6218E-01  0.9405E+01
  -0.990  0.6860E-01  0.9405E+01
  -0.980  0.7548E-01  0.9406E+01
  -0.970  0.8263E-01  0.9407E+01
  -0.960  0.8983E-01  0.9408E+01
  -0.950  0.9685E-01  0.9409E+01
  -0.940  0.1035E+00  0.9410E+01
  -0.930  0.1095E+00  0.9411E+01
  -0.920  0.1147E+00  0.9412E+01
  -0.910  0.1189E+00  0.9413E+01
  -0.900  0.1220E+00  0.9415E+01
  -0.890  0.1239E+00  0.9416E+01
  -0.880  0.1245E+00  0.9417E+01
  -0.870  0.1237E+00  0.9418E+01
  -0.860  0.1216E+00  0.9420E+01
  -0.850  0.1183E+00  0.9421E+01
  -0.840  0.1139E+00  0.9422E+01
  -0.830  0.1084E+00  0.9423E+01
  -0.820  0.1021E+00  0.9424E+01
  -0.810  0.9509E-01  0.9425E+01
  -0.800  0.8764E-01  0.9426E+01
  -0.790  0.7990E-01  0.9427E+01
  -0.780  0.7207E-01  0.9427E+01
  -0.770  0.6430E-01  0.9428E+01
  -0.760  0.5676E-01  0.9429E+01
  -0.750  0.4956E-01  0.9429E+01
  -0.740  0.4281E-01  0.9429E+01
  -0.730  0.3658E-01  0.9430E+01
  -0.720  0.3092E-01  0.9430E+01
  -0.710  0.2586E-01  0.9430E+01
  -0.700  0.2139E-01  0.9431E+01
  -0.690  0.1751E-01  0.9431E+01
  -0.680  0.1417E-01  0.9431E+01
  -0.670  0.1135E-01  0.9431E+01
  -0.660  0.8997E-02  0.9431E+01
  -0.650  0.7055E-02  0.9431E+01
  -0.640  0.5476E-02  0.9431E+01
  -0.630  0.4209E-02  0.9431E+01
  -0.620  0.3208E-02  0.9431E+01
  -0.610  0.2430E-02  0.9431E+01
  -0.600  0.1838E-02  0.9431E+01
  -0.590  0.1399E-02  0.9431E+01
  -0.580  0.1090E-02  0.9431E+01
  -0.570  0.8894E-03  0.9431E+01
  -0.560  0.7855E-03  0.9431E+01
  -0.550  0.7710E-03  0.9431E+01
  -0.540  0.8447E-03  0.9431E+01
  -0.530  0.1012E-02  0.9431E+01
  -0.520  0.1283E-02  0.9431E+01
  -0.510  0.1676E-02  0.9431E+01
  -0.500  0.2214E-02  0.9431E+01
  -0.490  0.2927E-02  0.9431E+01
  -0.480  0.3849E-02  0.9432E+01
  -0.470  0.5023E-02  0.9432E+01
  -0.460  0.6492E-02  0.9432E+01
  -0.450  0.8308E-02  0.9432E+01
  -0.440  0.1052E-01  0.9432E+01
  -0.430  0.1318E-01  0.9432E+01
  -0.420  0.1634E-01  0.9432E+01
  -0.410  0.2004E-01  0.9432E+01
  -0.400  0.2431E-01  0.9433E+01
  -0.390  0.2918E-01  0.9433E+01
  -0.380  0.3464E-01  0.9433E+01
  -0.370  0.4069E-01  0.9434E+01
  -0.360  0.4728E-01  0.9434E+01
  -0.350  0.5435E-01  0.9435E+01
  -0.340  0.6180E-01  0.9435E+01
  -0.330  0.6953E-01  0.9436E+01
  -0.320  0.7740E-01  0.9437E+01
  -0.310  0.8523E-01  0.9438E+01
  -0.300  0.9286E-01  0.9439E+01
  -0.290  0.1001E+00  0.9440E+01
  -0.280  0.1068E+00  0.9441E+01
  -0.270  0.1127E+00  0.9442E+01
  -0.260  0.1178E+00  0.9443E+01
  -0.250  0.1218E+00  0.9444E+01
  -0.240  0.1247E+00  0.9445E+01
  -0.230  0.1265E+00  0.9447E+01
  -0.220  0.1271E+00  0.9448E+01
  -0.210  0.1265E+00  0.9449E+01
  -0.200  0.1249E+00  0.9450E+01
  -0.190  0.1224E+00  0.9452E+01
  -0.180  0.1192E+00  0.9453E+01
  -0.170  0.1155E+00  0.9454E+01
  -0.160  0.1114E+00  0.9455E+01
  -0.150  0.1073E+00  0.9456E+01
  -0.140  0.1034E+00  0.9457E+01
  -0.130  0.9989E-01  0.9458E+01
  -0.120  0.9696E-01  0.9459E+01
  -0.110  0.9479E-01  0.9460E+01
  -0.100  0.9351E-01  0.9461E+01
  -0.090  0.9320E-01  0.9462E+01
  -0.080  0.9387E-01  0.9463E+01
  -0.070  0.9551E-01  0.9464E+01
  -0.060  0.9804E-01  0.9465E+01
  -0.050  0.1013E+00  0.9466E+01
  -0.040  0.1053E+00  0.9467E+01
  -0.030  0.1096E+00  0.9468E+01
  -0.020  0.1142E+00  0.9469E+01
  -0.010  0.1188E+00  0.9470E+01
   0.000  0.1233E+00  0.9472E+01
   0.010  0.1274E+00  0.9473E+01
   0.020  0.1309E+00  0.9474E+01
   0.030  0.1339E+00  0.9475E+01
   0.040  0.1362E+00  0.9477E+01
   0.050  0.1378E+00  0.9478E+01
   0.060  0.1387E+00  0.9480E+01
   0.070  0.1389E+00  0.9481E+01
   0.080  0.1387E+00  0.9482E+01
   0.090  0.1382E+00  0.9484E+01
   0.100  0.1375E+00  0.9485E+01
   0.110  0.1367E+00  0.9487E+01
   0.120  0.1362E+00  0.9488E+01
   0.130  0.1361E+00  0.9489E+01
   0.140  0.1365E+00  0.9491E+01
   0.150  0.1375E+00  0.9492E+01
   0.160  0.1394E+00  0.9493E+01
   0.170  0.1420E+00  0.9495E+01
   0.180  0.1456E+00  0.9496E+01
   0.190  0.1500E+00  0.9498E+01
   0.200  0.1552E+00  0.9499E+01
   0.210  0.1612E+00  0.9501E+01
   0.220  0.1680E+00  0.9503E+01
   0.230  0.1753E+00  0.9504E+01
   0.240  0.1833E+00  0.9506E+01
   0.250  0.1917E+00  0.9508E+01
   0.260  0.2004E+00  0.9510E+01
   0.270  0.2095E+00  0.9512E+01
   0.280  0.2188E+00  0.9514E+01
   0.290  0.2282E+00  0.9517E+01
   0.300  0.2376E+00  0.9519E+01
   0.310  0.2469E+00  0.9522E+01
   0.320  0.2560E+00  0.9524E+01
   0.330  0.2648E+00  0.9527E+01
   0.340  0.2731E+00  0.9529E+01
   0.350  0.2808E+00  0.9532E+01
   0.360  0.2877E+00  0.9535E+01
   0.370  0.2937E+00  0.9538E+01
   0.380  0.2986E+00  0.9541E+01
   0.390  0.3025E+00  0.9544E+01
   0.400  0.3054E+00  0.9547E+01
   0.410  0.3072E+00  0.9550E+01
   0.420  0.3081E+00  0.9553E+01
   0.430  0.3082E+00  0.9556E+01
   0.440  0.3079E+00  0.9559E+01
   0.450  0.3074E+00  0.9563E+01
   0.460  0.3072E+00  0.9566E+01
   0.470  0.3075E+00  0.9569E+01
   0.480  0.3088E+00  0.9572E+01
   0.490  0.3116E+00  0.9575E+01
   0.500  0.3160E+00  0.9578E+01
   0.510  0.3225E+00  0.9581E+01
   0.520  0.3310E+00  0.9585E+01
   0.530  0.3419E+00  0.9588E+01
   0.540  0.3549E+00  0.9592E+01
   0.550  0.3699E+00  0.9595E+01
   0.560  0.3866E+00  0.9599E+01
   0.570  0.4046E+00  0.9603E+01
   0.580  0.4235E+00  0.9607E+01
   0.590  0.4426E+00  0.9612E+01
   0.600  0.4615E+00  0.9616E+01
   0.610  0.4794E+00  0.9621E+01
   0.620  0.4959E+00  0.9626E+01
   0.630  0.5105E+00  0.9631E+01
   0.640  0.5227E+00  0.9637E+01
   0.650  0.5323E+00  0.9642E+01
   0.660  0.5391E+00  0.9647E+01
   0.670  0.5431E+00  0.9653E+01
   0.680  0.5445E+00  0.9658E+01
   0.690  0.5433E+00  0.9664E+01
   0.700  0.5401E+00  0.9669E+01
   0.710  0.5354E+00  0.9674E+01
   0.720  0.5296E+00  0.9680E+01
   0.730  0.5234E+00  0.9685E+01
   0.740  0.5175E+00  0.9690E+01
   0.750  0.5124E+00  0.9695E+01
   0.760  0.5090E+00  0.9700E+01
   0.770  0.5076E+00  0.9705E+01
   0.780  0.5088E+00  0.9710E+01
   0.790  0.5131E+00  0.9716E+01
   0.800  0.5208E+00  0.9721E+01
   0.810  0.5319E+00  0.9726E+01
   0.820  0.5467E+00  0.9732E+01
   0.830  0.5651E+00  0.9737E+01
   0.840  0.5869E+00  0.9743E+01
   0.850  0.6117E+00  0.9749E+01
   0.860  0.6393E+00  0.9756E+01
   0.870  0.6692E+00  0.9762E+01
   0.880  0.7007E+00  0.9769E+01
   0.890  0.7332E+00  0.9777E+01
   0.900  0.7662E+00  0.9784E+01
   0.910  0.7988E+00  0.9792E+01
   0.920  0.8306E+00  0.9801E+01
   0.930  0.8607E+00  0.9809E+01
   0.940  0.8887E+00  0.9818E+01
   0.950  0.9139E+00  0.9827E+01
   0.960  0.9360E+00  0.9837E+01
   0.970  0.9545E+00  0.9846E+01
   0.980  0.9693E+00  0.9856E+01
   0.990  0.9801E+00  0.9866E+01
   1.000  0.9871E+00  0.9875E+01
   1.010  0.9902E+00  0.9885E+01
   1.020  0.9898E+00  0.9895E+01
   1.030  0.9862E+00  0.9905E+01
   1.040  0.9799E+00  0.9915E+01
   1.050  0.9714E+00  0.9925E+01
   1.060  0.9614E+00  0.9934E+01
   1.070  0.9505E+00  0.9944E+01
   1.080  0.9395E+00  0.9953E+01
   1.090  0.9290E+00  0.9962E+01
   1.100  0.9198E+00  0.9972E+01
   1.110  0.9125E+00  0.9981E+01
   1.120  0.9075E+00  0.9990E+01
   1.130  0.9053E+00  0.9999E+01
   1.140  0.9062E+00  0.1001E+02
   1.150  0.9102E+00  0.1002E+02
   1.160  0.9174E+00  0.1003E+02
   1.170  0.9276E+00  0.1004E+02
   1.180  0.9405E+00  0.1004E+02
   1.190  0.9556E+00  0.1005E+02
   1.200  0.9725E+00  0.1006E+02
   1.210  0.9905E+00  0.1007E+02
   1.220  0.1009E+01  0.1008E+02
   1.230  0.1027E+01  0.1009E+02
   1.240  0.1045E+01  0.1010E+02
   1.250  0.1061E+01  0.1012E+02
   1.260  0.1075E+01  0.1013E+02
   1.270  0.1087E+01  0.1014E+02
   1.280  0.1096E+01  0.1015E+02
   1.290  0.1102E+01  0.1016E+02
   1.300  0.1105E+01  0.1017E+02
   1.310  0.1105E+01  0.1018E+02
   1.320  0.1102E+01  0.1019E+02
   1.330  0.1096E+01  0.1020E+02
   1.340  0.1087E+01  0.1021E+02
   1.350  0.1075E+01  0.1022E+02
   1.360  0.1061E+01  0.1024E+02
   1.370  0.1045E+01  0.1025E+02
   1.380  0.1026E+01  0.1026E+02
   1.390  0.1006E+01  0.1027E+02
   1.400  0.9831E+00  0.1028E+02
   1.410  0.9590E+00  0.1029E+02
   1.420  0.9334E+00  0.1029E+02
   1.430  0.9066E+00  0.1030E+02
   1.440  0.8788E+00  0.1031E+02
   1.450  0.8502E+00  0.1032E+02
   1.460  0.8212E+00  0.1033E+02
   1.470  0.7922E+00  0.1034E+02
   1.480  0.7636E+00  0.1035E+02
   1.490  0.7359E+00  0.1035E+02
   1.500  0.7095E+00  0.1036E+02
   1.510  0.6849E+00  0.1037E+02
   1.520  0.6626E+00  0.1037E+02
   1.530  0.6431E+00  0.1038E+02
   1.540  0.6267E+00  0.1039E+02
   1.550  0.6137E+00  0.1039E+02
   1.560  0.6043E+00  0.1040E+02
   1.570  0.5986E+00  0.1040E+02
   1.580  0.5966E+00  0.1041E+02
   1.590  0.5983E+00  0.1042E+02
   1.600  0.6032E+00  0.1042E+02
   1.610  0.6112E+00  0.1043E+02
   1.620  0.6217E+00  0.1043E+02
   1.630  0.6343E+00  0.1044E+02
   1.640  0.6484E+00  0.1045E+02
   1.650  0.6633E+00  0.1045E+02
   1.660  0.6784E+00  0.1046E+02
   1.670  0.6931E+00  0.1047E+02
   1.680  0.7066E+00  0.1047E+02
   1.690  0.7185E+00  0.1048E+02
   1.700  0.7282E+00  0.1049E+02
   1.710  0.7352E+00  0.1050E+02
   1.720  0.7393E+00  0.1050E+02
   1.730  0.7402E+00  0.1051E+02
   1.740  0.7378E+00  0.1052E+02
   1.750  0.7322E+00  0.1053E+02
   1.760  0.7236E+00  0.1053E+02
   1.770  0.7121E+00  0.1054E+02
   1.780  0.6983E+00  0.1055E+02
   1.790  0.6825E+00  0.1055E+02
   1.800  0.6654E+00  0.1056E+02
   1.810  0.6474E+00  0.1057E+02
   1.820  0.6291E+00  0.1057E+02
   1.830  0.6112E+00  0.1058E+02
   1.840  0.5940E+00  0.1059E+02
   1.850  0.5782E+00  0.1059E+02
   1.860  0.5639E+00  0.1060E+02
   1.870  0.5515E+00  0.1060E+02
   1.880  0.5413E+00  0.1061E+02
   1.890  0.5332E+00  0.1061E+02
   1.900  0.5273E+00  0.1062E+02
   1.910  0.5236E+00  0.1062E+02
   1.920  0.5217E+00  0.1063E+02
   1.930  0.5216E+00  0.1063E+02
   1.940  0.5230E+00  0.1064E+02
   1.950  0.5255E+00  0.1064E+02
   1.960  0.5287E+00  0.1065E+02
   1.970  0.5325E+00  0.1066E+02
   1.980  0.5364E+00  0.1066E+02
   1.990  0.5402E+00  0.1067E+02
   2.000  0.5435E+00  0.1067E+02
   2.010  0.5462E+00  0.1068E+02
   2.020  0.5481E+00  0.1068E+02
   2.030  0.5492E+00  0.1069E+02
   2.040  0.5495E+00  0.1069E+02
   2.050  0.5492E+00  0.1070E+02
   2.060  0.5485E+00  0.1070E+02
   2.070  0.5476E+00  0.1071E+02
   2.080  0.5471E+00  0.1072E+02
   2.090  0.5475E+00  0.1072E+02
   2.100  0.5492E+00  0.1073E+02
   2.110  0.5528E+00  0.1073E+02
   2.120  0.5588E+00  0.1074E+02
   2.130  0.5678E+00  0.1074E+02
   2.140  0.5800E+00  0.1075E+02
   2.150  0.5958E+00  0.1075E+02
   2.160  0.6151E+00  0.1076E+02
   2.170  0.6379E+00  0.1077E+02
   2.180  0.6639E+00  0.1077E+02
   2.190  0.6926E+00  0.1078E+02
   2.200  0.7232E+00  0.1079E+02
   2.210  0.7549E+00  0.1080E+02
   2.220  0.7867E+00  0.1080E+02
   2.230  0.8175E+00  0.1081E+02
   2.240  0.8462E+00  0.1082E+02
   2.250  0.8717E+00  0.1083E+02
   2.260  0.8930E+00  0.1084E+02
   2.270  0.9090E+00  0.1085E+02
   2.280  0.9191E+00  0.1086E+02
   2.290  0.9226E+00  0.1087E+02
   2.300  0.9193E+00  0.1087E+02
   2.310  0.9091E+00  0.1088E+02
   2.320  0.8919E+00  0.1089E+02
   2.330  0.8683E+00  0.1090E+02
   2.340  0.8387E+00  0.1091E+02
   2.350  0.8039E+00  0.1092E+02
   2.360  0.7646E+00  0.1093E+02
   2.370  0.7219E+00  0.1093E+02
   2.380  0.6767E+00  0.1094E+02
   2.390  0.6301E+00  0.1095E+02
   2.400  0.5830E+00  0.1095E+02
   2.410  0.5363E+00  0.1096E+02
   2.420  0.4909E+00  0.1096E+02
   2.430  0.4477E+00  0.1097E+02
   2.440  0.4071E+00  0.1097E+02
   2.450  0.3699E+00  0.1097E+02
   2.460  0.3364E+00  0.1098E+02
   2.470  0.3070E+00  0.1098E+02
   2.480  0.2819E+00  0.1098E+02
   2.490  0.2614E+00  0.1099E+02
   2.500  0.2456E+00  0.1099E+02
   2.510  0.2344E+00  0.1099E+02
   2.520  0.2278E+00  0.1099E+02
   2.530  0.2259E+00  0.1099E+02
   2.540  0.2284E+00  0.1100E+02
   2.550  0.2354E+00  0.1100E+02
   2.560  0.2465E+00  0.1100E+02
   2.570  0.2617E+00  0.1100E+02
   2.580  0.2808E+00  0.1101E+02
   2.590  0.3034E+00  0.1101E+02
   2.600  0.3293E+00  0.1101E+02
   2.610  0.3581E+00  0.1102E+02
   2.620  0.3896E+00  0.1102E+02
   2.630  0.4234E+00  0.1103E+02
   2.640  0.4589E+00  0.1103E+02
   2.650  0.4958E+00  0.1104E+02
   2.660  0.5335E+00  0.1104E+02
   2.670  0.5716E+00  0.1105E+02
   2.680  0.6094E+00  0.1105E+02
   2.690  0.6464E+00  0.1106E+02
   2.700  0.6822E+00  0.1107E+02
   2.710  0.7163E+00  0.1107E+02
   2.720  0.7481E+00  0.1108E+02
   2.730  0.7773E+00  0.1109E+02
   2.740  0.8036E+00  0.1110E+02
   2.750  0.8268E+00  0.1110E+02
   2.760  0.8467E+00  0.1111E+02
   2.770  0.8632E+00  0.1112E+02
   2.780  0.8764E+00  0.1113E+02
   2.790  0.8864E+00  0.1114E+02
   2.800  0.8932E+00  0.1115E+02
   2.810  0.8972E+00  0.1116E+02
   2.820  0.8986E+00  0.1117E+02
   2.830  0.8978E+00  0.1117E+02
   2.840  0.8949E+00  0.1118E+02
   2.850  0.8904E+00  0.1119E+02
   2.860  0.8847E+00  0.1120E+02
   2.870  0.8780E+00  0.1121E+02
   2.880  0.8709E+00  0.1122E+02
   2.890  0.8635E+00  0.1123E+02
   2.900  0.8563E+00  0.1124E+02
   2.910  0.8496E+00  0.1124E+02
   2.920  0.8437E+00  0.1125E+02
   2.930  0.8390E+00  0.1126E+02
   2.940  0.8356E+00  0.1127E+02
   2.950  0.8339E+00  0.1128E+02
   2.960  0.8340E+00  0.1129E+02
   2.970  0.8359E+00  0.1129E+02
   2.980  0.8397E+00  0.1130E+02
   2.990  0.8453E+00  0.1131E+02
   3.000  0.8526E+00  0.1132E+02
   3.010  0.8613E+00  0.1133E+02
   3.020  0.8711E+00  0.1134E+02
   3.030  0.8817E+00  0.1135E+02
   3.040  0.8925E+00  0.1136E+02
   3.050  0.9032E+00  0.1136E+02
   3.060  0.9133E+00  0.1137E+02
   3.070  0.9223E+00  0.1138E+02
   3.080  0.9298E+00  0.1139E+02
   3.090  0.9354E+00  0.1140E+02
   3.100  0.9389E+00  0.1141E+02
   3.110  0.9400E+00  0.1142E+02
   3.120  0.9386E+00  0.1143E+02
   3.130  0.9347E+00  0.1144E+02
   3.140  0.9284E+00  0.1145E+02
   3.150  0.9197E+00  0.1146E+02
   3.160  0.9090E+00  0.1147E+02
   3.170  0.8965E+00  0.1148E+02
   3.180  0.8826E+00  0.1148E+02
   3.190  0.8677E+00  0.1149E+02
   3.200  0.8522E+00  0.1150E+02
   3.210  0.8365E+00  0.1151E+02
   3.220  0.8211E+00  0.1152E+02
   3.230  0.8064E+00  0.1153E+02
   3.240  0.7927E+00  0.1153E+02
   3.250  0.7805E+00  0.1154E+02
   3.260  0.7702E+00  0.1155E+02
   3.270  0.7620E+00  0.1156E+02
   3.280  0.7562E+00  0.1156E+02
   3.290  0.7530E+00  0.1157E+02
   3.300  0.7528E+00  0.1158E+02
   3.310  0.7557E+00  0.1159E+02
   3.320  0.7617E+00  0.1159E+02
   3.330  0.7711E+00  0.1160E+02
   3.340  0.7839E+00  0.1161E+02
   3.350  0.8000E+00  0.1162E+02
   3.360  0.8195E+00  0.1163E+02
   3.370  0.8421E+00  0.1164E+02
   3.380  0.8676E+00  0.1164E+02
   3.390  0.8958E+00  0.1165E+02
   3.400  0.9262E+00  0.1166E+02
   3.410  0.9583E+00  0.1167E+02
   3.420  0.9916E+00  0.1168E+02
   3.430  0.1025E+01  0.1169E+02
   3.440  0.1059E+01  0.1170E+02
   3.450  0.1092E+01  0.1171E+02
   3.460  0.1122E+01  0.1172E+02
   3.470  0.1150E+01  0.1174E+02
   3.480  0.1175E+01  0.1175E+02
   3.490  0.1195E+01  0.1176E+02
   3.500  0.1210E+01  0.1177E+02
   3.510  0.1219E+01  0.1178E+02
   3.520  0.1223E+01  0.1180E+02
   3.530  0.1219E+01  0.1181E+02
   3.540  0.1210E+01  0.1182E+02
   3.550  0.1193E+01  0.1183E+02
   3.560  0.1170E+01  0.1184E+02
   3.570  0.1142E+01  0.1186E+02
   3.580  0.1107E+01  0.1187E+02
   3.590  0.1067E+01  0.1188E+02
   3.600  0.1024E+01  0.1189E+02
   3.610  0.9764E+00  0.1190E+02
   3.620  0.9267E+00  0.1191E+02
   3.630  0.8752E+00  0.1192E+02
   3.640  0.8231E+00  0.1192E+02
   3.650  0.7711E+00  0.1193E+02
   3.660  0.7200E+00  0.1194E+02
   3.670  0.6707E+00  0.1195E+02
   3.680  0.6238E+00  0.1195E+02
   3.690  0.5800E+00  0.1196E+02
   3.700  0.5397E+00  0.1196E+02
   3.710  0.5034E+00  0.1197E+02
   3.720  0.4715E+00  0.1197E+02
   3.730  0.4442E+00  0.1198E+02
   3.740  0.4218E+00  0.1198E+02
   3.750  0.4044E+00  0.1199E+02
   3.760  0.3922E+00  0.1199E+02
   3.770  0.3853E+00  0.1199E+02
   3.780  0.3837E+00  0.1200E+02
   3.790  0.3876E+00  0.1200E+02
   3.800  0.3969E+00  0.1200E+02
   3.810  0.4117E+00  0.1201E+02
   3.820  0.4319E+00  0.1201E+02
   3.830  0.4575E+00  0.1202E+02
   3.840  0.4882E+00  0.1202E+02
   3.850  0.5238E+00  0.1203E+02
   3.860  0.5640E+00  0.1203E+02
   3.870  0.6084E+00  0.1204E+02
   3.880  0.6563E+00  0.1205E+02
   3.890  0.7073E+00  0.1205E+02
   3.900  0.7605E+00  0.1206E+02
   3.910  0.8150E+00  0.1207E+02
   3.920  0.8699E+00  0.1208E+02
   3.930  0.9243E+00  0.1209E+02
   3.940  0.9773E+00  0.1210E+02
   3.950  0.1028E+01  0.1211E+02
   3.960  0.1075E+01  0.1212E+02
   3.970  0.1118E+01  0.1213E+02
   3.980  0.1156E+01  0.1214E+02
   3.990  0.1189E+01  0.1215E+02
   4.000  0.1216E+01  0.1216E+02
   4.010  0.1238E+01  0.1218E+02
   4.020  0.1253E+01  0.1219E+02
   4.030  0.1264E+01  0.1220E+02
   4.040  0.1269E+01  0.1221E+02
   4.050  0.1270E+01  0.1223E+02
   4.060  0.1268E+01  0.1224E+02
   4.070  0.1262E+01  0.1225E+02
   4.080  0.1255E+01  0.1227E+02
   4.090  0.1246E+01  0.1228E+02
   4.100  0.1237E+01  0.1229E+02
   4.110  0.1228E+01  0.1230E+02
   4.120  0.1219E+01  0.1231E+02
   4.130  0.1212E+01  0.1233E+02
   4.140  0.1207E+01  0.1234E+02
   4.150  0.1203E+01  0.1235E+02
   4.160  0.1201E+01  0.1236E+02
   4.170  0.1201E+01  0.1237E+02
   4.180  0.1202E+01  0.1239E+02
   4.190  0.1205E+01  0.1240E+02
   4.200  0.1208E+01  0.1241E+02
   4.210  0.1211E+01  0.1242E+02
   4.220  0.1214E+01  0.1244E+02
   4.230  0.1216E+01  0.1245E+02
   4.240  0.1216E+01  0.1246E+02
   4.250  0.1215E+01  0.1247E+02
   4.260  0.1211E+01  0.1248E+02
   4.270  0.1205E+01  0.1250E+02
   4.280  0.1196E+01  0.1251E+02
   4.290  0.1183E+01  0.1252E+02
   4.300  0.1168E+01  0.1253E+02
   4.310  0.1150E+01  0.1254E+02
   4.320  0.1130E+01  0.1255E+02
   4.330  0.1107E+01  0.1257E+02
   4.340  0.1083E+01  0.1258E+02
   4.350  0.1058E+01  0.1259E+02
   4.360  0.1033E+01  0.1260E+02
   4.370  0.1008E+01  0.1261E+02
   4.380  0.9828E+00  0.1262E+02
   4.390  0.9593E+00  0.1263E+02
   4.400  0.9375E+00  0.1264E+02
   4.410  0.9177E+00  0.1264E+02
   4.420  0.9004E+00  0.1265E+02
   4.430  0.8856E+00  0.1266E+02
   4.440  0.8736E+00  0.1267E+02
   4.450  0.8642E+00  0.1268E+02
   4.460  0.8577E+00  0.1269E+02
   4.470  0.8537E+00  0.1270E+02
   4.480  0.8523E+00  0.1271E+02
   4.490  0.8531E+00  0.1271E+02
   4.500  0.8561E+00  0.1272E+02
   4.510  0.8611E+00  0.1273E+02
   4.520  0.8679E+00  0.1274E+02
   4.530  0.8763E+00  0.1275E+02
   4.540  0.8861E+00  0.1276E+02
   4.550  0.8973E+00  0.1277E+02
   4.560  0.9096E+00  0.1278E+02
   4.570  0.9230E+00  0.1278E+02
   4.580  0.9374E+00  0.1279E+02
   4.590  0.9525E+00  0.1280E+02
   4.600  0.9684E+00  0.1281E+02
   4.610  0.9847E+00  0.1282E+02
   4.620  0.1001E+01  0.1283E+02
   4.630  0.1018E+01  0.1284E+02
   4.640  0.1035E+01  0.1285E+02
   4.650  0.1052E+01  0.1286E+02
   4.660  0.1068E+01  0.1288E+02
   4.670  0.1083E+01  0.1289E+02
   4.680  0.1097E+01  0.1290E+02
   4.690  0.1110E+01  0.1291E+02
   4.700  0.1121E+01  0.1292E+02
   4.710  0.1130E+01  0.1293E+02
   4.720  0.1136E+01  0.1294E+02
   4.730  0.1140E+01  0.1295E+02
   4.740  0.1141E+01  0.1296E+02
   4.750  0.1139E+01  0.1298E+02
   4.760  0.1133E+01  0.1299E+02
   4.770  0.1125E+01  0.1300E+02
   4.780  0.1113E+01  0.1301E+02
   4.790  0.1099E+01  0.1302E+02
   4.800  0.1082E+01  0.1303E+02
   4.810  0.1064E+01  0.1304E+02
   4.820  0.1043E+01  0.1305E+02
   4.830  0.1022E+01  0.1306E+02
   4.840  0.1001E+01  0.1307E+02
   4.850  0.9799E+00  0.1308E+02
   4.860  0.9602E+00  0.1309E+02
   4.870  0.9423E+00  0.1310E+02
   4.880  0.9267E+00  0.1311E+02
   4.890  0.9140E+00  0.1312E+02
   4.900  0.9044E+00  0.1313E+02
   4.910  0.8981E+00  0.1314E+02
   4.920  0.8952E+00  0.1315E+02
   4.930  0.8957E+00  0.1316E+02
   4.940  0.8992E+00  0.1317E+02
   4.950  0.9055E+00  0.1317E+02
   4.960  0.9143E+00  0.1318E+02
   4.970  0.9250E+00  0.1319E+02
   4.980  0.9373E+00  0.1320E+02
   4.990  0.9507E+00  0.1321E+02
   5.000  0.9649E+00  0.1322E+02
   5.010  0.9795E+00  0.1323E+02
   5.020  0.9942E+00  0.1324E+02
   5.030  0.1009E+01  0.1325E+02
   5.040  0.1024E+01  0.1326E+02
   5.050  0.1038E+01  0.1327E+02
   5.060  0.1053E+01  0.1328E+02
   5.070  0.1067E+01  0.1329E+02
   5.080  0.1082E+01  0.1330E+02
   5.090  0.1097E+01  0.1331E+02
   5.100  0.1113E+01  0.1333E+02
   5.110  0.1128E+01  0.1334E+02
   5.120  0.1145E+01  0.1335E+02
   5.130  0.1161E+01  0.1336E+02
   5.140  0.1178E+01  0.1337E+02
   5.150  0.1194E+01  0.1338E+02
   5.160  0.1210E+01  0.1340E+02
   5.170  0.1225E+01  0.1341E+02
   5.180  0.1239E+01  0.1342E+02
   5.190  0.1251E+01  0.1343E+02
   5.200  0.1261E+01  0.1345E+02
   5.210  0.1270E+01  0.1346E+02
   5.220  0.1276E+01  0.1347E+02
   5.230  0.1279E+01  0.1348E+02
   5.240  0.1281E+01  0.1350E+02
   5.250  0.1280E+01  0.1351E+02
   5.260  0.1278E+01  0.1352E+02
   5.270  0.1274E+01  0.1353E+02
   5.280  0.1268E+01  0.1355E+02
   5.290  0.1262E+01  0.1356E+02
   5.300  0.1256E+01  0.1357E+02
   5.310  0.1250E+01  0.1359E+02
   5.320  0.1244E+01  0.1360E+02
   5.330  0.1240E+01  0.1361E+02
   5.340  0.1237E+01  0.1362E+02
   5.350  0.1236E+01  0.1363E+02
   5.360  0.1236E+01  0.1365E+02
   5.370  0.1239E+01  0.1366E+02
   5.380  0.1243E+01  0.1367E+02
   5.390  0.1248E+01  0.1368E+02
   5.400  0.1255E+01  0.1370E+02
   5.410  0.1263E+01  0.1371E+02
   5.420  0.1272E+01  0.1372E+02
   5.430  0.1281E+01  0.1374E+02
   5.440  0.1290E+01  0.1375E+02
   5.450  0.1299E+01  0.1376E+02
   5.460  0.1307E+01  0.1377E+02
   5.470  0.1313E+01  0.1379E+02
   5.480  0.1317E+01  0.1380E+02
   5.490  0.1320E+01  0.1381E+02
   5.500  0.1320E+01  0.1383E+02
   5.510  0.1319E+01  0.1384E+02
   5.520  0.1315E+01  0.1385E+02
   5.530  0.1309E+01  0.1387E+02
   5.540  0.1301E+01  0.1388E+02
   5.550  0.1292E+01  0.1389E+02
   5.560  0.1282E+01  0.1391E+02
   5.570  0.1271E+01  0.1392E+02
   5.580  0.1260E+01  0.1393E+02
   5.590  0.1249E+01  0.1394E+02
   5.600  0.1239E+01  0.1396E+02
   5.610  0.1231E+01  0.1397E+02
   5.620  0.1224E+01  0.1398E+02
   5.630  0.1219E+01  0.1399E+02
   5.640  0.1216E+01  0.1400E+02
   5.650  0.1216E+01  0.1402E+02
   5.660  0.1218E+01  0.1403E+02
   5.670  0.1222E+01  0.1404E+02
   5.680  0.1228E+01  0.1405E+02
   5.690  0.1236E+01  0.1407E+02
   5.700  0.1246E+01  0.1408E+02
   5.710  0.1256E+01  0.1409E+02
   5.720  0.1268E+01  0.1410E+02
   5.730  0.1279E+01  0.1412E+02
   5.740  0.1291E+01  0.1413E+02
   5.750  0.1302E+01  0.1414E+02
   5.760  0.1313E+01  0.1415E+02
   5.770  0.1322E+01  0.1417E+02
   5.780  0.1331E+01  0.1418E+02
   5.790  0.1339E+01  0.1419E+02
   5.800  0.1346E+01  0.1421E+02
   5.810  0.1352E+01  0.1422E+02
   5.820  0.1357E+01  0.1424E+02
   5.830  0.1361E+01  0.1425E+02
   5.840  0.1364E+01  0.1426E+02
   5.850  0.1366E+01  0.1428E+02
   5.860  0.1367E+01  0.1429E+02
   5.870  0.1366E+01  0.1430E+02
   5.880  0.1364E+01  0.1432E+02
   5.890  0.1361E+01  0.1433E+02
   5.900  0.1356E+01  0.1434E+02
   5.910  0.1349E+01  0.1436E+02
   5.920  0.1341E+01  0.1437E+02
   5.930  0.1331E+01  0.1438E+02
   5.940  0.1321E+01  0.1440E+02
   5.950  0.1309E+01  0.1441E+02
   5.960  0.1298E+01  0.1442E+02
   5.970  0.1287E+01  0.1444E+02
   5.980  0.1277E+01  0.1445E+02
   5.990  0.1269E+01  0.1446E+02
   6.000  0.1263E+01  0.1447E+02
   6.010  0.1260E+01  0.1449E+02
   6.020  0.1260E+01  0.1450E+02
   6.030  0.1264E+01  0.1451E+02
   6.040  0.1271E+01  0.1453E+02
   6.050  0.1281E+01  0.1454E+02
   6.060  0.1296E+01  0.1455E+02
   6.070  0.1313E+01  0.1456E+02
   6.080  0.1332E+01  0.1458E+02
   6.090  0.1354E+01  0.1459E+02
   6.100  0.1376E+01  0.1460E+02
   6.110  0.1400E+01  0.1462E+02
   6.120  0.1423E+01  0.1463E+02
   6.130  0.1446E+01  0.1465E+02
   6.140  0.1467E+01  0.1466E+02
   6.150  0.1487E+01  0.1468E+02
   6.160  0.1505E+01  0.1469E+02
   6.170  0.1520E+01  0.1471E+02
   6.180  0.1534E+01  0.1472E+02
   6.190  0.1545E+01  0.1474E+02
   6.200  0.1554E+01  0.1475E+02
   6.210  0.1561E+01  0.1477E+02
   6.220  0.1566E+01  0.1479E+02
   6.230  0.1570E+01  0.1480E+02
   6.240  0.1573E+01  0.1482E+02
   6.250  0.1576E+01  0.1483E+02
   6.260  0.1579E+01  0.1485E+02
   6.270  0.1582E+01  0.1486E+02
   6.280  0.1585E+01  0.1488E+02
   6.290  0.1590E+01  0.1490E+02
   6.300  0.1596E+01  0.1491E+02
   6.310  0.1603E+01  0.1493E+02
   6.320  0.1612E+01  0.1494E+02
   6.330  0.1622E+01  0.1496E+02
   6.340  0.1632E+01  0.1498E+02
   6.350  0.1644E+01  0.1499E+02
   6.360  0.1656E+01  0.1501E+02
   6.370  0.1667E+01  0.1503E+02
   6.380  0.1679E+01  0.1504E+02
   6.390  0.1689E+01  0.1506E+02
   6.400  0.1698E+01  0.1508E+02
   6.410  0.1706E+01  0.1509E+02
   6.420  0.1711E+01  0.1511E+02
   6.430  0.1715E+01  0.1513E+02
   6.440  0.1715E+01  0.1515E+02
   6.450  0.1714E+01  0.1516E+02
   6.460  0.1710E+01  0.1518E+02
   6.470  0.1703E+01  0.1520E+02
   6.480  0.1695E+01  0.1521E+02
   6.490  0.1684E+01  0.1523E+02
   6.500  0.1672E+01  0.1525E+02
   6.510  0.1659E+01  0.1526E+02
   6.520  0.1645E+01  0.1528E+02
   6.530  0.1630E+01  0.1530E+02
   6.540  0.1615E+01  0.1531E+02
   6.550  0.1600E+01  0.1533E+02
   6.560  0.1585E+01  0.1534E+02
   6.570  0.1571E+01  0.1536E+02
   6.580  0.1557E+01  0.1538E+02
   6.590  0.1544E+01  0.1539E+02
   6.600  0.1532E+01  0.1541E+02
   6.610  0.1522E+01  0.1542E+02
   6.620  0.1512E+01  0.1544E+02
   6.630  0.1504E+01  0.1545E+02
   6.640  0.1498E+01  0.1547E+02
   6.650  0.1493E+01  0.1548E+02
   6.660  0.1490E+01  0.1550E+02
   6.670  0.1489E+01  0.1551E+02
   6.680  0.1490E+01  0.1553E+02
   6.690  0.1493E+01  0.1554E+02
   6.700  0.1498E+01  0.1556E+02
   6.710  0.1505E+01  0.1557E+02
   6.720  0.1514E+01  0.1559E+02
   6.730  0.1524E+01  0.1560E+02
   6.740  0.1536E+01  0.1562E+02
   6.750  0.1549E+01  0.1563E+02
   6.760  0.1563E+01  0.1565E+02
   6.770  0.1576E+01  0.1566E+02
   6.780  0.1590E+01  0.1568E+02
   6.790  0.1603E+01  0.1570E+02
   6.800  0.1615E+01  0.1571E+02
   6.810  0.1626E+01  0.1573E+02
   6.820  0.1637E+01  0.1574E+02
   6.830  0.1646E+01  0.1576E+02
   6.840  0.1655E+01  0.1578E+02
   6.850  0.1664E+01  0.1579E+02
   6.860  0.1673E+01  0.1581E+02
   6.870  0.1684E+01  0.1583E+02
   6.880  0.1697E+01  0.1584E+02
   6.890  0.1714E+01  0.1586E+02
   6.900  0.1735E+01  0.1588E+02
   6.910  0.1760E+01  0.1590E+02
   6.920  0.1792E+01  0.1591E+02
   6.930  0.1829E+01  0.1593E+02
   6.940  0.1873E+01  0.1595E+02
   6.950  0.1924E+01  0.1597E+02
   6.960  0.1980E+01  0.1599E+02
   6.970  0.2041E+01  0.1601E+02
   6.980  0.2107E+01  0.1603E+02
   6.990  0.2175E+01  0.1605E+02
   7.000  0.2244E+01  0.1608E+02
   7.010  0.2314E+01  0.1610E+02
   7.020  0.2381E+01  0.1612E+02
   7.030  0.2444E+01  0.1615E+02
   7.040  0.2502E+01  0.1617E+02
   7.050  0.2554E+01  0.1620E+02
   7.060  0.2597E+01  0.1622E+02
   7.070  0.2633E+01  0.1625E+02
   7.080  0.2659E+01  0.1628E+02
   7.090  0.2675E+01  0.1630E+02
   7.100  0.2683E+01  0.1633E+02
   7.110  0.2682E+01  0.1636E+02
   7.120  0.2673E+01  0.1638E+02
   7.130  0.2657E+01  0.1641E+02
   7.140  0.2636E+01  0.1644E+02
   7.150  0.2609E+01  0.1646E+02
   7.160  0.2579E+01  0.1649E+02
   7.170  0.2546E+01  0.1651E+02
   7.180  0.2512E+01  0.1654E+02
   7.190  0.2478E+01  0.1656E+02
   7.200  0.2444E+01  0.1659E+02
   7.210  0.2412E+01  0.1661E+02
   7.220  0.2383E+01  0.1664E+02
   7.230  0.2356E+01  0.1666E+02
   7.240  0.2333E+01  0.1668E+02
   7.250  0.2315E+01  0.1671E+02
   7.260  0.2301E+01  0.1673E+02
   7.270  0.2293E+01  0.1675E+02
   7.280  0.2290E+01  0.1678E+02
   7.290  0.2294E+01  0.1680E+02
   7.300  0.2303E+01  0.1682E+02
   7.310  0.2319E+01  0.1684E+02
   7.320  0.2342E+01  0.1687E+02
   7.330  0.2369E+01  0.1689E+02
   7.340  0.2403E+01  0.1692E+02
   7.350  0.2441E+01  0.1694E+02
   7.360  0.2482E+01  0.1697E+02
   7.370  0.2526E+01  0.1699E+02
   7.380  0.2572E+01  0.1702E+02
   7.390  0.2617E+01  0.1704E+02
   7.400  0.2662E+01  0.1707E+02
   7.410  0.2704E+01  0.1710E+02
   7.420  0.2742E+01  0.1712E+02
   7.430  0.2775E+01  0.1715E+02
   7.440  0.2803E+01  0.1718E+02
   7.450  0.2825E+01  0.1721E+02
   7.460  0.2840E+01  0.1724E+02
   7.470  0.2848E+01  0.1726E+02
   7.480  0.2851E+01  0.1729E+02
   7.490  0.2847E+01  0.1732E+02
   7.500  0.2839E+01  0.1735E+02
   7.510  0.2826E+01  0.1738E+02
   7.520  0.2811E+01  0.1741E+02
   7.530  0.2795E+01  0.1743E+02
   7.540  0.2779E+01  0.1746E+02
   7.550  0.2764E+01  0.1749E+02
   7.560  0.2753E+01  0.1752E+02
   7.570  0.2746E+01  0.1754E+02
   7.580  0.2744E+01  0.1757E+02
   7.590  0.2748E+01  0.1760E+02
   7.600  0.2759E+01  0.1763E+02
   7.610  0.2777E+01  0.1765E+02
   7.620  0.2801E+01  0.1768E+02
   7.630  0.2832E+01  0.1771E+02
   7.640  0.2869E+01  0.1774E+02
   7.650  0.2911E+01  0.1777E+02
   7.660  0.2956E+01  0.1780E+02
   7.670  0.3004E+01  0.1783E+02
   7.680  0.3053E+01  0.1786E+02
   7.690  0.3102E+01  0.1789E+02
   7.700  0.3149E+01  0.1792E+02
   7.710  0.3193E+01  0.1795E+02
   7.720  0.3234E+01  0.1799E+02
   7.730  0.3270E+01  0.1802E+02
   7.740  0.3302E+01  0.1805E+02
   7.750  0.3329E+01  0.1808E+02
   7.760  0.3350E+01  0.1812E+02
   7.770  0.3368E+01  0.1815E+02
   7.780  0.3382E+01  0.1819E+02
   7.790  0.3392E+01  0.1822E+02
   7.800  0.3401E+01  0.1825E+02
   7.810  0.3408E+01  0.1829E+02
   7.820  0.3415E+01  0.1832E+02
   7.830  0.3423E+01  0.1836E+02
   7.840  0.3432E+01  0.1839E+02
   7.850  0.3443E+01  0.1843E+02
   7.860  0.3456E+01  0.1846E+02
   7.870  0.3471E+01  0.1849E+02
   7.880  0.3488E+01  0.1853E+02
   7.890  0.3507E+01  0.1856E+02
   7.900  0.3526E+01  0.1860E+02
   7.910  0.3545E+01  0.1864E+02
   7.920  0.3564E+01  0.1867E+02
   7.930  0.3580E+01  0.1871E+02
   7.940  0.3594E+01  0.1874E+02
   7.950  0.3603E+01  0.1878E+02
   7.960  0.3608E+01  0.1881E+02
   7.970  0.3607E+01  0.1885E+02
   7.980  0.3601E+01  0.1889E+02
   7.990  0.3587E+01  0.1892E+02
   8.000  0.3568E+01  0.1896E+02
   8.010  0.3541E+01  0.1899E+02
   8.020  0.3508E+01  0.1903E+02
   8.030  0.3469E+01  0.1906E+02
   8.040  0.3425E+01  0.1910E+02
   8.050  0.3377E+01  0.1913E+02
   8.060  0.3324E+01  0.1916E+02
   8.070  0.3268E+01  0.1920E+02
   8.080  0.3211E+01  0.1923E+02
   8.090  0.3152E+01  0.1926E+02
   8.100  0.3094E+01  0.1929E+02
   8.110  0.3036E+01  0.1932E+02
   8.120  0.2980E+01  0.1935E+02
   8.130  0.2927E+01  0.1938E+02
   8.140  0.2876E+01  0.1941E+02
   8.150  0.2830E+01  0.1944E+02
   8.160  0.2788E+01  0.1947E+02
   8.170  0.2750E+01  0.1949E+02
   8.180  0.2718E+01  0.1952E+02
   8.190  0.2692E+01  0.1955E+02
   8.200  0.2671E+01  0.1957E+02
   8.210  0.2655E+01  0.1960E+02
   8.220  0.2645E+01  0.1963E+02
   8.230  0.2640E+01  0.1965E+02
   8.240  0.2638E+01  0.1968E+02
   8.250  0.2640E+01  0.1971E+02
   8.260  0.2645E+01  0.1973E+02
   8.270  0.2651E+01  0.1976E+02
   8.280  0.2657E+01  0.1979E+02
   8.290  0.2662E+01  0.1981E+02
   8.300  0.2665E+01  0.1984E+02
   8.310  0.2664E+01  0.1987E+02
   8.320  0.2658E+01  0.1989E+02
   8.330  0.2646E+01  0.1992E+02
   8.340  0.2627E+01  0.1995E+02
   8.350  0.2601E+01  0.1997E+02
   8.360  0.2567E+01  0.2000E+02
   8.370  0.2525E+01  0.2002E+02
   8.380  0.2475E+01  0.2005E+02
   8.390  0.2418E+01  0.2007E+02
   8.400  0.2352E+01  0.2009E+02
   8.410  0.2281E+01  0.2012E+02
   8.420  0.2203E+01  0.2014E+02
   8.430  0.2121E+01  0.2016E+02
   8.440  0.2035E+01  0.2018E+02
   8.450  0.1946E+01  0.2020E+02
   8.460  0.1856E+01  0.2022E+02
   8.470  0.1766E+01  0.2024E+02
   8.480  0.1677E+01  0.2025E+02
   8.490  0.1590E+01  0.2027E+02
   8.500  0.1507E+01  0.2028E+02
   8.510  0.1429E+01  0.2030E+02
   8.520  0.1356E+01  0.2031E+02
   8.530  0.1290E+01  0.2033E+02
   8.540  0.1232E+01  0.2034E+02
   8.550  0.1182E+01  0.2035E+02
   8.560  0.1142E+01  0.2036E+02
   8.570  0.1111E+01  0.2037E+02
   8.580  0.1089E+01  0.2038E+02
   8.590  0.1077E+01  0.2039E+02
   8.600  0.1075E+01  0.2040E+02
   8.610  0.1081E+01  0.2042E+02
   8.620  0.1096E+01  0.2043E+02
   8.630  0.1117E+01  0.2044E+02
   8.640  0.1145E+01  0.2045E+02
   8.650  0.1177E+01  0.2046E+02
   8.660  0.1213E+01  0.2047E+02
   8.670  0.1251E+01  0.2049E+02
   8.680  0.1289E+01  0.2050E+02
   8.690  0.1328E+01  0.2051E+02
   8.700  0.1364E+01  0.2053E+02
   8.710  0.1398E+01  0.2054E+02
   8.720  0.1429E+01  0.2055E+02
   8.730  0.1455E+01  0.2057E+02
   8.740  0.1476E+01  0.2058E+02
   8.750  0.1493E+01  0.2060E+02
   8.760  0.1504E+01  0.2061E+02
   8.770  0.1510E+01  0.2063E+02
   8.780  0.1511E+01  0.2064E+02
   8.790  0.1508E+01  0.2066E+02
   8.800  0.1501E+01  0.2067E+02
   8.810  0.1490E+01  0.2069E+02
   8.820  0.1476E+01  0.2070E+02
   8.830  0.1460E+01  0.2072E+02
   8.840  0.1443E+01  0.2073E+02
   8.850  0.1426E+01  0.2075E+02
   8.860  0.1409E+01  0.2076E+02
   8.870  0.1393E+01  0.2077E+02
   8.880  0.1381E+01  0.2079E+02
   8.890  0.1372E+01  0.2080E+02
   8.900  0.1368E+01  0.2082E+02
   8.910  0.1369E+01  0.2083E+02
   8.920  0.1377E+01  0.2084E+02
   8.930  0.1392E+01  0.2086E+02
   8.940  0.1416E+01  0.2087E+02
   8.950  0.1448E+01  0.2089E+02
   8.960  0.1488E+01  0.2090E+02
   8.970  0.1537E+01  0.2092E+02
   8.980  0.1595E+01  0.2093E+02
   8.990  0.1660E+01  0.2095E+02
   9.000  0.1733E+01  0.2097E+02
   9.010  0.1811E+01  0.2098E+02
   9.020  0.1894E+01  0.2100E+02
   9.030  0.1979E+01  0.2102E+02
   9.040  0.2066E+01  0.2104E+02
   9.050  0.2152E+01  0.2106E+02
   9.060  0.2235E+01  0.2109E+02
   9.070  0.2313E+01  0.2111E+02
   9.080  0.2384E+01  0.2113E+02
   9.090  0.2447E+01  0.2116E+02
   9.100  0.2499E+01  0.2118E+02
   9.110  0.2540E+01  0.2121E+02
   9.120  0.2569E+01  0.2123E+02
   9.130  0.2585E+01  0.2126E+02
   9.140  0.2587E+01  0.2129E+02
   9.150  0.2577E+01  0.2131E+02
   9.160  0.2555E+01  0.2134E+02
   9.170  0.2522E+01  0.2136E+02
   9.180  0.2479E+01  0.2139E+02
   9.190  0.2427E+01  0.2141E+02
   9.200  0.2368E+01  0.2144E+02
   9.210  0.2303E+01  0.2146E+02
   9.220  0.2235E+01  0.2148E+02
   9.230  0.2165E+01  0.2150E+02
   9.240  0.2094E+01  0.2152E+02
   9.250  0.2022E+01  0.2154E+02
   9.260  0.1952E+01  0.2156E+02
   9.270  0.1883E+01  0.2158E+02
   9.280  0.1817E+01  0.2160E+02
   9.290  0.1752E+01  0.2162E+02
   9.300  0.1690E+01  0.2163E+02
   9.310  0.1630E+01  0.2165E+02
   9.320  0.1573E+01  0.2167E+02
   9.330  0.1518E+01  0.2168E+02
   9.340  0.1464E+01  0.2170E+02
   9.350  0.1413E+01  0.2171E+02
   9.360  0.1363E+01  0.2172E+02
   9.370  0.1316E+01  0.2174E+02
   9.380  0.1271E+01  0.2175E+02
   9.390  0.1228E+01  0.2176E+02
   9.400  0.1188E+01  0.2177E+02
   9.410  0.1152E+01  0.2179E+02
   9.420  0.1120E+01  0.2180E+02
   9.430  0.1092E+01  0.2181E+02
   9.440  0.1068E+01  0.2182E+02
   9.450  0.1049E+01  0.2183E+02
   9.460  0.1036E+01  0.2184E+02
   9.470  0.1028E+01  0.2185E+02
   9.480  0.1024E+01  0.2186E+02
   9.490  0.1026E+01  0.2187E+02
   9.500  0.1032E+01  0.2188E+02
   9.510  0.1043E+01  0.2189E+02
   9.520  0.1057E+01  0.2190E+02
   9.530  0.1073E+01  0.2191E+02
   9.540  0.1092E+01  0.2192E+02
   9.550  0.1112E+01  0.2193E+02
   9.560  0.1133E+01  0.2195E+02
   9.570  0.1154E+01  0.2196E+02
   9.580  0.1174E+01  0.2197E+02
   9.590  0.1192E+01  0.2198E+02
   9.600  0.1209E+01  0.2199E+02
   9.610  0.1223E+01  0.2200E+02
   9.620  0.1236E+01  0.2202E+02
   9.630  0.1246E+01  0.2203E+02
   9.640  0.1254E+01  0.2204E+02
   9.650  0.1261E+01  0.2205E+02
   9.660  0.1266E+01  0.2207E+02
   9.670  0.1271E+01  0.2208E+02
   9.680  0.1275E+01  0.2209E+02
   9.690  0.1279E+01  0.2211E+02
   9.700  0.1284E+01  0.2212E+02
   9.710  0.1290E+01  0.2213E+02
   9.720  0.1298E+01  0.2214E+02
   9.730  0.1307E+01  0.2216E+02
   9.740  0.1318E+01  0.2217E+02
   9.750  0.1330E+01  0.2218E+02
   9.760  0.1344E+01  0.2220E+02
   9.770  0.1360E+01  0.2221E+02
   9.780  0.1377E+01  0.2222E+02
   9.790  0.1396E+01  0.2224E+02
   9.800  0.1415E+01  0.2225E+02
   9.810  0.1435E+01  0.2227E+02
   9.820  0.1455E+01  0.2228E+02
   9.830  0.1475E+01  0.2230E+02
   9.840  0.1496E+01  0.2231E+02
   9.850  0.1518E+01  0.2233E+02
   9.860  0.1539E+01  0.2234E+02
   9.870  0.1562E+01  0.2236E+02
   9.880  0.1585E+01  0.2237E+02
   9.890  0.1610E+01  0.2239E+02
   9.900  0.1636E+01  0.2241E+02
   9.910  0.1664E+01  0.2242E+02
   9.920  0.1693E+01  0.2244E+02
   9.930  0.1725E+01  0.2246E+02
   9.940  0.1757E+01  0.2247E+02
   9.950  0.1792E+01  0.2249E+02
   9.960  0.1828E+01  0.2251E+02
   9.970  0.1864E+01  0.2253E+02
   9.980  0.1901E+01  0.2255E+02
   9.990  0.1939E+01  0.2257E+02
  10.000  0.1975E+01  0.2259E+02
