# E (eV)   ldos(E)   pdos(E)    pdos(E)    pdos(E)   
 -20.358  0.247E-09  0.124E-09  0.615E-10  0.615E-10
 -20.348  0.736E-09  0.362E-09  0.187E-09  0.187E-09
 -20.338  0.211E-08  0.102E-08  0.545E-09  0.545E-09
 -20.328  0.578E-08  0.273E-08  0.153E-08  0.153E-08
 -20.318  0.152E-07  0.703E-08  0.410E-08  0.410E-08
 -20.308  0.384E-07  0.173E-07  0.106E-07  0.106E-07
 -20.298  0.932E-07  0.410E-07  0.261E-07  0.261E-07
 -20.288  0.217E-06  0.929E-07  0.620E-07  0.620E-07
 -20.278  0.485E-06  0.202E-06  0.141E-06  0.141E-06
 -20.268  0.104E-05  0.420E-06  0.310E-06  0.310E-06
 -20.258  0.214E-05  0.839E-06  0.652E-06  0.652E-06
 -20.248  0.425E-05  0.161E-05  0.132E-05  0.132E-05
 -20.238  0.808E-05  0.295E-05  0.257E-05  0.257E-05
 -20.228  0.148E-04  0.519E-05  0.481E-05  0.481E-05
 -20.218  0.261E-04  0.876E-05  0.866E-05  0.866E-05
 -20.208  0.442E-04  0.142E-04  0.150E-04  0.150E-04
 -20.198  0.722E-04  0.221E-04  0.251E-04  0.251E-04
 -20.188  0.114E-03  0.330E-04  0.404E-04  0.404E-04
 -20.178  0.173E-03  0.473E-04  0.628E-04  0.628E-04
 -20.168  0.254E-03  0.653E-04  0.942E-04  0.942E-04
 -20.158  0.360E-03  0.866E-04  0.137E-03  0.137E-03
 -20.148  0.495E-03  0.111E-03  0.192E-03  0.192E-03
 -20.138  0.659E-03  0.136E-03  0.261E-03  0.261E-03
 -20.128  0.852E-03  0.162E-03  0.345E-03  0.345E-03
 -20.118  0.107E-02  0.187E-03  0.442E-03  0.442E-03
 -20.108  0.131E-02  0.208E-03  0.553E-03  0.553E-03
 -20.098  0.157E-02  0.225E-03  0.674E-03  0.674E-03
 -20.088  0.184E-02  0.238E-03  0.803E-03  0.803E-03
 -20.078  0.212E-02  0.245E-03  0.937E-03  0.937E-03
 -20.068  0.240E-02  0.249E-03  0.107E-02  0.107E-02
 -20.058  0.267E-02  0.249E-03  0.121E-02  0.121E-02
 -20.048  0.295E-02  0.248E-03  0.135E-02  0.135E-02
 -20.038  0.322E-02  0.246E-03  0.149E-02  0.149E-02
 -20.028  0.350E-02  0.245E-03  0.163E-02  0.163E-02
 -20.018  0.378E-02  0.246E-03  0.177E-02  0.177E-02
 -20.008  0.407E-02  0.250E-03  0.191E-02  0.191E-02
 -19.998  0.438E-02  0.257E-03  0.206E-02  0.206E-02
 -19.988  0.470E-02  0.268E-03  0.222E-02  0.222E-02
 -19.978  0.506E-02  0.281E-03  0.239E-02  0.239E-02
 -19.968  0.544E-02  0.296E-03  0.257E-02  0.257E-02
 -19.958  0.586E-02  0.312E-03  0.277E-02  0.277E-02
 -19.948  0.630E-02  0.327E-03  0.299E-02  0.299E-02
 -19.938  0.677E-02  0.341E-03  0.322E-02  0.322E-02
 -19.928  0.727E-02  0.352E-03  0.346E-02  0.346E-02
 -19.918  0.778E-02  0.360E-03  0.371E-02  0.371E-02
 -19.908  0.829E-02  0.364E-03  0.396E-02  0.396E-02
 -19.898  0.881E-02  0.365E-03  0.422E-02  0.422E-02
 -19.888  0.933E-02  0.363E-03  0.448E-02  0.448E-02
 -19.878  0.983E-02  0.358E-03  0.474E-02  0.474E-02
 -19.868  0.103E-01  0.352E-03  0.499E-02  0.499E-02
 -19.858  0.108E-01  0.346E-03  0.524E-02  0.524E-02
 -19.848  0.113E-01  0.339E-03  0.548E-02  0.548E-02
 -19.838  0.118E-01  0.333E-03  0.573E-02  0.573E-02
 -19.828  0.123E-01  0.328E-03  0.596E-02  0.596E-02
 -19.818  0.127E-01  0.323E-03  0.620E-02  0.620E-02
 -19.808  0.132E-01  0.318E-03  0.642E-02  0.642E-02
 -19.798  0.136E-01  0.314E-03  0.664E-02  0.664E-02
 -19.788  0.140E-01  0.309E-03  0.685E-02  0.685E-02
 -19.778  0.144E-01  0.305E-03  0.706E-02  0.706E-02
 -19.768  0.149E-01  0.301E-03  0.728E-02  0.728E-02
 -19.758  0.153E-01  0.298E-03  0.750E-02  0.750E-02
 -19.748  0.158E-01  0.295E-03  0.773E-02  0.773E-02
 -19.738  0.162E-01  0.293E-03  0.795E-02  0.795E-02
 -19.728  0.166E-01  0.290E-03  0.817E-02  0.817E-02
 -19.718  0.170E-01  0.287E-03  0.837E-02  0.837E-02
 -19.708  0.174E-01  0.283E-03  0.855E-02  0.855E-02
 -19.698  0.177E-01  0.279E-03  0.872E-02  0.872E-02
 -19.688  0.181E-01  0.275E-03  0.889E-02  0.889E-02
 -19.678  0.184E-01  0.272E-03  0.908E-02  0.908E-02
 -19.668  0.189E-01  0.269E-03  0.929E-02  0.929E-02
 -19.658  0.193E-01  0.267E-03  0.952E-02  0.952E-02
 -19.648  0.198E-01  0.265E-03  0.976E-02  0.976E-02
 -19.638  0.202E-01  0.264E-03  0.999E-02  0.999E-02
 -19.628  0.206E-01  0.262E-03  0.102E-01  0.102E-01
 -19.618  0.209E-01  0.259E-03  0.103E-01  0.103E-01
 -19.608  0.212E-01  0.255E-03  0.105E-01  0.105E-01
 -19.598  0.214E-01  0.250E-03  0.106E-01  0.106E-01
 -19.588  0.217E-01  0.245E-03  0.107E-01  0.107E-01
 -19.578  0.220E-01  0.242E-03  0.109E-01  0.109E-01
 -19.568  0.224E-01  0.240E-03  0.111E-01  0.111E-01
 -19.558  0.229E-01  0.239E-03  0.113E-01  0.113E-01
 -19.548  0.234E-01  0.238E-03  0.116E-01  0.116E-01
 -19.538  0.239E-01  0.238E-03  0.118E-01  0.118E-01
 -19.528  0.243E-01  0.237E-03  0.120E-01  0.120E-01
 -19.518  0.246E-01  0.235E-03  0.122E-01  0.122E-01
 -19.508  0.248E-01  0.231E-03  0.123E-01  0.123E-01
 -19.498  0.249E-01  0.226E-03  0.123E-01  0.123E-01
 -19.488  0.250E-01  0.221E-03  0.124E-01  0.124E-01
 -19.478  0.253E-01  0.217E-03  0.125E-01  0.125E-01
 -19.468  0.256E-01  0.214E-03  0.127E-01  0.127E-01
 -19.458  0.260E-01  0.212E-03  0.129E-01  0.129E-01
 -19.448  0.265E-01  0.212E-03  0.131E-01  0.131E-01
 -19.438  0.270E-01  0.212E-03  0.134E-01  0.134E-01
 -19.428  0.275E-01  0.212E-03  0.136E-01  0.136E-01
 -19.418  0.279E-01  0.212E-03  0.139E-01  0.139E-01
 -19.408  0.283E-01  0.211E-03  0.140E-01  0.140E-01
 -19.398  0.285E-01  0.209E-03  0.142E-01  0.142E-01
 -19.388  0.287E-01  0.205E-03  0.142E-01  0.142E-01
 -19.378  0.288E-01  0.201E-03  0.143E-01  0.143E-01
 -19.368  0.288E-01  0.196E-03  0.143E-01  0.143E-01
 -19.358  0.289E-01  0.192E-03  0.144E-01  0.144E-01
 -19.348  0.290E-01  0.188E-03  0.144E-01  0.144E-01
 -19.338  0.293E-01  0.186E-03  0.145E-01  0.145E-01
 -19.328  0.296E-01  0.185E-03  0.147E-01  0.147E-01
 -19.318  0.301E-01  0.186E-03  0.150E-01  0.150E-01
 -19.308  0.307E-01  0.187E-03  0.153E-01  0.153E-01
 -19.298  0.314E-01  0.188E-03  0.156E-01  0.156E-01
 -19.288  0.320E-01  0.189E-03  0.159E-01  0.159E-01
 -19.278  0.325E-01  0.188E-03  0.162E-01  0.162E-01
 -19.268  0.329E-01  0.186E-03  0.163E-01  0.163E-01
 -19.258  0.329E-01  0.183E-03  0.164E-01  0.164E-01
 -19.248  0.328E-01  0.178E-03  0.163E-01  0.163E-01
 -19.238  0.325E-01  0.172E-03  0.162E-01  0.162E-01
 -19.228  0.321E-01  0.166E-03  0.160E-01  0.160E-01
 -19.218  0.319E-01  0.162E-03  0.159E-01  0.159E-01
 -19.208  0.319E-01  0.159E-03  0.159E-01  0.159E-01
 -19.198  0.322E-01  0.159E-03  0.160E-01  0.160E-01
 -19.188  0.329E-01  0.160E-03  0.164E-01  0.164E-01
 -19.178  0.339E-01  0.163E-03  0.169E-01  0.169E-01
 -19.168  0.350E-01  0.167E-03  0.174E-01  0.174E-01
 -19.158  0.361E-01  0.169E-03  0.180E-01  0.180E-01
 -19.148  0.370E-01  0.171E-03  0.184E-01  0.184E-01
 -19.138  0.375E-01  0.170E-03  0.187E-01  0.187E-01
 -19.128  0.375E-01  0.166E-03  0.187E-01  0.187E-01
 -19.118  0.370E-01  0.161E-03  0.184E-01  0.184E-01
 -19.108  0.362E-01  0.154E-03  0.180E-01  0.180E-01
 -19.098  0.352E-01  0.147E-03  0.175E-01  0.175E-01
 -19.088  0.343E-01  0.141E-03  0.171E-01  0.171E-01
 -19.078  0.338E-01  0.136E-03  0.168E-01  0.168E-01
 -19.068  0.338E-01  0.134E-03  0.168E-01  0.168E-01
 -19.058  0.345E-01  0.135E-03  0.172E-01  0.172E-01
 -19.048  0.357E-01  0.139E-03  0.178E-01  0.178E-01
 -19.038  0.374E-01  0.144E-03  0.186E-01  0.186E-01
 -19.028  0.392E-01  0.149E-03  0.195E-01  0.195E-01
 -19.018  0.409E-01  0.153E-03  0.204E-01  0.204E-01
 -19.008  0.420E-01  0.155E-03  0.209E-01  0.209E-01
 -18.998  0.425E-01  0.155E-03  0.212E-01  0.212E-01
 -18.988  0.421E-01  0.151E-03  0.210E-01  0.210E-01
 -18.978  0.411E-01  0.144E-03  0.205E-01  0.205E-01
 -18.968  0.396E-01  0.136E-03  0.197E-01  0.197E-01
 -18.958  0.379E-01  0.128E-03  0.189E-01  0.189E-01
 -18.948  0.365E-01  0.121E-03  0.182E-01  0.182E-01
 -18.938  0.356E-01  0.116E-03  0.177E-01  0.177E-01
 -18.928  0.353E-01  0.113E-03  0.176E-01  0.176E-01
 -18.918  0.359E-01  0.114E-03  0.179E-01  0.179E-01
 -18.908  0.373E-01  0.117E-03  0.186E-01  0.186E-01
 -18.898  0.394E-01  0.122E-03  0.196E-01  0.196E-01
 -18.888  0.417E-01  0.128E-03  0.208E-01  0.208E-01
 -18.878  0.441E-01  0.134E-03  0.220E-01  0.220E-01
 -18.868  0.460E-01  0.138E-03  0.229E-01  0.229E-01
 -18.858  0.472E-01  0.140E-03  0.235E-01  0.235E-01
 -18.848  0.474E-01  0.139E-03  0.236E-01  0.236E-01
 -18.838  0.465E-01  0.135E-03  0.232E-01  0.232E-01
 -18.828  0.448E-01  0.128E-03  0.224E-01  0.224E-01
 -18.818  0.426E-01  0.120E-03  0.212E-01  0.212E-01
 -18.808  0.402E-01  0.111E-03  0.201E-01  0.201E-01
 -18.798  0.382E-01  0.103E-03  0.191E-01  0.191E-01
 -18.788  0.369E-01  0.979E-04  0.184E-01  0.184E-01
 -18.778  0.366E-01  0.952E-04  0.183E-01  0.183E-01
 -18.768  0.374E-01  0.956E-04  0.186E-01  0.186E-01
 -18.758  0.391E-01  0.987E-04  0.195E-01  0.195E-01
 -18.748  0.415E-01  0.104E-03  0.207E-01  0.207E-01
 -18.738  0.443E-01  0.110E-03  0.221E-01  0.221E-01
 -18.728  0.471E-01  0.116E-03  0.235E-01  0.235E-01
 -18.718  0.495E-01  0.121E-03  0.247E-01  0.247E-01
 -18.708  0.512E-01  0.124E-03  0.255E-01  0.255E-01
 -18.698  0.519E-01  0.125E-03  0.259E-01  0.259E-01
 -18.688  0.515E-01  0.123E-03  0.257E-01  0.257E-01
 -18.678  0.500E-01  0.118E-03  0.250E-01  0.250E-01
 -18.668  0.478E-01  0.112E-03  0.238E-01  0.238E-01
 -18.658  0.451E-01  0.104E-03  0.225E-01  0.225E-01
 -18.648  0.424E-01  0.963E-04  0.211E-01  0.211E-01
 -18.638  0.401E-01  0.893E-04  0.200E-01  0.200E-01
 -18.628  0.385E-01  0.839E-04  0.192E-01  0.192E-01
 -18.618  0.380E-01  0.808E-04  0.190E-01  0.190E-01
 -18.608  0.387E-01  0.803E-04  0.193E-01  0.193E-01
 -18.598  0.406E-01  0.825E-04  0.203E-01  0.203E-01
 -18.588  0.434E-01  0.869E-04  0.216E-01  0.216E-01
 -18.578  0.467E-01  0.928E-04  0.233E-01  0.233E-01
 -18.568  0.500E-01  0.992E-04  0.250E-01  0.250E-01
 -18.558  0.530E-01  0.105E-03  0.265E-01  0.265E-01
 -18.548  0.552E-01  0.109E-03  0.275E-01  0.275E-01
 -18.538  0.562E-01  0.111E-03  0.281E-01  0.281E-01
 -18.528  0.560E-01  0.110E-03  0.280E-01  0.280E-01
 -18.518  0.547E-01  0.107E-03  0.273E-01  0.273E-01
 -18.508  0.525E-01  0.102E-03  0.262E-01  0.262E-01
 -18.498  0.496E-01  0.953E-04  0.248E-01  0.248E-01
 -18.488  0.466E-01  0.883E-04  0.233E-01  0.233E-01
 -18.478  0.439E-01  0.818E-04  0.219E-01  0.219E-01
 -18.468  0.417E-01  0.762E-04  0.208E-01  0.208E-01
 -18.458  0.404E-01  0.722E-04  0.202E-01  0.202E-01
 -18.448  0.401E-01  0.699E-04  0.200E-01  0.200E-01
 -18.438  0.410E-01  0.695E-04  0.205E-01  0.205E-01
 -18.428  0.429E-01  0.710E-04  0.214E-01  0.214E-01
 -18.418  0.456E-01  0.740E-04  0.228E-01  0.228E-01
 -18.408  0.490E-01  0.783E-04  0.244E-01  0.244E-01
 -18.398  0.525E-01  0.833E-04  0.262E-01  0.262E-01
 -18.388  0.557E-01  0.884E-04  0.278E-01  0.278E-01
 -18.378  0.583E-01  0.929E-04  0.291E-01  0.291E-01
 -18.368  0.598E-01  0.959E-04  0.299E-01  0.299E-01
 -18.358  0.601E-01  0.970E-04  0.300E-01  0.300E-01
 -18.348  0.592E-01  0.960E-04  0.295E-01  0.295E-01
 -18.338  0.571E-01  0.928E-04  0.285E-01  0.285E-01
 -18.328  0.543E-01  0.878E-04  0.271E-01  0.271E-01
 -18.318  0.511E-01  0.817E-04  0.255E-01  0.255E-01
 -18.308  0.479E-01  0.753E-04  0.239E-01  0.239E-01
 -18.298  0.452E-01  0.693E-04  0.225E-01  0.225E-01
 -18.288  0.431E-01  0.644E-04  0.215E-01  0.215E-01
 -18.278  0.421E-01  0.610E-04  0.210E-01  0.210E-01
 -18.268  0.422E-01  0.593E-04  0.211E-01  0.211E-01
 -18.258  0.434E-01  0.595E-04  0.217E-01  0.217E-01
 -18.248  0.456E-01  0.611E-04  0.228E-01  0.228E-01
 -18.238  0.486E-01  0.640E-04  0.243E-01  0.243E-01
 -18.228  0.520E-01  0.677E-04  0.260E-01  0.260E-01
 -18.218  0.555E-01  0.718E-04  0.277E-01  0.277E-01
 -18.208  0.588E-01  0.757E-04  0.293E-01  0.293E-01
 -18.198  0.613E-01  0.790E-04  0.306E-01  0.306E-01
 -18.188  0.628E-01  0.815E-04  0.313E-01  0.313E-01
 -18.178  0.632E-01  0.827E-04  0.315E-01  0.315E-01
 -18.168  0.624E-01  0.825E-04  0.312E-01  0.312E-01
 -18.158  0.606E-01  0.810E-04  0.303E-01  0.303E-01
 -18.148  0.581E-01  0.781E-04  0.290E-01  0.290E-01
 -18.138  0.551E-01  0.743E-04  0.275E-01  0.275E-01
 -18.128  0.521E-01  0.697E-04  0.260E-01  0.260E-01
 -18.118  0.493E-01  0.649E-04  0.246E-01  0.246E-01
 -18.108  0.471E-01  0.602E-04  0.235E-01  0.235E-01
 -18.098  0.455E-01  0.562E-04  0.227E-01  0.227E-01
 -18.088  0.448E-01  0.531E-04  0.224E-01  0.224E-01
 -18.078  0.451E-01  0.512E-04  0.225E-01  0.225E-01
 -18.068  0.463E-01  0.507E-04  0.231E-01  0.231E-01
 -18.058  0.483E-01  0.516E-04  0.241E-01  0.241E-01
 -18.048  0.512E-01  0.537E-04  0.256E-01  0.256E-01
 -18.038  0.546E-01  0.569E-04  0.273E-01  0.273E-01
 -18.028  0.582E-01  0.607E-04  0.290E-01  0.290E-01
 -18.018  0.615E-01  0.646E-04  0.307E-01  0.307E-01
 -18.008  0.643E-01  0.681E-04  0.321E-01  0.321E-01
 -17.998  0.660E-01  0.707E-04  0.330E-01  0.330E-01
 -17.988  0.666E-01  0.720E-04  0.333E-01  0.333E-01
 -17.978  0.659E-01  0.719E-04  0.329E-01  0.329E-01
 -17.968  0.641E-01  0.705E-04  0.320E-01  0.320E-01
 -17.958  0.614E-01  0.680E-04  0.307E-01  0.307E-01
 -17.948  0.582E-01  0.647E-04  0.291E-01  0.291E-01
 -17.938  0.550E-01  0.611E-04  0.275E-01  0.275E-01
 -17.928  0.520E-01  0.574E-04  0.260E-01  0.260E-01
 -17.918  0.497E-01  0.539E-04  0.248E-01  0.248E-01
 -17.908  0.483E-01  0.510E-04  0.241E-01  0.241E-01
 -17.898  0.477E-01  0.487E-04  0.238E-01  0.238E-01
 -17.888  0.481E-01  0.470E-04  0.240E-01  0.240E-01
 -17.878  0.492E-01  0.460E-04  0.246E-01  0.246E-01
 -17.868  0.510E-01  0.456E-04  0.255E-01  0.255E-01
 -17.858  0.531E-01  0.458E-04  0.265E-01  0.265E-01
 -17.848  0.556E-01  0.467E-04  0.278E-01  0.278E-01
 -17.838  0.581E-01  0.482E-04  0.290E-01  0.290E-01
 -17.828  0.607E-01  0.503E-04  0.303E-01  0.303E-01
 -17.818  0.631E-01  0.529E-04  0.315E-01  0.315E-01
 -17.808  0.653E-01  0.558E-04  0.326E-01  0.326E-01
 -17.798  0.670E-01  0.586E-04  0.335E-01  0.335E-01
 -17.788  0.680E-01  0.609E-04  0.340E-01  0.340E-01
 -17.778  0.682E-01  0.622E-04  0.341E-01  0.341E-01
 -17.768  0.673E-01  0.624E-04  0.336E-01  0.336E-01
 -17.758  0.655E-01  0.611E-04  0.327E-01  0.327E-01
 -17.748  0.628E-01  0.587E-04  0.314E-01  0.314E-01
 -17.738  0.596E-01  0.553E-04  0.298E-01  0.298E-01
 -17.728  0.562E-01  0.515E-04  0.281E-01  0.281E-01
 -17.718  0.531E-01  0.477E-04  0.265E-01  0.265E-01
 -17.708  0.506E-01  0.443E-04  0.253E-01  0.253E-01
 -17.698  0.491E-01  0.417E-04  0.245E-01  0.245E-01
 -17.688  0.489E-01  0.400E-04  0.244E-01  0.244E-01
 -17.678  0.499E-01  0.393E-04  0.249E-01  0.249E-01
 -17.668  0.520E-01  0.394E-04  0.260E-01  0.260E-01
 -17.658  0.549E-01  0.401E-04  0.274E-01  0.274E-01
 -17.648  0.582E-01  0.412E-04  0.291E-01  0.291E-01
 -17.638  0.614E-01  0.424E-04  0.307E-01  0.307E-01
 -17.628  0.641E-01  0.436E-04  0.320E-01  0.320E-01
 -17.618  0.661E-01  0.447E-04  0.330E-01  0.330E-01
 -17.608  0.673E-01  0.457E-04  0.336E-01  0.336E-01
 -17.598  0.678E-01  0.468E-04  0.339E-01  0.339E-01
 -17.588  0.678E-01  0.480E-04  0.339E-01  0.339E-01
 -17.578  0.675E-01  0.492E-04  0.337E-01  0.337E-01
 -17.568  0.671E-01  0.504E-04  0.335E-01  0.335E-01
 -17.558  0.666E-01  0.513E-04  0.333E-01  0.333E-01
 -17.548  0.659E-01  0.517E-04  0.329E-01  0.329E-01
 -17.538  0.649E-01  0.513E-04  0.324E-01  0.324E-01
 -17.528  0.634E-01  0.500E-04  0.317E-01  0.317E-01
 -17.518  0.614E-01  0.478E-04  0.307E-01  0.307E-01
 -17.508  0.590E-01  0.449E-04  0.295E-01  0.295E-01
 -17.498  0.565E-01  0.417E-04  0.282E-01  0.282E-01
 -17.488  0.543E-01  0.385E-04  0.271E-01  0.271E-01
 -17.478  0.527E-01  0.358E-04  0.264E-01  0.264E-01
 -17.468  0.521E-01  0.338E-04  0.260E-01  0.260E-01
 -17.458  0.526E-01  0.327E-04  0.263E-01  0.263E-01
 -17.448  0.542E-01  0.324E-04  0.271E-01  0.271E-01
 -17.438  0.569E-01  0.330E-04  0.285E-01  0.285E-01
 -17.428  0.604E-01  0.343E-04  0.302E-01  0.302E-01
 -17.418  0.641E-01  0.359E-04  0.320E-01  0.320E-01
 -17.408  0.676E-01  0.377E-04  0.338E-01  0.338E-01
 -17.398  0.704E-01  0.394E-04  0.352E-01  0.352E-01
 -17.388  0.722E-01  0.408E-04  0.361E-01  0.361E-01
 -17.378  0.728E-01  0.419E-04  0.364E-01  0.364E-01
 -17.368  0.723E-01  0.426E-04  0.361E-01  0.361E-01
 -17.358  0.709E-01  0.429E-04  0.354E-01  0.354E-01
 -17.348  0.690E-01  0.429E-04  0.345E-01  0.345E-01
 -17.338  0.669E-01  0.426E-04  0.334E-01  0.334E-01
 -17.328  0.649E-01  0.422E-04  0.325E-01  0.325E-01
 -17.318  0.633E-01  0.417E-04  0.316E-01  0.316E-01
 -17.308  0.621E-01  0.410E-04  0.310E-01  0.310E-01
 -17.298  0.612E-01  0.401E-04  0.306E-01  0.306E-01
 -17.288  0.605E-01  0.389E-04  0.302E-01  0.302E-01
 -17.278  0.600E-01  0.375E-04  0.300E-01  0.300E-01
 -17.268  0.595E-01  0.359E-04  0.297E-01  0.297E-01
 -17.258  0.592E-01  0.341E-04  0.296E-01  0.296E-01
 -17.248  0.591E-01  0.324E-04  0.295E-01  0.295E-01
 -17.238  0.592E-01  0.308E-04  0.296E-01  0.296E-01
 -17.228  0.596E-01  0.296E-04  0.298E-01  0.298E-01
 -17.218  0.605E-01  0.287E-04  0.302E-01  0.302E-01
 -17.208  0.617E-01  0.284E-04  0.309E-01  0.309E-01
 -17.198  0.634E-01  0.285E-04  0.317E-01  0.317E-01
 -17.188  0.653E-01  0.291E-04  0.326E-01  0.326E-01
 -17.178  0.675E-01  0.302E-04  0.337E-01  0.337E-01
 -17.168  0.697E-01  0.317E-04  0.348E-01  0.348E-01
 -17.158  0.717E-01  0.334E-04  0.358E-01  0.358E-01
 -17.148  0.734E-01  0.352E-04  0.367E-01  0.367E-01
 -17.138  0.745E-01  0.368E-04  0.372E-01  0.372E-01
 -17.128  0.747E-01  0.381E-04  0.373E-01  0.373E-01
 -17.118  0.740E-01  0.388E-04  0.370E-01  0.370E-01
 -17.108  0.723E-01  0.388E-04  0.361E-01  0.361E-01
 -17.098  0.699E-01  0.381E-04  0.349E-01  0.349E-01
 -17.088  0.669E-01  0.368E-04  0.334E-01  0.334E-01
 -17.078  0.638E-01  0.350E-04  0.319E-01  0.319E-01
 -17.068  0.610E-01  0.332E-04  0.305E-01  0.305E-01
 -17.058  0.590E-01  0.314E-04  0.295E-01  0.295E-01
 -17.048  0.579E-01  0.300E-04  0.289E-01  0.289E-01
 -17.038  0.580E-01  0.289E-04  0.290E-01  0.290E-01
 -17.028  0.592E-01  0.283E-04  0.296E-01  0.296E-01
 -17.018  0.611E-01  0.280E-04  0.306E-01  0.306E-01
 -17.008  0.636E-01  0.278E-04  0.318E-01  0.318E-01
 -16.998  0.662E-01  0.277E-04  0.331E-01  0.331E-01
 -16.988  0.685E-01  0.275E-04  0.342E-01  0.342E-01
 -16.978  0.701E-01  0.271E-04  0.351E-01  0.351E-01
 -16.968  0.710E-01  0.266E-04  0.355E-01  0.355E-01
 -16.958  0.711E-01  0.261E-04  0.355E-01  0.355E-01
 -16.948  0.705E-01  0.257E-04  0.352E-01  0.352E-01
 -16.938  0.696E-01  0.256E-04  0.348E-01  0.348E-01
 -16.928  0.689E-01  0.258E-04  0.344E-01  0.344E-01
 -16.918  0.687E-01  0.265E-04  0.343E-01  0.343E-01
 -16.908  0.691E-01  0.276E-04  0.346E-01  0.346E-01
 -16.898  0.703E-01  0.291E-04  0.351E-01  0.351E-01
 -16.888  0.719E-01  0.308E-04  0.359E-01  0.359E-01
 -16.878  0.735E-01  0.323E-04  0.368E-01  0.368E-01
 -16.868  0.747E-01  0.335E-04  0.373E-01  0.373E-01
 -16.858  0.748E-01  0.341E-04  0.374E-01  0.374E-01
 -16.848  0.737E-01  0.338E-04  0.368E-01  0.368E-01
 -16.838  0.714E-01  0.327E-04  0.357E-01  0.357E-01
 -16.828  0.681E-01  0.309E-04  0.340E-01  0.340E-01
 -16.818  0.645E-01  0.286E-04  0.322E-01  0.322E-01
 -16.808  0.612E-01  0.263E-04  0.306E-01  0.306E-01
 -16.798  0.589E-01  0.242E-04  0.294E-01  0.294E-01
 -16.788  0.580E-01  0.226E-04  0.290E-01  0.290E-01
 -16.778  0.589E-01  0.218E-04  0.294E-01  0.294E-01
 -16.768  0.613E-01  0.215E-04  0.306E-01  0.306E-01
 -16.758  0.650E-01  0.219E-04  0.325E-01  0.325E-01
 -16.748  0.692E-01  0.225E-04  0.346E-01  0.346E-01
 -16.738  0.734E-01  0.233E-04  0.367E-01  0.367E-01
 -16.728  0.767E-01  0.239E-04  0.384E-01  0.384E-01
 -16.718  0.787E-01  0.242E-04  0.394E-01  0.394E-01
 -16.708  0.791E-01  0.242E-04  0.396E-01  0.396E-01
 -16.698  0.780E-01  0.239E-04  0.390E-01  0.390E-01
 -16.688  0.757E-01  0.235E-04  0.379E-01  0.379E-01
 -16.678  0.729E-01  0.232E-04  0.364E-01  0.364E-01
 -16.668  0.702E-01  0.231E-04  0.351E-01  0.351E-01
 -16.658  0.683E-01  0.233E-04  0.341E-01  0.341E-01
 -16.648  0.674E-01  0.239E-04  0.337E-01  0.337E-01
 -16.638  0.677E-01  0.247E-04  0.338E-01  0.338E-01
 -16.628  0.690E-01  0.257E-04  0.345E-01  0.345E-01
 -16.618  0.707E-01  0.267E-04  0.354E-01  0.354E-01
 -16.608  0.725E-01  0.275E-04  0.363E-01  0.363E-01
 -16.598  0.738E-01  0.279E-04  0.369E-01  0.369E-01
 -16.588  0.742E-01  0.278E-04  0.371E-01  0.371E-01
 -16.578  0.736E-01  0.272E-04  0.368E-01  0.368E-01
 -16.568  0.721E-01  0.261E-04  0.360E-01  0.360E-01
 -16.558  0.700E-01  0.247E-04  0.350E-01  0.350E-01
 -16.548  0.677E-01  0.230E-04  0.339E-01  0.339E-01
 -16.538  0.658E-01  0.213E-04  0.329E-01  0.329E-01
 -16.528  0.647E-01  0.198E-04  0.323E-01  0.323E-01
 -16.518  0.647E-01  0.186E-04  0.323E-01  0.323E-01
 -16.508  0.658E-01  0.178E-04  0.329E-01  0.329E-01
 -16.498  0.679E-01  0.176E-04  0.340E-01  0.340E-01
 -16.488  0.708E-01  0.177E-04  0.354E-01  0.354E-01
 -16.478  0.739E-01  0.182E-04  0.369E-01  0.369E-01
 -16.468  0.768E-01  0.188E-04  0.384E-01  0.384E-01
 -16.458  0.790E-01  0.195E-04  0.395E-01  0.395E-01
 -16.448  0.802E-01  0.201E-04  0.401E-01  0.401E-01
 -16.438  0.803E-01  0.206E-04  0.402E-01  0.402E-01
 -16.428  0.794E-01  0.209E-04  0.397E-01  0.397E-01
 -16.418  0.777E-01  0.212E-04  0.388E-01  0.388E-01
 -16.408  0.755E-01  0.214E-04  0.378E-01  0.378E-01
 -16.398  0.733E-01  0.216E-04  0.366E-01  0.366E-01
 -16.388  0.714E-01  0.218E-04  0.357E-01  0.357E-01
 -16.378  0.700E-01  0.220E-04  0.350E-01  0.350E-01
 -16.368  0.693E-01  0.222E-04  0.346E-01  0.346E-01
 -16.358  0.691E-01  0.223E-04  0.345E-01  0.345E-01
 -16.348  0.694E-01  0.222E-04  0.347E-01  0.347E-01
 -16.338  0.699E-01  0.220E-04  0.349E-01  0.349E-01
 -16.328  0.706E-01  0.216E-04  0.353E-01  0.353E-01
 -16.318  0.714E-01  0.212E-04  0.357E-01  0.357E-01
 -16.308  0.722E-01  0.207E-04  0.361E-01  0.361E-01
 -16.298  0.731E-01  0.202E-04  0.365E-01  0.365E-01
 -16.288  0.740E-01  0.198E-04  0.370E-01  0.370E-01
 -16.278  0.748E-01  0.192E-04  0.374E-01  0.374E-01
 -16.268  0.755E-01  0.186E-04  0.378E-01  0.378E-01
 -16.258  0.760E-01  0.180E-04  0.380E-01  0.380E-01
 -16.248  0.762E-01  0.172E-04  0.381E-01  0.381E-01
 -16.238  0.761E-01  0.164E-04  0.381E-01  0.381E-01
 -16.228  0.757E-01  0.157E-04  0.379E-01  0.379E-01
 -16.218  0.751E-01  0.151E-04  0.375E-01  0.375E-01
 -16.208  0.745E-01  0.147E-04  0.372E-01  0.372E-01
 -16.198  0.741E-01  0.146E-04  0.370E-01  0.370E-01
 -16.188  0.740E-01  0.148E-04  0.370E-01  0.370E-01
 -16.178  0.745E-01  0.154E-04  0.372E-01  0.372E-01
 -16.168  0.754E-01  0.161E-04  0.377E-01  0.377E-01
 -16.158  0.767E-01  0.170E-04  0.383E-01  0.383E-01
 -16.148  0.779E-01  0.180E-04  0.389E-01  0.389E-01
 -16.138  0.788E-01  0.189E-04  0.394E-01  0.394E-01
 -16.128  0.792E-01  0.197E-04  0.396E-01  0.396E-01
 -16.118  0.788E-01  0.202E-04  0.394E-01  0.394E-01
 -16.108  0.776E-01  0.204E-04  0.388E-01  0.388E-01
 -16.098  0.758E-01  0.204E-04  0.379E-01  0.379E-01
 -16.088  0.737E-01  0.199E-04  0.369E-01  0.369E-01
 -16.078  0.716E-01  0.193E-04  0.358E-01  0.358E-01
 -16.068  0.699E-01  0.184E-04  0.349E-01  0.349E-01
 -16.058  0.688E-01  0.174E-04  0.344E-01  0.344E-01
 -16.048  0.686E-01  0.165E-04  0.343E-01  0.343E-01
 -16.038  0.695E-01  0.158E-04  0.347E-01  0.347E-01
 -16.028  0.714E-01  0.153E-04  0.357E-01  0.357E-01
 -16.018  0.743E-01  0.150E-04  0.371E-01  0.371E-01
 -16.008  0.778E-01  0.150E-04  0.389E-01  0.389E-01
 -15.998  0.813E-01  0.152E-04  0.406E-01  0.406E-01
 -15.988  0.843E-01  0.153E-04  0.422E-01  0.422E-01
 -15.978  0.864E-01  0.154E-04  0.432E-01  0.432E-01
 -15.968  0.869E-01  0.152E-04  0.435E-01  0.435E-01
 -15.958  0.859E-01  0.148E-04  0.429E-01  0.429E-01
 -15.948  0.834E-01  0.142E-04  0.417E-01  0.417E-01
 -15.938  0.797E-01  0.135E-04  0.399E-01  0.399E-01
 -15.928  0.757E-01  0.127E-04  0.379E-01  0.379E-01
 -15.918  0.721E-01  0.122E-04  0.360E-01  0.360E-01
 -15.908  0.696E-01  0.120E-04  0.348E-01  0.348E-01
 -15.898  0.687E-01  0.122E-04  0.343E-01  0.343E-01
 -15.888  0.696E-01  0.128E-04  0.348E-01  0.348E-01
 -15.878  0.720E-01  0.137E-04  0.360E-01  0.360E-01
 -15.868  0.755E-01  0.148E-04  0.377E-01  0.377E-01
 -15.858  0.792E-01  0.160E-04  0.396E-01  0.396E-01
 -15.848  0.823E-01  0.171E-04  0.411E-01  0.411E-01
 -15.838  0.841E-01  0.178E-04  0.421E-01  0.421E-01
 -15.828  0.843E-01  0.181E-04  0.422E-01  0.422E-01
 -15.818  0.830E-01  0.179E-04  0.415E-01  0.415E-01
 -15.808  0.803E-01  0.174E-04  0.402E-01  0.402E-01
 -15.798  0.771E-01  0.166E-04  0.386E-01  0.386E-01
 -15.788  0.741E-01  0.155E-04  0.370E-01  0.370E-01
 -15.778  0.718E-01  0.145E-04  0.359E-01  0.359E-01
 -15.768  0.708E-01  0.135E-04  0.354E-01  0.354E-01
 -15.758  0.713E-01  0.126E-04  0.356E-01  0.356E-01
 -15.748  0.733E-01  0.120E-04  0.366E-01  0.366E-01
 -15.738  0.764E-01  0.117E-04  0.382E-01  0.382E-01
 -15.728  0.803E-01  0.115E-04  0.402E-01  0.402E-01
 -15.718  0.843E-01  0.116E-04  0.422E-01  0.422E-01
 -15.708  0.878E-01  0.118E-04  0.439E-01  0.439E-01
 -15.698  0.902E-01  0.120E-04  0.451E-01  0.451E-01
 -15.688  0.912E-01  0.122E-04  0.456E-01  0.456E-01
 -15.678  0.904E-01  0.123E-04  0.452E-01  0.452E-01
 -15.668  0.880E-01  0.121E-04  0.440E-01  0.440E-01
 -15.658  0.844E-01  0.118E-04  0.422E-01  0.422E-01
 -15.648  0.799E-01  0.114E-04  0.400E-01  0.400E-01
 -15.638  0.754E-01  0.109E-04  0.377E-01  0.377E-01
 -15.628  0.716E-01  0.106E-04  0.358E-01  0.358E-01
 -15.618  0.691E-01  0.105E-04  0.346E-01  0.346E-01
 -15.608  0.684E-01  0.107E-04  0.342E-01  0.342E-01
 -15.598  0.697E-01  0.112E-04  0.348E-01  0.348E-01
 -15.588  0.726E-01  0.119E-04  0.363E-01  0.363E-01
 -15.578  0.765E-01  0.128E-04  0.383E-01  0.383E-01
 -15.568  0.808E-01  0.136E-04  0.404E-01  0.404E-01
 -15.558  0.845E-01  0.143E-04  0.422E-01  0.422E-01
 -15.548  0.869E-01  0.147E-04  0.434E-01  0.434E-01
 -15.538  0.876E-01  0.148E-04  0.438E-01  0.438E-01
 -15.528  0.866E-01  0.145E-04  0.433E-01  0.433E-01
 -15.518  0.844E-01  0.139E-04  0.422E-01  0.422E-01
 -15.508  0.817E-01  0.131E-04  0.409E-01  0.409E-01
 -15.498  0.793E-01  0.122E-04  0.397E-01  0.397E-01
 -15.488  0.778E-01  0.114E-04  0.389E-01  0.389E-01
 -15.478  0.776E-01  0.107E-04  0.388E-01  0.388E-01
 -15.468  0.788E-01  0.102E-04  0.394E-01  0.394E-01
 -15.458  0.810E-01  0.975E-05  0.405E-01  0.405E-01
 -15.448  0.839E-01  0.946E-05  0.419E-01  0.419E-01
 -15.438  0.868E-01  0.927E-05  0.434E-01  0.434E-01
 -15.428  0.891E-01  0.916E-05  0.446E-01  0.446E-01
 -15.418  0.906E-01  0.911E-05  0.453E-01  0.453E-01
 -15.408  0.909E-01  0.910E-05  0.455E-01  0.455E-01
 -15.398  0.902E-01  0.912E-05  0.451E-01  0.451E-01
 -15.388  0.884E-01  0.914E-05  0.442E-01  0.442E-01
 -15.378  0.860E-01  0.916E-05  0.430E-01  0.430E-01
 -15.368  0.831E-01  0.915E-05  0.415E-01  0.415E-01
 -15.358  0.800E-01  0.913E-05  0.400E-01  0.400E-01
 -15.348  0.773E-01  0.912E-05  0.386E-01  0.386E-01
 -15.338  0.751E-01  0.916E-05  0.375E-01  0.375E-01
 -15.328  0.738E-01  0.928E-05  0.369E-01  0.369E-01
 -15.318  0.737E-01  0.952E-05  0.368E-01  0.368E-01
 -15.308  0.748E-01  0.988E-05  0.374E-01  0.374E-01
 -15.298  0.771E-01  0.103E-04  0.386E-01  0.386E-01
 -15.288  0.803E-01  0.108E-04  0.401E-01  0.401E-01
 -15.278  0.836E-01  0.112E-04  0.418E-01  0.418E-01
 -15.268  0.867E-01  0.115E-04  0.434E-01  0.434E-01
 -15.258  0.889E-01  0.116E-04  0.445E-01  0.445E-01
 -15.248  0.900E-01  0.114E-04  0.450E-01  0.450E-01
 -15.238  0.898E-01  0.111E-04  0.449E-01  0.449E-01
 -15.228  0.888E-01  0.106E-04  0.444E-01  0.444E-01
 -15.218  0.875E-01  0.994E-05  0.437E-01  0.437E-01
 -15.208  0.864E-01  0.932E-05  0.432E-01  0.432E-01
 -15.198  0.861E-01  0.876E-05  0.431E-01  0.431E-01
 -15.188  0.868E-01  0.830E-05  0.434E-01  0.434E-01
 -15.178  0.884E-01  0.794E-05  0.442E-01  0.442E-01
 -15.168  0.906E-01  0.766E-05  0.453E-01  0.453E-01
 -15.158  0.928E-01  0.744E-05  0.464E-01  0.464E-01
 -15.148  0.945E-01  0.726E-05  0.472E-01  0.472E-01
 -15.138  0.952E-01  0.709E-05  0.476E-01  0.476E-01
 -15.128  0.948E-01  0.692E-05  0.474E-01  0.474E-01
 -15.118  0.934E-01  0.677E-05  0.467E-01  0.467E-01
 -15.108  0.911E-01  0.664E-05  0.455E-01  0.455E-01
 -15.098  0.883E-01  0.655E-05  0.442E-01  0.442E-01
 -15.088  0.855E-01  0.651E-05  0.428E-01  0.428E-01
 -15.078  0.831E-01  0.652E-05  0.415E-01  0.415E-01
 -15.068  0.812E-01  0.660E-05  0.406E-01  0.406E-01
 -15.058  0.802E-01  0.675E-05  0.401E-01  0.401E-01
 -15.048  0.803E-01  0.699E-05  0.401E-01  0.401E-01
 -15.038  0.815E-01  0.731E-05  0.407E-01  0.407E-01
 -15.028  0.836E-01  0.770E-05  0.418E-01  0.418E-01
 -15.018  0.866E-01  0.811E-05  0.433E-01  0.433E-01
 -15.008  0.899E-01  0.849E-05  0.450E-01  0.450E-01
 -14.998  0.932E-01  0.879E-05  0.466E-01  0.466E-01
 -14.988  0.959E-01  0.895E-05  0.480E-01  0.480E-01
 -14.978  0.978E-01  0.892E-05  0.489E-01  0.489E-01
 -14.968  0.988E-01  0.871E-05  0.494E-01  0.494E-01
 -14.958  0.991E-01  0.833E-05  0.495E-01  0.495E-01
 -14.948  0.991E-01  0.784E-05  0.496E-01  0.496E-01
 -14.938  0.996E-01  0.730E-05  0.498E-01  0.498E-01
 -14.928  0.101E+00  0.678E-05  0.504E-01  0.504E-01
 -14.918  0.103E+00  0.632E-05  0.517E-01  0.517E-01
 -14.908  0.107E+00  0.595E-05  0.534E-01  0.534E-01
 -14.898  0.111E+00  0.565E-05  0.554E-01  0.554E-01
 -14.888  0.115E+00  0.541E-05  0.574E-01  0.574E-01
 -14.878  0.118E+00  0.520E-05  0.590E-01  0.590E-01
 -14.868  0.120E+00  0.499E-05  0.598E-01  0.598E-01
 -14.858  0.120E+00  0.475E-05  0.598E-01  0.598E-01
 -14.848  0.118E+00  0.448E-05  0.589E-01  0.589E-01
 -14.838  0.115E+00  0.420E-05  0.573E-01  0.573E-01
 -14.828  0.110E+00  0.392E-05  0.551E-01  0.551E-01
 -14.818  0.106E+00  0.368E-05  0.528E-01  0.528E-01
 -14.808  0.101E+00  0.349E-05  0.504E-01  0.504E-01
 -14.798  0.964E-01  0.338E-05  0.482E-01  0.482E-01
 -14.788  0.925E-01  0.338E-05  0.463E-01  0.463E-01
 -14.778  0.895E-01  0.349E-05  0.447E-01  0.447E-01
 -14.768  0.872E-01  0.372E-05  0.436E-01  0.436E-01
 -14.758  0.858E-01  0.404E-05  0.429E-01  0.429E-01
 -14.748  0.850E-01  0.443E-05  0.425E-01  0.425E-01
 -14.738  0.847E-01  0.484E-05  0.423E-01  0.423E-01
 -14.728  0.845E-01  0.521E-05  0.422E-01  0.422E-01
 -14.718  0.840E-01  0.549E-05  0.420E-01  0.420E-01
 -14.708  0.830E-01  0.563E-05  0.415E-01  0.415E-01
 -14.698  0.814E-01  0.561E-05  0.407E-01  0.407E-01
 -14.688  0.794E-01  0.542E-05  0.397E-01  0.397E-01
 -14.678  0.773E-01  0.511E-05  0.387E-01  0.387E-01
 -14.668  0.756E-01  0.470E-05  0.378E-01  0.378E-01
 -14.658  0.746E-01  0.426E-05  0.373E-01  0.373E-01
 -14.648  0.747E-01  0.384E-05  0.373E-01  0.373E-01
 -14.638  0.757E-01  0.347E-05  0.379E-01  0.379E-01
 -14.628  0.775E-01  0.319E-05  0.388E-01  0.388E-01
 -14.618  0.795E-01  0.297E-05  0.397E-01  0.397E-01
 -14.608  0.810E-01  0.282E-05  0.405E-01  0.405E-01
 -14.598  0.815E-01  0.268E-05  0.407E-01  0.407E-01
 -14.588  0.806E-01  0.254E-05  0.403E-01  0.403E-01
 -14.578  0.782E-01  0.238E-05  0.391E-01  0.391E-01
 -14.568  0.744E-01  0.217E-05  0.372E-01  0.372E-01
 -14.558  0.697E-01  0.193E-05  0.348E-01  0.348E-01
 -14.548  0.645E-01  0.167E-05  0.323E-01  0.323E-01
 -14.538  0.595E-01  0.142E-05  0.298E-01  0.298E-01
 -14.528  0.551E-01  0.121E-05  0.276E-01  0.276E-01
 -14.518  0.516E-01  0.107E-05  0.258E-01  0.258E-01
 -14.508  0.492E-01  0.105E-05  0.246E-01  0.246E-01
 -14.498  0.479E-01  0.115E-05  0.240E-01  0.240E-01
 -14.488  0.475E-01  0.138E-05  0.237E-01  0.237E-01
 -14.478  0.478E-01  0.174E-05  0.239E-01  0.239E-01
 -14.468  0.485E-01  0.220E-05  0.243E-01  0.243E-01
 -14.458  0.495E-01  0.271E-05  0.248E-01  0.248E-01
 -14.448  0.507E-01  0.322E-05  0.253E-01  0.253E-01
 -14.438  0.519E-01  0.368E-05  0.259E-01  0.259E-01
 -14.428  0.530E-01  0.402E-05  0.265E-01  0.265E-01
 -14.418  0.540E-01  0.420E-05  0.270E-01  0.270E-01
 -14.408  0.550E-01  0.420E-05  0.275E-01  0.275E-01
 -14.398  0.560E-01  0.401E-05  0.280E-01  0.280E-01
 -14.388  0.570E-01  0.367E-05  0.285E-01  0.285E-01
 -14.378  0.582E-01  0.321E-05  0.291E-01  0.291E-01
 -14.368  0.597E-01  0.268E-05  0.299E-01  0.299E-01
 -14.358  0.617E-01  0.215E-05  0.308E-01  0.308E-01
 -14.348  0.639E-01  0.165E-05  0.320E-01  0.320E-01
 -14.338  0.661E-01  0.123E-05  0.331E-01  0.331E-01
 -14.328  0.679E-01  0.889E-06  0.339E-01  0.339E-01
 -14.318  0.684E-01  0.637E-06  0.342E-01  0.342E-01
 -14.308  0.673E-01  0.460E-06  0.337E-01  0.337E-01
 -14.298  0.640E-01  0.342E-06  0.320E-01  0.320E-01
 -14.288  0.586E-01  0.268E-06  0.293E-01  0.293E-01
 -14.278  0.513E-01  0.228E-06  0.256E-01  0.256E-01
 -14.268  0.429E-01  0.218E-06  0.214E-01  0.214E-01
 -14.258  0.344E-01  0.245E-06  0.172E-01  0.172E-01
 -14.248  0.269E-01  0.318E-06  0.135E-01  0.135E-01
 -14.238  0.215E-01  0.450E-06  0.107E-01  0.107E-01
 -14.228  0.186E-01  0.652E-06  0.932E-02  0.932E-02
 -14.218  0.187E-01  0.926E-06  0.935E-02  0.935E-02
 -14.208  0.214E-01  0.126E-05  0.107E-01  0.107E-01
 -14.198  0.262E-01  0.165E-05  0.131E-01  0.131E-01
 -14.188  0.322E-01  0.204E-05  0.161E-01  0.161E-01
 -14.178  0.384E-01  0.239E-05  0.192E-01  0.192E-01
 -14.168  0.440E-01  0.266E-05  0.220E-01  0.220E-01
 -14.158  0.483E-01  0.281E-05  0.242E-01  0.242E-01
 -14.148  0.511E-01  0.280E-05  0.255E-01  0.255E-01
 -14.138  0.523E-01  0.264E-05  0.261E-01  0.261E-01
 -14.128  0.522E-01  0.234E-05  0.261E-01  0.261E-01
 -14.118  0.516E-01  0.193E-05  0.258E-01  0.258E-01
 -14.108  0.508E-01  0.149E-05  0.254E-01  0.254E-01
 -14.098  0.504E-01  0.105E-05  0.252E-01  0.252E-01
 -14.088  0.505E-01  0.680E-06  0.252E-01  0.252E-01
 -14.078  0.508E-01  0.393E-06  0.254E-01  0.254E-01
 -14.068  0.509E-01  0.201E-06  0.254E-01  0.254E-01
 -14.058  0.501E-01  0.960E-07  0.251E-01  0.251E-01
 -14.048  0.480E-01  0.567E-07  0.240E-01  0.240E-01
 -14.038  0.444E-01  0.590E-07  0.222E-01  0.222E-01
 -14.028  0.393E-01  0.822E-07  0.197E-01  0.197E-01
 -14.018  0.333E-01  0.113E-06  0.166E-01  0.166E-01
 -14.008  0.271E-01  0.147E-06  0.135E-01  0.135E-01
 -13.998  0.215E-01  0.186E-06  0.107E-01  0.107E-01
 -13.988  0.172E-01  0.237E-06  0.861E-02  0.861E-02
 -13.978  0.147E-01  0.308E-06  0.737E-02  0.737E-02
 -13.968  0.142E-01  0.403E-06  0.711E-02  0.711E-02
 -13.958  0.155E-01  0.526E-06  0.773E-02  0.773E-02
 -13.948  0.182E-01  0.674E-06  0.908E-02  0.908E-02
 -13.938  0.219E-01  0.839E-06  0.109E-01  0.109E-01
 -13.928  0.260E-01  0.101E-05  0.130E-01  0.130E-01
 -13.918  0.302E-01  0.118E-05  0.151E-01  0.151E-01
 -13.908  0.341E-01  0.133E-05  0.170E-01  0.170E-01
 -13.898  0.373E-01  0.146E-05  0.186E-01  0.186E-01
 -13.888  0.397E-01  0.155E-05  0.198E-01  0.198E-01
 -13.878  0.414E-01  0.164E-05  0.207E-01  0.207E-01
 -13.868  0.426E-01  0.172E-05  0.213E-01  0.213E-01
 -13.858  0.436E-01  0.185E-05  0.218E-01  0.218E-01
 -13.848  0.450E-01  0.204E-05  0.225E-01  0.225E-01
 -13.838  0.470E-01  0.234E-05  0.235E-01  0.235E-01
 -13.828  0.500E-01  0.277E-05  0.250E-01  0.250E-01
 -13.818  0.540E-01  0.332E-05  0.270E-01  0.270E-01
 -13.808  0.589E-01  0.397E-05  0.295E-01  0.295E-01
 -13.798  0.643E-01  0.470E-05  0.322E-01  0.322E-01
 -13.788  0.698E-01  0.543E-05  0.349E-01  0.349E-01
 -13.778  0.752E-01  0.613E-05  0.376E-01  0.376E-01
 -13.768  0.801E-01  0.675E-05  0.400E-01  0.400E-01
 -13.758  0.846E-01  0.726E-05  0.423E-01  0.423E-01
 -13.748  0.887E-01  0.764E-05  0.443E-01  0.443E-01
 -13.738  0.926E-01  0.792E-05  0.463E-01  0.463E-01
 -13.728  0.965E-01  0.810E-05  0.482E-01  0.482E-01
 -13.718  0.100E+00  0.823E-05  0.501E-01  0.501E-01
 -13.708  0.104E+00  0.833E-05  0.519E-01  0.519E-01
 -13.698  0.107E+00  0.839E-05  0.536E-01  0.536E-01
 -13.688  0.110E+00  0.842E-05  0.550E-01  0.550E-01
 -13.678  0.112E+00  0.841E-05  0.561E-01  0.561E-01
 -13.668  0.114E+00  0.834E-05  0.570E-01  0.570E-01
 -13.658  0.116E+00  0.822E-05  0.578E-01  0.578E-01
 -13.648  0.117E+00  0.805E-05  0.584E-01  0.584E-01
 -13.638  0.118E+00  0.787E-05  0.591E-01  0.591E-01
 -13.628  0.120E+00  0.771E-05  0.598E-01  0.598E-01
 -13.618  0.121E+00  0.762E-05  0.604E-01  0.604E-01
 -13.608  0.122E+00  0.761E-05  0.609E-01  0.609E-01
 -13.598  0.122E+00  0.770E-05  0.612E-01  0.612E-01
 -13.588  0.122E+00  0.784E-05  0.611E-01  0.611E-01
 -13.578  0.121E+00  0.799E-05  0.607E-01  0.607E-01
 -13.568  0.120E+00  0.810E-05  0.599E-01  0.599E-01
 -13.558  0.118E+00  0.810E-05  0.589E-01  0.589E-01
 -13.548  0.116E+00  0.797E-05  0.578E-01  0.578E-01
 -13.538  0.113E+00  0.771E-05  0.567E-01  0.567E-01
 -13.528  0.111E+00  0.737E-05  0.557E-01  0.557E-01
 -13.518  0.110E+00  0.701E-05  0.549E-01  0.549E-01
 -13.508  0.109E+00  0.672E-05  0.545E-01  0.545E-01
 -13.498  0.109E+00  0.656E-05  0.544E-01  0.544E-01
 -13.488  0.109E+00  0.657E-05  0.545E-01  0.545E-01
 -13.478  0.110E+00  0.675E-05  0.548E-01  0.548E-01
 -13.468  0.111E+00  0.707E-05  0.553E-01  0.553E-01
 -13.458  0.112E+00  0.744E-05  0.558E-01  0.558E-01
 -13.448  0.113E+00  0.780E-05  0.563E-01  0.563E-01
 -13.438  0.114E+00  0.808E-05  0.567E-01  0.567E-01
 -13.428  0.114E+00  0.821E-05  0.572E-01  0.572E-01
 -13.418  0.116E+00  0.819E-05  0.578E-01  0.578E-01
 -13.408  0.117E+00  0.800E-05  0.583E-01  0.583E-01
 -13.398  0.117E+00  0.770E-05  0.587E-01  0.587E-01
 -13.388  0.118E+00  0.731E-05  0.589E-01  0.589E-01
 -13.378  0.118E+00  0.691E-05  0.589E-01  0.589E-01
 -13.368  0.117E+00  0.655E-05  0.586E-01  0.586E-01
 -13.358  0.116E+00  0.630E-05  0.581E-01  0.581E-01
 -13.348  0.115E+00  0.618E-05  0.576E-01  0.576E-01
 -13.338  0.114E+00  0.622E-05  0.571E-01  0.571E-01
 -13.328  0.114E+00  0.643E-05  0.569E-01  0.569E-01
 -13.318  0.114E+00  0.676E-05  0.571E-01  0.571E-01
 -13.308  0.115E+00  0.717E-05  0.576E-01  0.576E-01
 -13.298  0.117E+00  0.757E-05  0.583E-01  0.583E-01
 -13.288  0.118E+00  0.788E-05  0.591E-01  0.591E-01
 -13.278  0.119E+00  0.805E-05  0.597E-01  0.597E-01
 -13.268  0.120E+00  0.804E-05  0.600E-01  0.600E-01
 -13.258  0.120E+00  0.783E-05  0.599E-01  0.599E-01
 -13.248  0.119E+00  0.747E-05  0.593E-01  0.593E-01
 -13.238  0.117E+00  0.703E-05  0.584E-01  0.584E-01
 -13.228  0.115E+00  0.657E-05  0.574E-01  0.574E-01
 -13.218  0.113E+00  0.618E-05  0.565E-01  0.565E-01
 -13.208  0.112E+00  0.592E-05  0.559E-01  0.559E-01
 -13.198  0.111E+00  0.583E-05  0.555E-01  0.555E-01
 -13.188  0.111E+00  0.591E-05  0.555E-01  0.555E-01
 -13.178  0.112E+00  0.613E-05  0.559E-01  0.559E-01
 -13.168  0.113E+00  0.643E-05  0.565E-01  0.565E-01
 -13.158  0.115E+00  0.676E-05  0.574E-01  0.574E-01
 -13.148  0.117E+00  0.707E-05  0.585E-01  0.585E-01
 -13.138  0.120E+00  0.730E-05  0.599E-01  0.599E-01
 -13.128  0.123E+00  0.744E-05  0.617E-01  0.617E-01
 -13.118  0.127E+00  0.749E-05  0.636E-01  0.636E-01
 -13.108  0.131E+00  0.745E-05  0.656E-01  0.656E-01
 -13.098  0.135E+00  0.733E-05  0.674E-01  0.674E-01
 -13.088  0.137E+00  0.715E-05  0.686E-01  0.686E-01
 -13.078  0.138E+00  0.693E-05  0.689E-01  0.689E-01
 -13.068  0.137E+00  0.668E-05  0.684E-01  0.684E-01
 -13.058  0.134E+00  0.643E-05  0.670E-01  0.670E-01
 -13.048  0.131E+00  0.620E-05  0.653E-01  0.653E-01
 -13.038  0.128E+00  0.605E-05  0.638E-01  0.638E-01
 -13.028  0.126E+00  0.599E-05  0.631E-01  0.631E-01
 -13.018  0.128E+00  0.605E-05  0.637E-01  0.637E-01
 -13.008  0.132E+00  0.623E-05  0.661E-01  0.661E-01
 -12.998  0.140E+00  0.650E-05  0.700E-01  0.700E-01
 -12.988  0.150E+00  0.681E-05  0.750E-01  0.750E-01
 -12.978  0.161E+00  0.710E-05  0.805E-01  0.805E-01
 -12.968  0.171E+00  0.731E-05  0.856E-01  0.856E-01
 -12.958  0.179E+00  0.741E-05  0.896E-01  0.896E-01
 -12.948  0.184E+00  0.736E-05  0.920E-01  0.920E-01
 -12.938  0.185E+00  0.718E-05  0.926E-01  0.926E-01
 -12.928  0.183E+00  0.691E-05  0.914E-01  0.914E-01
 -12.918  0.178E+00  0.660E-05  0.890E-01  0.890E-01
 -12.908  0.172E+00  0.628E-05  0.859E-01  0.859E-01
 -12.898  0.166E+00  0.601E-05  0.828E-01  0.828E-01
 -12.888  0.160E+00  0.579E-05  0.802E-01  0.802E-01
 -12.878  0.156E+00  0.563E-05  0.782E-01  0.782E-01
 -12.868  0.154E+00  0.551E-05  0.770E-01  0.770E-01
 -12.858  0.153E+00  0.540E-05  0.764E-01  0.764E-01
 -12.848  0.152E+00  0.528E-05  0.762E-01  0.762E-01
 -12.838  0.152E+00  0.514E-05  0.760E-01  0.760E-01
 -12.828  0.151E+00  0.496E-05  0.756E-01  0.756E-01
 -12.818  0.150E+00  0.476E-05  0.750E-01  0.750E-01
 -12.808  0.148E+00  0.454E-05  0.741E-01  0.741E-01
 -12.798  0.146E+00  0.433E-05  0.729E-01  0.729E-01
 -12.788  0.143E+00  0.417E-05  0.715E-01  0.715E-01
 -12.778  0.140E+00  0.407E-05  0.702E-01  0.702E-01
 -12.768  0.138E+00  0.403E-05  0.691E-01  0.691E-01
 -12.758  0.136E+00  0.407E-05  0.681E-01  0.681E-01
 -12.748  0.135E+00  0.415E-05  0.673E-01  0.673E-01
 -12.738  0.133E+00  0.424E-05  0.665E-01  0.665E-01
 -12.728  0.131E+00  0.430E-05  0.657E-01  0.657E-01
 -12.718  0.130E+00  0.432E-05  0.648E-01  0.648E-01
 -12.708  0.127E+00  0.426E-05  0.637E-01  0.637E-01
 -12.698  0.125E+00  0.415E-05  0.627E-01  0.627E-01
 -12.688  0.124E+00  0.398E-05  0.620E-01  0.620E-01
 -12.678  0.123E+00  0.380E-05  0.617E-01  0.617E-01
 -12.668  0.124E+00  0.364E-05  0.620E-01  0.620E-01
 -12.658  0.126E+00  0.350E-05  0.629E-01  0.629E-01
 -12.648  0.129E+00  0.341E-05  0.643E-01  0.643E-01
 -12.638  0.132E+00  0.336E-05  0.659E-01  0.659E-01
 -12.628  0.135E+00  0.334E-05  0.674E-01  0.674E-01
 -12.618  0.137E+00  0.332E-05  0.683E-01  0.683E-01
 -12.608  0.137E+00  0.330E-05  0.684E-01  0.684E-01
 -12.598  0.135E+00  0.326E-05  0.676E-01  0.676E-01
 -12.588  0.132E+00  0.320E-05  0.659E-01  0.659E-01
 -12.578  0.127E+00  0.312E-05  0.635E-01  0.635E-01
 -12.568  0.122E+00  0.304E-05  0.609E-01  0.609E-01
 -12.558  0.117E+00  0.297E-05  0.585E-01  0.585E-01
 -12.548  0.113E+00  0.292E-05  0.567E-01  0.567E-01
 -12.538  0.112E+00  0.292E-05  0.558E-01  0.558E-01
 -12.528  0.112E+00  0.295E-05  0.559E-01  0.559E-01
 -12.518  0.114E+00  0.300E-05  0.568E-01  0.568E-01
 -12.508  0.117E+00  0.306E-05  0.583E-01  0.583E-01
 -12.498  0.120E+00  0.311E-05  0.599E-01  0.599E-01
 -12.488  0.123E+00  0.311E-05  0.613E-01  0.613E-01
 -12.478  0.124E+00  0.305E-05  0.621E-01  0.621E-01
 -12.468  0.125E+00  0.294E-05  0.624E-01  0.624E-01
 -12.458  0.124E+00  0.279E-05  0.622E-01  0.622E-01
 -12.448  0.123E+00  0.262E-05  0.616E-01  0.616E-01
 -12.438  0.122E+00  0.245E-05  0.611E-01  0.611E-01
 -12.428  0.121E+00  0.231E-05  0.607E-01  0.607E-01
 -12.418  0.121E+00  0.222E-05  0.606E-01  0.606E-01
 -12.408  0.121E+00  0.219E-05  0.607E-01  0.607E-01
 -12.398  0.122E+00  0.222E-05  0.608E-01  0.608E-01
 -12.388  0.121E+00  0.229E-05  0.607E-01  0.607E-01
 -12.378  0.120E+00  0.237E-05  0.602E-01  0.602E-01
 -12.368  0.118E+00  0.244E-05  0.591E-01  0.591E-01
 -12.358  0.115E+00  0.248E-05  0.575E-01  0.575E-01
 -12.348  0.111E+00  0.246E-05  0.557E-01  0.557E-01
 -12.338  0.108E+00  0.240E-05  0.539E-01  0.539E-01
 -12.328  0.105E+00  0.231E-05  0.524E-01  0.524E-01
 -12.318  0.103E+00  0.220E-05  0.517E-01  0.517E-01
 -12.308  0.104E+00  0.211E-05  0.519E-01  0.519E-01
 -12.298  0.106E+00  0.205E-05  0.531E-01  0.531E-01
 -12.288  0.110E+00  0.203E-05  0.550E-01  0.550E-01
 -12.278  0.115E+00  0.205E-05  0.573E-01  0.573E-01
 -12.268  0.119E+00  0.209E-05  0.595E-01  0.595E-01
 -12.258  0.123E+00  0.212E-05  0.612E-01  0.612E-01
 -12.248  0.124E+00  0.214E-05  0.622E-01  0.622E-01
 -12.238  0.125E+00  0.210E-05  0.623E-01  0.623E-01
 -12.228  0.123E+00  0.203E-05  0.615E-01  0.615E-01
 -12.218  0.120E+00  0.191E-05  0.600E-01  0.600E-01
 -12.208  0.117E+00  0.178E-05  0.583E-01  0.583E-01
 -12.198  0.113E+00  0.165E-05  0.566E-01  0.566E-01
 -12.188  0.110E+00  0.156E-05  0.551E-01  0.551E-01
 -12.178  0.108E+00  0.151E-05  0.541E-01  0.541E-01
 -12.168  0.107E+00  0.153E-05  0.534E-01  0.534E-01
 -12.158  0.106E+00  0.159E-05  0.530E-01  0.530E-01
 -12.148  0.106E+00  0.168E-05  0.528E-01  0.528E-01
 -12.138  0.105E+00  0.177E-05  0.524E-01  0.524E-01
 -12.128  0.104E+00  0.185E-05  0.520E-01  0.520E-01
 -12.118  0.103E+00  0.188E-05  0.515E-01  0.515E-01
 -12.108  0.102E+00  0.185E-05  0.510E-01  0.510E-01
 -12.098  0.102E+00  0.178E-05  0.508E-01  0.508E-01
 -12.088  0.102E+00  0.168E-05  0.512E-01  0.512E-01
 -12.078  0.105E+00  0.157E-05  0.523E-01  0.523E-01
 -12.068  0.108E+00  0.146E-05  0.540E-01  0.540E-01
 -12.058  0.112E+00  0.138E-05  0.562E-01  0.562E-01
 -12.048  0.117E+00  0.134E-05  0.586E-01  0.586E-01
 -12.038  0.121E+00  0.134E-05  0.605E-01  0.605E-01
 -12.028  0.123E+00  0.135E-05  0.616E-01  0.616E-01
 -12.018  0.123E+00  0.138E-05  0.615E-01  0.615E-01
 -12.008  0.120E+00  0.139E-05  0.601E-01  0.601E-01
 -11.998  0.115E+00  0.139E-05  0.577E-01  0.577E-01
 -11.988  0.109E+00  0.137E-05  0.547E-01  0.547E-01
 -11.978  0.103E+00  0.133E-05  0.517E-01  0.517E-01
 -11.968  0.984E-01  0.128E-05  0.492E-01  0.492E-01
 -11.958  0.951E-01  0.124E-05  0.475E-01  0.475E-01
 -11.948  0.938E-01  0.120E-05  0.469E-01  0.469E-01
 -11.938  0.944E-01  0.119E-05  0.472E-01  0.472E-01
 -11.928  0.963E-01  0.119E-05  0.482E-01  0.482E-01
 -11.918  0.989E-01  0.120E-05  0.495E-01  0.495E-01
 -11.908  0.101E+00  0.122E-05  0.507E-01  0.507E-01
 -11.898  0.104E+00  0.123E-05  0.518E-01  0.518E-01
 -11.888  0.105E+00  0.123E-05  0.525E-01  0.525E-01
 -11.878  0.106E+00  0.122E-05  0.528E-01  0.528E-01
 -11.868  0.106E+00  0.119E-05  0.529E-01  0.529E-01
 -11.858  0.106E+00  0.115E-05  0.530E-01  0.530E-01
 -11.848  0.107E+00  0.110E-05  0.532E-01  0.532E-01
 -11.838  0.107E+00  0.106E-05  0.537E-01  0.537E-01
 -11.828  0.109E+00  0.102E-05  0.545E-01  0.545E-01
 -11.818  0.111E+00  0.995E-06  0.554E-01  0.554E-01
 -11.808  0.112E+00  0.979E-06  0.561E-01  0.561E-01
 -11.798  0.113E+00  0.971E-06  0.566E-01  0.566E-01
 -11.788  0.113E+00  0.965E-06  0.564E-01  0.564E-01
 -11.778  0.111E+00  0.958E-06  0.556E-01  0.556E-01
 -11.768  0.108E+00  0.947E-06  0.541E-01  0.541E-01
 -11.758  0.104E+00  0.931E-06  0.522E-01  0.522E-01
 -11.748  0.100E+00  0.910E-06  0.500E-01  0.500E-01
 -11.738  0.958E-01  0.888E-06  0.479E-01  0.479E-01
 -11.728  0.922E-01  0.868E-06  0.461E-01  0.461E-01
 -11.718  0.896E-01  0.851E-06  0.448E-01  0.448E-01
 -11.708  0.882E-01  0.841E-06  0.441E-01  0.441E-01
 -11.698  0.882E-01  0.837E-06  0.441E-01  0.441E-01
 -11.688  0.895E-01  0.838E-06  0.447E-01  0.447E-01
 -11.678  0.920E-01  0.844E-06  0.460E-01  0.460E-01
 -11.668  0.955E-01  0.850E-06  0.477E-01  0.477E-01
 -11.658  0.997E-01  0.854E-06  0.499E-01  0.499E-01
 -11.648  0.104E+00  0.852E-06  0.521E-01  0.521E-01
 -11.638  0.108E+00  0.842E-06  0.542E-01  0.542E-01
 -11.628  0.112E+00  0.821E-06  0.560E-01  0.560E-01
 -11.618  0.114E+00  0.790E-06  0.570E-01  0.570E-01
 -11.608  0.115E+00  0.753E-06  0.574E-01  0.574E-01
 -11.598  0.114E+00  0.714E-06  0.569E-01  0.569E-01
 -11.588  0.111E+00  0.677E-06  0.556E-01  0.556E-01
 -11.578  0.108E+00  0.646E-06  0.538E-01  0.538E-01
 -11.568  0.103E+00  0.626E-06  0.517E-01  0.517E-01
 -11.558  0.990E-01  0.617E-06  0.495E-01  0.495E-01
 -11.548  0.950E-01  0.617E-06  0.475E-01  0.475E-01
 -11.538  0.918E-01  0.625E-06  0.459E-01  0.459E-01
 -11.528  0.895E-01  0.636E-06  0.447E-01  0.447E-01
 -11.518  0.882E-01  0.646E-06  0.441E-01  0.441E-01
 -11.508  0.879E-01  0.652E-06  0.439E-01  0.439E-01
 -11.498  0.885E-01  0.652E-06  0.442E-01  0.442E-01
 -11.488  0.898E-01  0.645E-06  0.449E-01  0.449E-01
 -11.478  0.916E-01  0.631E-06  0.458E-01  0.458E-01
 -11.468  0.939E-01  0.611E-06  0.469E-01  0.469E-01
 -11.458  0.963E-01  0.589E-06  0.481E-01  0.481E-01
 -11.448  0.987E-01  0.568E-06  0.494E-01  0.494E-01
 -11.438  0.101E+00  0.550E-06  0.505E-01  0.505E-01
 -11.428  0.103E+00  0.536E-06  0.514E-01  0.514E-01
 -11.418  0.104E+00  0.528E-06  0.520E-01  0.520E-01
 -11.408  0.104E+00  0.525E-06  0.522E-01  0.522E-01
 -11.398  0.104E+00  0.524E-06  0.519E-01  0.519E-01
 -11.388  0.103E+00  0.523E-06  0.513E-01  0.513E-01
 -11.378  0.101E+00  0.521E-06  0.503E-01  0.503E-01
 -11.368  0.987E-01  0.517E-06  0.493E-01  0.493E-01
 -11.358  0.970E-01  0.511E-06  0.485E-01  0.485E-01
 -11.348  0.960E-01  0.503E-06  0.480E-01  0.480E-01
 -11.338  0.958E-01  0.493E-06  0.479E-01  0.479E-01
 -11.328  0.960E-01  0.482E-06  0.480E-01  0.480E-01
 -11.318  0.964E-01  0.468E-06  0.482E-01  0.482E-01
 -11.308  0.966E-01  0.453E-06  0.483E-01  0.483E-01
 -11.298  0.962E-01  0.436E-06  0.481E-01  0.481E-01
 -11.288  0.951E-01  0.418E-06  0.475E-01  0.475E-01
 -11.278  0.934E-01  0.403E-06  0.467E-01  0.467E-01
 -11.268  0.915E-01  0.391E-06  0.457E-01  0.457E-01
 -11.258  0.897E-01  0.385E-06  0.449E-01  0.449E-01
 -11.248  0.885E-01  0.386E-06  0.443E-01  0.443E-01
 -11.238  0.880E-01  0.394E-06  0.440E-01  0.440E-01
 -11.228  0.883E-01  0.408E-06  0.441E-01  0.441E-01
 -11.218  0.893E-01  0.430E-06  0.446E-01  0.446E-01
 -11.208  0.908E-01  0.460E-06  0.454E-01  0.454E-01
 -11.198  0.927E-01  0.501E-06  0.464E-01  0.464E-01
 -11.188  0.949E-01  0.557E-06  0.474E-01  0.474E-01
 -11.178  0.971E-01  0.636E-06  0.485E-01  0.485E-01
 -11.168  0.993E-01  0.747E-06  0.497E-01  0.497E-01
 -11.158  0.102E+00  0.899E-06  0.508E-01  0.508E-01
 -11.148  0.104E+00  0.110E-05  0.519E-01  0.519E-01
 -11.138  0.106E+00  0.136E-05  0.531E-01  0.531E-01
 -11.128  0.109E+00  0.169E-05  0.543E-01  0.543E-01
 -11.118  0.112E+00  0.206E-05  0.558E-01  0.558E-01
 -11.108  0.115E+00  0.247E-05  0.573E-01  0.573E-01
 -11.098  0.118E+00  0.289E-05  0.589E-01  0.589E-01
 -11.088  0.121E+00  0.329E-05  0.605E-01  0.605E-01
 -11.078  0.124E+00  0.363E-05  0.619E-01  0.619E-01
 -11.068  0.126E+00  0.389E-05  0.630E-01  0.630E-01
 -11.058  0.128E+00  0.406E-05  0.640E-01  0.640E-01
 -11.048  0.130E+00  0.413E-05  0.648E-01  0.648E-01
 -11.038  0.131E+00  0.413E-05  0.656E-01  0.656E-01
 -11.028  0.133E+00  0.410E-05  0.664E-01  0.664E-01
 -11.018  0.135E+00  0.408E-05  0.674E-01  0.674E-01
 -11.008  0.137E+00  0.409E-05  0.685E-01  0.685E-01
 -10.998  0.139E+00  0.416E-05  0.697E-01  0.697E-01
 -10.988  0.142E+00  0.428E-05  0.710E-01  0.710E-01
 -10.978  0.144E+00  0.441E-05  0.721E-01  0.721E-01
 -10.968  0.146E+00  0.453E-05  0.730E-01  0.730E-01
 -10.958  0.147E+00  0.460E-05  0.736E-01  0.736E-01
 -10.948  0.147E+00  0.457E-05  0.737E-01  0.737E-01
 -10.938  0.147E+00  0.446E-05  0.733E-01  0.733E-01
 -10.928  0.145E+00  0.426E-05  0.724E-01  0.724E-01
 -10.918  0.142E+00  0.400E-05  0.711E-01  0.711E-01
 -10.908  0.139E+00  0.374E-05  0.695E-01  0.695E-01
 -10.898  0.136E+00  0.349E-05  0.680E-01  0.680E-01
 -10.888  0.133E+00  0.331E-05  0.667E-01  0.667E-01
 -10.878  0.132E+00  0.320E-05  0.660E-01  0.660E-01
 -10.868  0.132E+00  0.317E-05  0.660E-01  0.660E-01
 -10.858  0.133E+00  0.321E-05  0.667E-01  0.667E-01
 -10.848  0.136E+00  0.331E-05  0.680E-01  0.680E-01
 -10.838  0.140E+00  0.344E-05  0.698E-01  0.698E-01
 -10.828  0.143E+00  0.360E-05  0.716E-01  0.716E-01
 -10.818  0.146E+00  0.377E-05  0.732E-01  0.732E-01
 -10.808  0.149E+00  0.396E-05  0.745E-01  0.745E-01
 -10.798  0.151E+00  0.415E-05  0.754E-01  0.754E-01
 -10.788  0.152E+00  0.434E-05  0.759E-01  0.759E-01
 -10.778  0.152E+00  0.450E-05  0.759E-01  0.759E-01
 -10.768  0.151E+00  0.462E-05  0.756E-01  0.756E-01
 -10.758  0.150E+00  0.467E-05  0.749E-01  0.749E-01
 -10.748  0.148E+00  0.466E-05  0.738E-01  0.738E-01
 -10.738  0.145E+00  0.456E-05  0.723E-01  0.723E-01
 -10.728  0.141E+00  0.438E-05  0.706E-01  0.706E-01
 -10.718  0.138E+00  0.414E-05  0.689E-01  0.689E-01
 -10.708  0.134E+00  0.386E-05  0.672E-01  0.672E-01
 -10.698  0.132E+00  0.356E-05  0.659E-01  0.659E-01
 -10.688  0.130E+00  0.325E-05  0.652E-01  0.652E-01
 -10.678  0.130E+00  0.296E-05  0.650E-01  0.650E-01
 -10.668  0.131E+00  0.271E-05  0.654E-01  0.654E-01
 -10.658  0.133E+00  0.250E-05  0.663E-01  0.663E-01
 -10.648  0.135E+00  0.235E-05  0.676E-01  0.676E-01
 -10.638  0.138E+00  0.229E-05  0.690E-01  0.690E-01
 -10.628  0.141E+00  0.233E-05  0.704E-01  0.704E-01
 -10.618  0.144E+00  0.249E-05  0.718E-01  0.718E-01
 -10.608  0.146E+00  0.277E-05  0.731E-01  0.731E-01
 -10.598  0.148E+00  0.316E-05  0.742E-01  0.742E-01
 -10.588  0.150E+00  0.363E-05  0.751E-01  0.751E-01
 -10.578  0.152E+00  0.414E-05  0.760E-01  0.760E-01
 -10.568  0.154E+00  0.462E-05  0.769E-01  0.769E-01
 -10.558  0.155E+00  0.502E-05  0.776E-01  0.776E-01
 -10.548  0.157E+00  0.529E-05  0.782E-01  0.782E-01
 -10.538  0.157E+00  0.539E-05  0.787E-01  0.787E-01
 -10.528  0.158E+00  0.530E-05  0.788E-01  0.788E-01
 -10.518  0.157E+00  0.505E-05  0.785E-01  0.785E-01
 -10.508  0.156E+00  0.467E-05  0.778E-01  0.778E-01
 -10.498  0.153E+00  0.421E-05  0.765E-01  0.765E-01
 -10.488  0.150E+00  0.372E-05  0.749E-01  0.749E-01
 -10.478  0.146E+00  0.326E-05  0.729E-01  0.729E-01
 -10.468  0.142E+00  0.285E-05  0.709E-01  0.709E-01
 -10.458  0.138E+00  0.254E-05  0.690E-01  0.690E-01
 -10.448  0.135E+00  0.232E-05  0.675E-01  0.675E-01
 -10.438  0.133E+00  0.219E-05  0.664E-01  0.664E-01
 -10.428  0.132E+00  0.214E-05  0.659E-01  0.659E-01
 -10.418  0.132E+00  0.214E-05  0.659E-01  0.659E-01
 -10.408  0.133E+00  0.219E-05  0.663E-01  0.663E-01
 -10.398  0.134E+00  0.229E-05  0.672E-01  0.672E-01
 -10.388  0.136E+00  0.243E-05  0.682E-01  0.682E-01
 -10.378  0.139E+00  0.262E-05  0.695E-01  0.695E-01
 -10.368  0.142E+00  0.285E-05  0.709E-01  0.709E-01
 -10.358  0.145E+00  0.313E-05  0.724E-01  0.724E-01
 -10.348  0.148E+00  0.343E-05  0.739E-01  0.739E-01
 -10.338  0.151E+00  0.375E-05  0.754E-01  0.754E-01
 -10.328  0.154E+00  0.404E-05  0.768E-01  0.768E-01
 -10.318  0.156E+00  0.429E-05  0.781E-01  0.781E-01
 -10.308  0.159E+00  0.445E-05  0.793E-01  0.793E-01
 -10.298  0.160E+00  0.452E-05  0.802E-01  0.802E-01
 -10.288  0.162E+00  0.448E-05  0.808E-01  0.808E-01
 -10.278  0.162E+00  0.435E-05  0.812E-01  0.812E-01
 -10.268  0.162E+00  0.416E-05  0.812E-01  0.812E-01
 -10.258  0.162E+00  0.391E-05  0.808E-01  0.808E-01
 -10.248  0.160E+00  0.366E-05  0.800E-01  0.800E-01
 -10.238  0.157E+00  0.342E-05  0.787E-01  0.787E-01
 -10.228  0.154E+00  0.322E-05  0.770E-01  0.770E-01
 -10.218  0.150E+00  0.307E-05  0.750E-01  0.750E-01
 -10.208  0.146E+00  0.297E-05  0.729E-01  0.729E-01
 -10.198  0.142E+00  0.293E-05  0.712E-01  0.712E-01
 -10.188  0.140E+00  0.293E-05  0.700E-01  0.700E-01
 -10.178  0.139E+00  0.295E-05  0.697E-01  0.697E-01
 -10.168  0.141E+00  0.296E-05  0.703E-01  0.703E-01
 -10.158  0.144E+00  0.294E-05  0.718E-01  0.718E-01
 -10.148  0.148E+00  0.287E-05  0.738E-01  0.738E-01
 -10.138  0.152E+00  0.275E-05  0.758E-01  0.758E-01
 -10.128  0.155E+00  0.260E-05  0.775E-01  0.775E-01
 -10.118  0.157E+00  0.243E-05  0.785E-01  0.785E-01
 -10.108  0.157E+00  0.229E-05  0.784E-01  0.784E-01
 -10.098  0.155E+00  0.220E-05  0.773E-01  0.773E-01
 -10.088  0.151E+00  0.219E-05  0.754E-01  0.754E-01
 -10.078  0.146E+00  0.227E-05  0.731E-01  0.731E-01
 -10.068  0.142E+00  0.244E-05  0.708E-01  0.708E-01
 -10.058  0.138E+00  0.268E-05  0.690E-01  0.690E-01
 -10.048  0.136E+00  0.297E-05  0.680E-01  0.680E-01
 -10.038  0.136E+00  0.326E-05  0.678E-01  0.678E-01
 -10.028  0.137E+00  0.352E-05  0.685E-01  0.685E-01
 -10.018  0.140E+00  0.374E-05  0.699E-01  0.699E-01
 -10.008  0.144E+00  0.390E-05  0.718E-01  0.718E-01
  -9.998  0.148E+00  0.399E-05  0.741E-01  0.741E-01
  -9.988  0.153E+00  0.403E-05  0.766E-01  0.766E-01
  -9.978  0.159E+00  0.401E-05  0.793E-01  0.793E-01
  -9.968  0.165E+00  0.397E-05  0.823E-01  0.823E-01
  -9.958  0.171E+00  0.390E-05  0.854E-01  0.854E-01
  -9.948  0.177E+00  0.381E-05  0.885E-01  0.885E-01
  -9.938  0.183E+00  0.371E-05  0.913E-01  0.913E-01
  -9.928  0.187E+00  0.358E-05  0.934E-01  0.934E-01
  -9.918  0.189E+00  0.342E-05  0.946E-01  0.946E-01
  -9.908  0.189E+00  0.324E-05  0.946E-01  0.946E-01
  -9.898  0.186E+00  0.302E-05  0.932E-01  0.932E-01
  -9.888  0.181E+00  0.279E-05  0.904E-01  0.904E-01
  -9.878  0.173E+00  0.254E-05  0.864E-01  0.864E-01
  -9.868  0.163E+00  0.229E-05  0.815E-01  0.815E-01
  -9.858  0.152E+00  0.204E-05  0.759E-01  0.759E-01
  -9.848  0.140E+00  0.183E-05  0.701E-01  0.701E-01
  -9.838  0.129E+00  0.166E-05  0.645E-01  0.645E-01
  -9.828  0.119E+00  0.155E-05  0.596E-01  0.596E-01
  -9.818  0.112E+00  0.151E-05  0.559E-01  0.559E-01
  -9.808  0.107E+00  0.157E-05  0.536E-01  0.536E-01
  -9.798  0.106E+00  0.171E-05  0.531E-01  0.531E-01
  -9.788  0.109E+00  0.195E-05  0.543E-01  0.543E-01
  -9.778  0.115E+00  0.227E-05  0.573E-01  0.573E-01
  -9.768  0.124E+00  0.264E-05  0.620E-01  0.620E-01
  -9.758  0.136E+00  0.303E-05  0.680E-01  0.680E-01
  -9.748  0.150E+00  0.340E-05  0.750E-01  0.750E-01
  -9.738  0.165E+00  0.373E-05  0.825E-01  0.825E-01
  -9.728  0.180E+00  0.398E-05  0.900E-01  0.900E-01
  -9.718  0.194E+00  0.414E-05  0.968E-01  0.968E-01
  -9.708  0.205E+00  0.419E-05  0.102E+00  0.102E+00
  -9.698  0.212E+00  0.414E-05  0.106E+00  0.106E+00
  -9.688  0.215E+00  0.400E-05  0.107E+00  0.107E+00
  -9.678  0.213E+00  0.381E-05  0.106E+00  0.106E+00
  -9.668  0.206E+00  0.357E-05  0.103E+00  0.103E+00
  -9.658  0.196E+00  0.332E-05  0.978E-01  0.978E-01
  -9.648  0.183E+00  0.307E-05  0.913E-01  0.913E-01
  -9.638  0.169E+00  0.284E-05  0.843E-01  0.843E-01
  -9.628  0.155E+00  0.263E-05  0.774E-01  0.774E-01
  -9.618  0.143E+00  0.245E-05  0.714E-01  0.714E-01
  -9.608  0.134E+00  0.230E-05  0.668E-01  0.668E-01
  -9.598  0.128E+00  0.218E-05  0.638E-01  0.638E-01
  -9.588  0.125E+00  0.210E-05  0.627E-01  0.627E-01
  -9.578  0.127E+00  0.205E-05  0.633E-01  0.633E-01
  -9.568  0.131E+00  0.203E-05  0.653E-01  0.653E-01
  -9.558  0.137E+00  0.205E-05  0.684E-01  0.684E-01
  -9.548  0.144E+00  0.208E-05  0.721E-01  0.721E-01
  -9.538  0.152E+00  0.213E-05  0.762E-01  0.762E-01
  -9.528  0.160E+00  0.219E-05  0.802E-01  0.802E-01
  -9.518  0.168E+00  0.226E-05  0.839E-01  0.839E-01
  -9.508  0.174E+00  0.234E-05  0.871E-01  0.871E-01
  -9.498  0.179E+00  0.243E-05  0.896E-01  0.896E-01
  -9.488  0.182E+00  0.253E-05  0.912E-01  0.912E-01
  -9.478  0.183E+00  0.263E-05  0.916E-01  0.916E-01
  -9.468  0.182E+00  0.273E-05  0.908E-01  0.908E-01
  -9.458  0.177E+00  0.282E-05  0.887E-01  0.887E-01
  -9.448  0.171E+00  0.289E-05  0.856E-01  0.856E-01
  -9.438  0.163E+00  0.294E-05  0.816E-01  0.816E-01
  -9.428  0.155E+00  0.296E-05  0.774E-01  0.774E-01
  -9.418  0.147E+00  0.296E-05  0.734E-01  0.734E-01
  -9.408  0.140E+00  0.294E-05  0.702E-01  0.702E-01
  -9.398  0.137E+00  0.292E-05  0.683E-01  0.683E-01
  -9.388  0.136E+00  0.290E-05  0.680E-01  0.680E-01
  -9.378  0.139E+00  0.291E-05  0.694E-01  0.694E-01
  -9.368  0.145E+00  0.293E-05  0.723E-01  0.723E-01
  -9.358  0.153E+00  0.297E-05  0.766E-01  0.766E-01
  -9.348  0.163E+00  0.301E-05  0.817E-01  0.817E-01
  -9.338  0.174E+00  0.306E-05  0.872E-01  0.872E-01
  -9.328  0.186E+00  0.309E-05  0.928E-01  0.928E-01
  -9.318  0.196E+00  0.309E-05  0.980E-01  0.980E-01
  -9.308  0.205E+00  0.307E-05  0.103E+00  0.103E+00
  -9.298  0.212E+00  0.301E-05  0.106E+00  0.106E+00
  -9.288  0.217E+00  0.292E-05  0.109E+00  0.109E+00
  -9.278  0.219E+00  0.279E-05  0.109E+00  0.109E+00
  -9.268  0.217E+00  0.263E-05  0.108E+00  0.108E+00
  -9.258  0.211E+00  0.244E-05  0.105E+00  0.105E+00
  -9.248  0.200E+00  0.223E-05  0.100E+00  0.100E+00
  -9.238  0.186E+00  0.201E-05  0.930E-01  0.930E-01
  -9.228  0.169E+00  0.180E-05  0.844E-01  0.844E-01
  -9.218  0.150E+00  0.161E-05  0.750E-01  0.750E-01
  -9.208  0.132E+00  0.147E-05  0.658E-01  0.658E-01
  -9.198  0.115E+00  0.140E-05  0.577E-01  0.577E-01
  -9.188  0.104E+00  0.141E-05  0.518E-01  0.518E-01
  -9.178  0.975E-01  0.152E-05  0.488E-01  0.488E-01
  -9.168  0.976E-01  0.173E-05  0.488E-01  0.488E-01
  -9.158  0.104E+00  0.202E-05  0.520E-01  0.520E-01
  -9.148  0.115E+00  0.237E-05  0.577E-01  0.577E-01
  -9.138  0.131E+00  0.274E-05  0.653E-01  0.653E-01
  -9.128  0.148E+00  0.309E-05  0.741E-01  0.741E-01
  -9.118  0.166E+00  0.340E-05  0.830E-01  0.830E-01
  -9.108  0.183E+00  0.363E-05  0.917E-01  0.917E-01
  -9.098  0.199E+00  0.376E-05  0.994E-01  0.994E-01
  -9.088  0.212E+00  0.379E-05  0.106E+00  0.106E+00
  -9.078  0.223E+00  0.374E-05  0.111E+00  0.111E+00
  -9.068  0.230E+00  0.361E-05  0.115E+00  0.115E+00
  -9.058  0.233E+00  0.343E-05  0.117E+00  0.117E+00
  -9.048  0.233E+00  0.321E-05  0.116E+00  0.116E+00
  -9.038  0.228E+00  0.297E-05  0.114E+00  0.114E+00
  -9.028  0.220E+00  0.271E-05  0.110E+00  0.110E+00
  -9.018  0.209E+00  0.246E-05  0.105E+00  0.105E+00
  -9.008  0.197E+00  0.222E-05  0.985E-01  0.985E-01
  -8.998  0.185E+00  0.201E-05  0.923E-01  0.923E-01
  -8.988  0.173E+00  0.185E-05  0.867E-01  0.867E-01
  -8.978  0.164E+00  0.174E-05  0.821E-01  0.821E-01
  -8.968  0.157E+00  0.170E-05  0.787E-01  0.787E-01
  -8.958  0.153E+00  0.172E-05  0.764E-01  0.764E-01
  -8.948  0.150E+00  0.181E-05  0.750E-01  0.750E-01
  -8.938  0.148E+00  0.196E-05  0.741E-01  0.741E-01
  -8.928  0.147E+00  0.215E-05  0.737E-01  0.737E-01
  -8.918  0.147E+00  0.239E-05  0.735E-01  0.735E-01
  -8.908  0.147E+00  0.272E-05  0.736E-01  0.736E-01
  -8.898  0.149E+00  0.328E-05  0.743E-01  0.743E-01
  -8.888  0.151E+00  0.440E-05  0.756E-01  0.756E-01
  -8.878  0.155E+00  0.691E-05  0.777E-01  0.777E-01
  -8.868  0.161E+00  0.125E-04  0.806E-01  0.806E-01
  -8.858  0.168E+00  0.248E-04  0.841E-01  0.841E-01
  -8.848  0.176E+00  0.506E-04  0.878E-01  0.878E-01
  -8.838  0.183E+00  0.102E-03  0.913E-01  0.913E-01
  -8.828  0.188E+00  0.202E-03  0.941E-01  0.941E-01
  -8.818  0.192E+00  0.385E-03  0.960E-01  0.960E-01
  -8.808  0.194E+00  0.705E-03  0.967E-01  0.967E-01
  -8.798  0.194E+00  0.124E-02  0.965E-01  0.965E-01
  -8.788  0.193E+00  0.210E-02  0.957E-01  0.957E-01
  -8.778  0.193E+00  0.340E-02  0.947E-01  0.947E-01
  -8.768  0.193E+00  0.531E-02  0.940E-01  0.940E-01
  -8.758  0.196E+00  0.794E-02  0.938E-01  0.938E-01
  -8.748  0.200E+00  0.114E-01  0.943E-01  0.943E-01
  -8.738  0.206E+00  0.158E-01  0.953E-01  0.953E-01
  -8.728  0.215E+00  0.211E-01  0.967E-01  0.967E-01
  -8.718  0.224E+00  0.270E-01  0.984E-01  0.984E-01
  -8.708  0.234E+00  0.334E-01  0.100E+00  0.100E+00
  -8.698  0.243E+00  0.400E-01  0.102E+00  0.102E+00
  -8.688  0.253E+00  0.462E-01  0.103E+00  0.103E+00
  -8.678  0.261E+00  0.518E-01  0.105E+00  0.105E+00
  -8.668  0.268E+00  0.564E-01  0.106E+00  0.106E+00
  -8.658  0.272E+00  0.600E-01  0.106E+00  0.106E+00
  -8.648  0.274E+00  0.623E-01  0.106E+00  0.106E+00
  -8.638  0.271E+00  0.636E-01  0.104E+00  0.104E+00
  -8.628  0.264E+00  0.641E-01  0.998E-01  0.998E-01
  -8.618  0.252E+00  0.639E-01  0.942E-01  0.942E-01
  -8.608  0.237E+00  0.633E-01  0.870E-01  0.870E-01
  -8.598  0.220E+00  0.625E-01  0.789E-01  0.789E-01
  -8.588  0.203E+00  0.618E-01  0.707E-01  0.707E-01
  -8.578  0.189E+00  0.611E-01  0.638E-01  0.638E-01
  -8.568  0.179E+00  0.606E-01  0.591E-01  0.591E-01
  -8.558  0.175E+00  0.602E-01  0.575E-01  0.575E-01
  -8.548  0.179E+00  0.599E-01  0.596E-01  0.596E-01
  -8.538  0.190E+00  0.597E-01  0.654E-01  0.654E-01
  -8.528  0.208E+00  0.596E-01  0.742E-01  0.742E-01
  -8.518  0.230E+00  0.596E-01  0.852E-01  0.852E-01
  -8.508  0.254E+00  0.596E-01  0.971E-01  0.971E-01
  -8.498  0.277E+00  0.596E-01  0.109E+00  0.109E+00
  -8.488  0.297E+00  0.596E-01  0.119E+00  0.119E+00
  -8.478  0.313E+00  0.596E-01  0.126E+00  0.126E+00
  -8.468  0.322E+00  0.596E-01  0.131E+00  0.131E+00
  -8.458  0.325E+00  0.596E-01  0.133E+00  0.133E+00
  -8.448  0.322E+00  0.596E-01  0.131E+00  0.131E+00
  -8.438  0.314E+00  0.596E-01  0.127E+00  0.127E+00
  -8.428  0.304E+00  0.598E-01  0.122E+00  0.122E+00
  -8.418  0.292E+00  0.599E-01  0.116E+00  0.116E+00
  -8.408  0.279E+00  0.601E-01  0.109E+00  0.109E+00
  -8.398  0.266E+00  0.601E-01  0.103E+00  0.103E+00
  -8.388  0.254E+00  0.600E-01  0.971E-01  0.971E-01
  -8.378  0.243E+00  0.597E-01  0.916E-01  0.916E-01
  -8.368  0.232E+00  0.595E-01  0.865E-01  0.865E-01
  -8.358  0.223E+00  0.593E-01  0.819E-01  0.819E-01
  -8.348  0.215E+00  0.594E-01  0.780E-01  0.780E-01
  -8.338  0.210E+00  0.598E-01  0.751E-01  0.751E-01
  -8.328  0.207E+00  0.603E-01  0.733E-01  0.733E-01
  -8.318  0.206E+00  0.607E-01  0.729E-01  0.729E-01
  -8.308  0.209E+00  0.610E-01  0.740E-01  0.740E-01
  -8.298  0.214E+00  0.608E-01  0.766E-01  0.766E-01
  -8.288  0.222E+00  0.603E-01  0.807E-01  0.807E-01
  -8.278  0.232E+00  0.596E-01  0.861E-01  0.861E-01
  -8.268  0.244E+00  0.589E-01  0.925E-01  0.925E-01
  -8.258  0.258E+00  0.586E-01  0.995E-01  0.995E-01
  -8.248  0.272E+00  0.589E-01  0.107E+00  0.107E+00
  -8.238  0.287E+00  0.596E-01  0.114E+00  0.114E+00
  -8.228  0.301E+00  0.606E-01  0.120E+00  0.120E+00
  -8.218  0.312E+00  0.617E-01  0.125E+00  0.125E+00
  -8.208  0.321E+00  0.623E-01  0.129E+00  0.129E+00
  -8.198  0.326E+00  0.623E-01  0.132E+00  0.132E+00
  -8.188  0.325E+00  0.617E-01  0.132E+00  0.132E+00
  -8.178  0.320E+00  0.604E-01  0.130E+00  0.130E+00
  -8.168  0.310E+00  0.590E-01  0.125E+00  0.125E+00
  -8.158  0.296E+00  0.579E-01  0.119E+00  0.119E+00
  -8.148  0.278E+00  0.574E-01  0.110E+00  0.110E+00
  -8.138  0.260E+00  0.578E-01  0.101E+00  0.101E+00
  -8.128  0.243E+00  0.591E-01  0.919E-01  0.919E-01
  -8.118  0.228E+00  0.608E-01  0.837E-01  0.837E-01
  -8.108  0.218E+00  0.626E-01  0.776E-01  0.776E-01
  -8.098  0.212E+00  0.640E-01  0.742E-01  0.742E-01
  -8.088  0.212E+00  0.644E-01  0.737E-01  0.737E-01
  -8.078  0.216E+00  0.638E-01  0.762E-01  0.762E-01
  -8.068  0.225E+00  0.623E-01  0.813E-01  0.813E-01
  -8.058  0.237E+00  0.602E-01  0.883E-01  0.883E-01
  -8.048  0.251E+00  0.581E-01  0.965E-01  0.965E-01
  -8.038  0.267E+00  0.564E-01  0.105E+00  0.105E+00
  -8.028  0.283E+00  0.558E-01  0.114E+00  0.114E+00
  -8.018  0.299E+00  0.564E-01  0.121E+00  0.121E+00
  -8.008  0.314E+00  0.581E-01  0.128E+00  0.128E+00
  -7.998  0.325E+00  0.606E-01  0.132E+00  0.132E+00
  -7.988  0.332E+00  0.632E-01  0.134E+00  0.134E+00
  -7.978  0.334E+00  0.654E-01  0.134E+00  0.134E+00
  -7.968  0.331E+00  0.666E-01  0.132E+00  0.132E+00
  -7.958  0.323E+00  0.665E-01  0.128E+00  0.128E+00
  -7.948  0.311E+00  0.650E-01  0.123E+00  0.123E+00
  -7.938  0.295E+00  0.626E-01  0.116E+00  0.116E+00
  -7.928  0.279E+00  0.596E-01  0.110E+00  0.110E+00
  -7.918  0.264E+00  0.568E-01  0.104E+00  0.104E+00
  -7.908  0.252E+00  0.548E-01  0.987E-01  0.987E-01
  -7.898  0.244E+00  0.540E-01  0.952E-01  0.952E-01
  -7.888  0.242E+00  0.546E-01  0.934E-01  0.934E-01
  -7.878  0.243E+00  0.566E-01  0.934E-01  0.934E-01
  -7.868  0.249E+00  0.596E-01  0.948E-01  0.948E-01
  -7.858  0.257E+00  0.630E-01  0.971E-01  0.971E-01
  -7.848  0.266E+00  0.661E-01  0.997E-01  0.997E-01
  -7.838  0.273E+00  0.684E-01  0.102E+00  0.102E+00
  -7.828  0.279E+00  0.693E-01  0.105E+00  0.105E+00
  -7.818  0.282E+00  0.686E-01  0.107E+00  0.107E+00
  -7.808  0.284E+00  0.664E-01  0.109E+00  0.109E+00
  -7.798  0.285E+00  0.630E-01  0.111E+00  0.111E+00
  -7.788  0.288E+00  0.593E-01  0.114E+00  0.114E+00
  -7.778  0.292E+00  0.558E-01  0.118E+00  0.118E+00
  -7.768  0.299E+00  0.533E-01  0.123E+00  0.123E+00
  -7.758  0.307E+00  0.522E-01  0.127E+00  0.127E+00
  -7.748  0.317E+00  0.529E-01  0.132E+00  0.132E+00
  -7.738  0.327E+00  0.553E-01  0.136E+00  0.136E+00
  -7.728  0.335E+00  0.591E-01  0.138E+00  0.138E+00
  -7.718  0.342E+00  0.637E-01  0.139E+00  0.139E+00
  -7.708  0.345E+00  0.687E-01  0.138E+00  0.138E+00
  -7.698  0.346E+00  0.735E-01  0.136E+00  0.136E+00
  -7.688  0.344E+00  0.779E-01  0.133E+00  0.133E+00
  -7.678  0.340E+00  0.816E-01  0.129E+00  0.129E+00
  -7.668  0.334E+00  0.847E-01  0.125E+00  0.125E+00
  -7.658  0.327E+00  0.873E-01  0.120E+00  0.120E+00
  -7.648  0.319E+00  0.897E-01  0.115E+00  0.115E+00
  -7.638  0.312E+00  0.922E-01  0.110E+00  0.110E+00
  -7.628  0.306E+00  0.952E-01  0.105E+00  0.105E+00
  -7.618  0.302E+00  0.989E-01  0.102E+00  0.102E+00
  -7.608  0.301E+00  0.103E+00  0.989E-01  0.989E-01
  -7.598  0.305E+00  0.109E+00  0.980E-01  0.980E-01
  -7.588  0.313E+00  0.115E+00  0.990E-01  0.990E-01
  -7.578  0.326E+00  0.122E+00  0.102E+00  0.102E+00
  -7.568  0.343E+00  0.128E+00  0.107E+00  0.107E+00
  -7.558  0.362E+00  0.134E+00  0.114E+00  0.114E+00
  -7.548  0.382E+00  0.138E+00  0.122E+00  0.122E+00
  -7.538  0.401E+00  0.141E+00  0.130E+00  0.130E+00
  -7.528  0.417E+00  0.142E+00  0.137E+00  0.137E+00
  -7.518  0.429E+00  0.141E+00  0.144E+00  0.144E+00
  -7.508  0.436E+00  0.139E+00  0.149E+00  0.149E+00
  -7.498  0.438E+00  0.135E+00  0.151E+00  0.151E+00
  -7.488  0.435E+00  0.130E+00  0.152E+00  0.152E+00
  -7.478  0.428E+00  0.125E+00  0.151E+00  0.151E+00
  -7.468  0.418E+00  0.121E+00  0.148E+00  0.148E+00
  -7.458  0.406E+00  0.118E+00  0.144E+00  0.144E+00
  -7.448  0.395E+00  0.115E+00  0.140E+00  0.140E+00
  -7.438  0.385E+00  0.114E+00  0.135E+00  0.135E+00
  -7.428  0.378E+00  0.115E+00  0.132E+00  0.132E+00
  -7.418  0.376E+00  0.117E+00  0.129E+00  0.129E+00
  -7.408  0.378E+00  0.121E+00  0.129E+00  0.129E+00
  -7.398  0.385E+00  0.126E+00  0.129E+00  0.129E+00
  -7.388  0.395E+00  0.131E+00  0.132E+00  0.132E+00
  -7.378  0.407E+00  0.136E+00  0.136E+00  0.136E+00
  -7.368  0.419E+00  0.140E+00  0.139E+00  0.139E+00
  -7.358  0.428E+00  0.142E+00  0.143E+00  0.143E+00
  -7.348  0.434E+00  0.142E+00  0.146E+00  0.146E+00
  -7.338  0.434E+00  0.140E+00  0.147E+00  0.147E+00
  -7.328  0.429E+00  0.136E+00  0.147E+00  0.147E+00
  -7.318  0.420E+00  0.130E+00  0.145E+00  0.145E+00
  -7.308  0.409E+00  0.125E+00  0.142E+00  0.142E+00
  -7.298  0.396E+00  0.120E+00  0.138E+00  0.138E+00
  -7.288  0.385E+00  0.116E+00  0.134E+00  0.134E+00
  -7.278  0.378E+00  0.114E+00  0.132E+00  0.132E+00
  -7.268  0.375E+00  0.114E+00  0.130E+00  0.130E+00
  -7.258  0.377E+00  0.115E+00  0.131E+00  0.131E+00
  -7.248  0.386E+00  0.117E+00  0.135E+00  0.135E+00
  -7.238  0.400E+00  0.120E+00  0.140E+00  0.140E+00
  -7.228  0.418E+00  0.123E+00  0.147E+00  0.147E+00
  -7.218  0.438E+00  0.127E+00  0.156E+00  0.156E+00
  -7.208  0.460E+00  0.131E+00  0.165E+00  0.165E+00
  -7.198  0.481E+00  0.135E+00  0.173E+00  0.173E+00
  -7.188  0.500E+00  0.139E+00  0.180E+00  0.180E+00
  -7.178  0.514E+00  0.142E+00  0.186E+00  0.186E+00
  -7.168  0.524E+00  0.144E+00  0.190E+00  0.190E+00
  -7.158  0.528E+00  0.144E+00  0.192E+00  0.192E+00
  -7.148  0.526E+00  0.141E+00  0.192E+00  0.192E+00
  -7.138  0.519E+00  0.137E+00  0.191E+00  0.191E+00
  -7.128  0.509E+00  0.131E+00  0.189E+00  0.189E+00
  -7.118  0.497E+00  0.124E+00  0.186E+00  0.186E+00
  -7.108  0.486E+00  0.118E+00  0.184E+00  0.184E+00
  -7.098  0.479E+00  0.113E+00  0.183E+00  0.183E+00
  -7.088  0.476E+00  0.111E+00  0.183E+00  0.183E+00
  -7.078  0.480E+00  0.111E+00  0.185E+00  0.185E+00
  -7.068  0.489E+00  0.113E+00  0.188E+00  0.188E+00
  -7.058  0.504E+00  0.118E+00  0.193E+00  0.193E+00
  -7.048  0.521E+00  0.124E+00  0.199E+00  0.199E+00
  -7.038  0.539E+00  0.129E+00  0.205E+00  0.205E+00
  -7.028  0.556E+00  0.134E+00  0.211E+00  0.211E+00
  -7.018  0.570E+00  0.138E+00  0.216E+00  0.216E+00
  -7.008  0.582E+00  0.140E+00  0.221E+00  0.221E+00
  -6.998  0.590E+00  0.141E+00  0.225E+00  0.225E+00
  -6.988  0.596E+00  0.141E+00  0.228E+00  0.228E+00
  -6.978  0.600E+00  0.140E+00  0.230E+00  0.230E+00
  -6.968  0.602E+00  0.139E+00  0.231E+00  0.231E+00
  -6.958  0.603E+00  0.138E+00  0.232E+00  0.232E+00
  -6.948  0.602E+00  0.137E+00  0.232E+00  0.232E+00
  -6.938  0.598E+00  0.135E+00  0.231E+00  0.231E+00
  -6.928  0.590E+00  0.133E+00  0.229E+00  0.229E+00
  -6.918  0.578E+00  0.129E+00  0.224E+00  0.224E+00
  -6.908  0.560E+00  0.125E+00  0.218E+00  0.218E+00
  -6.898  0.538E+00  0.120E+00  0.209E+00  0.209E+00
  -6.888  0.512E+00  0.114E+00  0.199E+00  0.199E+00
  -6.878  0.485E+00  0.110E+00  0.187E+00  0.187E+00
  -6.868  0.460E+00  0.108E+00  0.176E+00  0.176E+00
  -6.858  0.438E+00  0.109E+00  0.164E+00  0.164E+00
  -6.848  0.423E+00  0.113E+00  0.155E+00  0.155E+00
  -6.838  0.417E+00  0.120E+00  0.148E+00  0.148E+00
  -6.828  0.418E+00  0.129E+00  0.145E+00  0.145E+00
  -6.818  0.426E+00  0.138E+00  0.144E+00  0.144E+00
  -6.808  0.437E+00  0.147E+00  0.145E+00  0.145E+00
  -6.798  0.449E+00  0.153E+00  0.148E+00  0.148E+00
  -6.788  0.459E+00  0.157E+00  0.151E+00  0.151E+00
  -6.778  0.464E+00  0.156E+00  0.154E+00  0.154E+00
  -6.768  0.464E+00  0.152E+00  0.156E+00  0.156E+00
  -6.758  0.459E+00  0.146E+00  0.157E+00  0.157E+00
  -6.748  0.450E+00  0.137E+00  0.156E+00  0.156E+00
  -6.738  0.439E+00  0.129E+00  0.155E+00  0.155E+00
  -6.728  0.428E+00  0.121E+00  0.153E+00  0.153E+00
  -6.718  0.419E+00  0.116E+00  0.151E+00  0.151E+00
  -6.708  0.412E+00  0.113E+00  0.149E+00  0.149E+00
  -6.698  0.407E+00  0.113E+00  0.147E+00  0.147E+00
  -6.688  0.405E+00  0.114E+00  0.145E+00  0.145E+00
  -6.678  0.404E+00  0.117E+00  0.143E+00  0.143E+00
  -6.668  0.403E+00  0.120E+00  0.141E+00  0.141E+00
  -6.658  0.402E+00  0.123E+00  0.139E+00  0.139E+00
  -6.648  0.400E+00  0.127E+00  0.137E+00  0.137E+00
  -6.638  0.397E+00  0.130E+00  0.134E+00  0.134E+00
  -6.628  0.393E+00  0.132E+00  0.130E+00  0.130E+00
  -6.618  0.389E+00  0.135E+00  0.127E+00  0.127E+00
  -6.608  0.386E+00  0.138E+00  0.124E+00  0.124E+00
  -6.598  0.384E+00  0.140E+00  0.122E+00  0.122E+00
  -6.588  0.384E+00  0.141E+00  0.121E+00  0.121E+00
  -6.578  0.386E+00  0.142E+00  0.122E+00  0.122E+00
  -6.568  0.389E+00  0.142E+00  0.123E+00  0.123E+00
  -6.558  0.394E+00  0.142E+00  0.126E+00  0.126E+00
  -6.548  0.399E+00  0.141E+00  0.129E+00  0.129E+00
  -6.538  0.404E+00  0.139E+00  0.133E+00  0.133E+00
  -6.528  0.408E+00  0.138E+00  0.135E+00  0.135E+00
  -6.518  0.409E+00  0.136E+00  0.137E+00  0.137E+00
  -6.508  0.408E+00  0.134E+00  0.137E+00  0.137E+00
  -6.498  0.405E+00  0.131E+00  0.137E+00  0.137E+00
  -6.488  0.400E+00  0.129E+00  0.136E+00  0.136E+00
  -6.478  0.395E+00  0.126E+00  0.134E+00  0.134E+00
  -6.468  0.388E+00  0.123E+00  0.133E+00  0.133E+00
  -6.458  0.381E+00  0.120E+00  0.131E+00  0.131E+00
  -6.448  0.374E+00  0.118E+00  0.128E+00  0.128E+00
  -6.438  0.366E+00  0.115E+00  0.125E+00  0.125E+00
  -6.428  0.358E+00  0.114E+00  0.122E+00  0.122E+00
  -6.418  0.351E+00  0.114E+00  0.118E+00  0.118E+00
  -6.408  0.345E+00  0.116E+00  0.114E+00  0.114E+00
  -6.398  0.341E+00  0.121E+00  0.110E+00  0.110E+00
  -6.388  0.342E+00  0.127E+00  0.107E+00  0.107E+00
  -6.378  0.346E+00  0.136E+00  0.105E+00  0.105E+00
  -6.368  0.355E+00  0.145E+00  0.105E+00  0.105E+00
  -6.358  0.367E+00  0.154E+00  0.106E+00  0.106E+00
  -6.348  0.379E+00  0.162E+00  0.108E+00  0.108E+00
  -6.338  0.389E+00  0.166E+00  0.111E+00  0.111E+00
  -6.328  0.395E+00  0.167E+00  0.114E+00  0.114E+00
  -6.318  0.395E+00  0.163E+00  0.116E+00  0.116E+00
  -6.308  0.388E+00  0.156E+00  0.116E+00  0.116E+00
  -6.298  0.376E+00  0.146E+00  0.115E+00  0.115E+00
  -6.288  0.360E+00  0.135E+00  0.113E+00  0.113E+00
  -6.278  0.343E+00  0.123E+00  0.110E+00  0.110E+00
  -6.268  0.326E+00  0.113E+00  0.107E+00  0.107E+00
  -6.258  0.314E+00  0.105E+00  0.104E+00  0.104E+00
  -6.248  0.306E+00  0.101E+00  0.103E+00  0.103E+00
  -6.238  0.305E+00  0.990E-01  0.103E+00  0.103E+00
  -6.228  0.311E+00  0.101E+00  0.105E+00  0.105E+00
  -6.218  0.323E+00  0.105E+00  0.109E+00  0.109E+00
  -6.208  0.341E+00  0.113E+00  0.114E+00  0.114E+00
  -6.198  0.361E+00  0.122E+00  0.119E+00  0.119E+00
  -6.188  0.381E+00  0.132E+00  0.124E+00  0.124E+00
  -6.178  0.398E+00  0.142E+00  0.128E+00  0.128E+00
  -6.168  0.410E+00  0.151E+00  0.129E+00  0.129E+00
  -6.158  0.414E+00  0.158E+00  0.128E+00  0.128E+00
  -6.148  0.411E+00  0.163E+00  0.124E+00  0.124E+00
  -6.138  0.400E+00  0.164E+00  0.118E+00  0.118E+00
  -6.128  0.383E+00  0.162E+00  0.110E+00  0.110E+00
  -6.118  0.363E+00  0.157E+00  0.103E+00  0.103E+00
  -6.108  0.343E+00  0.151E+00  0.961E-01  0.961E-01
  -6.098  0.326E+00  0.144E+00  0.910E-01  0.910E-01
  -6.088  0.312E+00  0.136E+00  0.879E-01  0.879E-01
  -6.078  0.303E+00  0.130E+00  0.868E-01  0.868E-01
  -6.068  0.299E+00  0.125E+00  0.872E-01  0.872E-01
  -6.058  0.298E+00  0.121E+00  0.886E-01  0.886E-01
  -6.048  0.300E+00  0.120E+00  0.903E-01  0.903E-01
  -6.038  0.303E+00  0.120E+00  0.917E-01  0.917E-01
  -6.028  0.306E+00  0.121E+00  0.924E-01  0.924E-01
  -6.018  0.307E+00  0.123E+00  0.923E-01  0.923E-01
  -6.008  0.308E+00  0.125E+00  0.916E-01  0.916E-01
  -5.998  0.308E+00  0.126E+00  0.905E-01  0.905E-01
  -5.988  0.308E+00  0.128E+00  0.898E-01  0.898E-01
  -5.978  0.309E+00  0.129E+00  0.900E-01  0.900E-01
  -5.968  0.314E+00  0.131E+00  0.915E-01  0.915E-01
  -5.958  0.323E+00  0.133E+00  0.949E-01  0.949E-01
  -5.948  0.335E+00  0.135E+00  0.100E+00  0.100E+00
  -5.938  0.352E+00  0.138E+00  0.107E+00  0.107E+00
  -5.928  0.370E+00  0.141E+00  0.114E+00  0.114E+00
  -5.918  0.387E+00  0.144E+00  0.122E+00  0.122E+00
  -5.908  0.401E+00  0.146E+00  0.128E+00  0.128E+00
  -5.898  0.408E+00  0.146E+00  0.131E+00  0.131E+00
  -5.888  0.407E+00  0.145E+00  0.131E+00  0.131E+00
  -5.878  0.397E+00  0.143E+00  0.127E+00  0.127E+00
  -5.868  0.380E+00  0.140E+00  0.120E+00  0.120E+00
  -5.858  0.357E+00  0.138E+00  0.110E+00  0.110E+00
  -5.848  0.331E+00  0.136E+00  0.974E-01  0.974E-01
  -5.838  0.305E+00  0.136E+00  0.846E-01  0.846E-01
  -5.828  0.283E+00  0.138E+00  0.728E-01  0.728E-01
  -5.818  0.267E+00  0.140E+00  0.632E-01  0.632E-01
  -5.808  0.256E+00  0.143E+00  0.569E-01  0.569E-01
  -5.798  0.253E+00  0.145E+00  0.543E-01  0.543E-01
  -5.788  0.257E+00  0.146E+00  0.555E-01  0.555E-01
  -5.778  0.265E+00  0.144E+00  0.602E-01  0.602E-01
  -5.768  0.277E+00  0.141E+00  0.676E-01  0.676E-01
  -5.758  0.290E+00  0.137E+00  0.768E-01  0.768E-01
  -5.748  0.304E+00  0.131E+00  0.868E-01  0.868E-01
  -5.738  0.318E+00  0.125E+00  0.965E-01  0.965E-01
  -5.728  0.329E+00  0.119E+00  0.105E+00  0.105E+00
  -5.718  0.338E+00  0.114E+00  0.112E+00  0.112E+00
  -5.708  0.343E+00  0.112E+00  0.116E+00  0.116E+00
  -5.698  0.345E+00  0.111E+00  0.117E+00  0.117E+00
  -5.688  0.343E+00  0.113E+00  0.115E+00  0.115E+00
  -5.678  0.339E+00  0.118E+00  0.110E+00  0.110E+00
  -5.668  0.333E+00  0.125E+00  0.104E+00  0.104E+00
  -5.658  0.327E+00  0.134E+00  0.964E-01  0.964E-01
  -5.648  0.322E+00  0.144E+00  0.890E-01  0.890E-01
  -5.638  0.319E+00  0.154E+00  0.826E-01  0.826E-01
  -5.628  0.319E+00  0.163E+00  0.781E-01  0.781E-01
  -5.618  0.322E+00  0.170E+00  0.759E-01  0.759E-01
  -5.608  0.326E+00  0.174E+00  0.762E-01  0.762E-01
  -5.598  0.332E+00  0.174E+00  0.787E-01  0.787E-01
  -5.588  0.337E+00  0.172E+00  0.827E-01  0.827E-01
  -5.578  0.341E+00  0.166E+00  0.874E-01  0.874E-01
  -5.568  0.342E+00  0.158E+00  0.920E-01  0.920E-01
  -5.558  0.340E+00  0.149E+00  0.955E-01  0.955E-01
  -5.548  0.333E+00  0.139E+00  0.972E-01  0.972E-01
  -5.538  0.323E+00  0.130E+00  0.968E-01  0.968E-01
  -5.528  0.310E+00  0.122E+00  0.942E-01  0.942E-01
  -5.518  0.294E+00  0.115E+00  0.896E-01  0.896E-01
  -5.508  0.278E+00  0.111E+00  0.837E-01  0.837E-01
  -5.498  0.263E+00  0.108E+00  0.773E-01  0.773E-01
  -5.488  0.250E+00  0.107E+00  0.714E-01  0.714E-01
  -5.478  0.242E+00  0.108E+00  0.669E-01  0.669E-01
  -5.468  0.239E+00  0.110E+00  0.645E-01  0.645E-01
  -5.458  0.243E+00  0.114E+00  0.645E-01  0.645E-01
  -5.448  0.251E+00  0.118E+00  0.667E-01  0.667E-01
  -5.438  0.265E+00  0.123E+00  0.709E-01  0.709E-01
  -5.428  0.282E+00  0.129E+00  0.765E-01  0.765E-01
  -5.418  0.302E+00  0.137E+00  0.827E-01  0.827E-01
  -5.408  0.324E+00  0.146E+00  0.889E-01  0.889E-01
  -5.398  0.345E+00  0.156E+00  0.945E-01  0.945E-01
  -5.388  0.365E+00  0.167E+00  0.991E-01  0.991E-01
  -5.378  0.381E+00  0.176E+00  0.102E+00  0.102E+00
  -5.368  0.391E+00  0.183E+00  0.104E+00  0.104E+00
  -5.358  0.393E+00  0.187E+00  0.103E+00  0.103E+00
  -5.348  0.386E+00  0.186E+00  0.100E+00  0.100E+00
  -5.338  0.371E+00  0.181E+00  0.951E-01  0.951E-01
  -5.328  0.348E+00  0.171E+00  0.884E-01  0.884E-01
  -5.318  0.320E+00  0.159E+00  0.805E-01  0.805E-01
  -5.308  0.289E+00  0.144E+00  0.723E-01  0.723E-01
  -5.298  0.260E+00  0.131E+00  0.647E-01  0.647E-01
  -5.288  0.236E+00  0.118E+00  0.587E-01  0.587E-01
  -5.278  0.219E+00  0.108E+00  0.552E-01  0.552E-01
  -5.268  0.211E+00  0.102E+00  0.548E-01  0.548E-01
  -5.258  0.214E+00  0.986E-01  0.576E-01  0.576E-01
  -5.248  0.226E+00  0.989E-01  0.633E-01  0.633E-01
  -5.238  0.245E+00  0.102E+00  0.714E-01  0.714E-01
  -5.228  0.269E+00  0.107E+00  0.807E-01  0.807E-01
  -5.218  0.295E+00  0.114E+00  0.901E-01  0.901E-01
  -5.208  0.319E+00  0.122E+00  0.982E-01  0.982E-01
  -5.198  0.339E+00  0.131E+00  0.104E+00  0.104E+00
  -5.188  0.352E+00  0.140E+00  0.106E+00  0.106E+00
  -5.178  0.357E+00  0.148E+00  0.105E+00  0.105E+00
  -5.168  0.355E+00  0.156E+00  0.994E-01  0.994E-01
  -5.158  0.345E+00  0.163E+00  0.909E-01  0.909E-01
  -5.148  0.329E+00  0.169E+00  0.803E-01  0.803E-01
  -5.138  0.310E+00  0.173E+00  0.688E-01  0.688E-01
  -5.128  0.290E+00  0.174E+00  0.578E-01  0.578E-01
  -5.118  0.272E+00  0.174E+00  0.488E-01  0.488E-01
  -5.108  0.257E+00  0.172E+00  0.428E-01  0.428E-01
  -5.098  0.248E+00  0.168E+00  0.404E-01  0.404E-01
  -5.088  0.246E+00  0.162E+00  0.419E-01  0.419E-01
  -5.078  0.251E+00  0.156E+00  0.472E-01  0.472E-01
  -5.068  0.261E+00  0.150E+00  0.558E-01  0.558E-01
  -5.058  0.277E+00  0.143E+00  0.668E-01  0.668E-01
  -5.048  0.295E+00  0.136E+00  0.793E-01  0.793E-01
  -5.038  0.314E+00  0.130E+00  0.921E-01  0.921E-01
  -5.028  0.331E+00  0.123E+00  0.104E+00  0.104E+00
  -5.018  0.344E+00  0.119E+00  0.113E+00  0.113E+00
  -5.008  0.352E+00  0.115E+00  0.118E+00  0.118E+00
  -4.998  0.353E+00  0.114E+00  0.119E+00  0.119E+00
  -4.988  0.346E+00  0.116E+00  0.115E+00  0.115E+00
  -4.978  0.331E+00  0.120E+00  0.106E+00  0.106E+00
  -4.968  0.311E+00  0.125E+00  0.930E-01  0.930E-01
  -4.958  0.287E+00  0.132E+00  0.777E-01  0.777E-01
  -4.948  0.262E+00  0.138E+00  0.618E-01  0.618E-01
  -4.938  0.239E+00  0.144E+00  0.473E-01  0.473E-01
  -4.928  0.220E+00  0.149E+00  0.358E-01  0.358E-01
  -4.918  0.209E+00  0.152E+00  0.284E-01  0.284E-01
  -4.908  0.205E+00  0.154E+00  0.255E-01  0.255E-01
  -4.898  0.210E+00  0.156E+00  0.273E-01  0.273E-01
  -4.888  0.224E+00  0.158E+00  0.331E-01  0.331E-01
  -4.878  0.244E+00  0.160E+00  0.421E-01  0.421E-01
  -4.868  0.268E+00  0.161E+00  0.535E-01  0.535E-01
  -4.858  0.295E+00  0.163E+00  0.662E-01  0.662E-01
  -4.848  0.321E+00  0.163E+00  0.790E-01  0.790E-01
  -4.838  0.344E+00  0.162E+00  0.911E-01  0.911E-01
  -4.828  0.361E+00  0.159E+00  0.101E+00  0.101E+00
  -4.818  0.371E+00  0.154E+00  0.109E+00  0.109E+00
  -4.808  0.372E+00  0.147E+00  0.112E+00  0.112E+00
  -4.798  0.365E+00  0.141E+00  0.112E+00  0.112E+00
  -4.788  0.350E+00  0.135E+00  0.107E+00  0.107E+00
  -4.778  0.329E+00  0.131E+00  0.989E-01  0.989E-01
  -4.768  0.304E+00  0.129E+00  0.876E-01  0.876E-01
  -4.758  0.279E+00  0.130E+00  0.747E-01  0.747E-01
  -4.748  0.257E+00  0.133E+00  0.618E-01  0.618E-01
  -4.738  0.239E+00  0.138E+00  0.504E-01  0.504E-01
  -4.728  0.228E+00  0.144E+00  0.417E-01  0.417E-01
  -4.718  0.223E+00  0.150E+00  0.364E-01  0.364E-01
  -4.708  0.225E+00  0.155E+00  0.349E-01  0.349E-01
  -4.698  0.231E+00  0.157E+00  0.370E-01  0.370E-01
  -4.688  0.241E+00  0.157E+00  0.421E-01  0.421E-01
  -4.678  0.253E+00  0.155E+00  0.494E-01  0.494E-01
  -4.668  0.266E+00  0.150E+00  0.579E-01  0.579E-01
  -4.658  0.277E+00  0.144E+00  0.666E-01  0.666E-01
  -4.648  0.287E+00  0.138E+00  0.747E-01  0.747E-01
  -4.638  0.296E+00  0.133E+00  0.813E-01  0.813E-01
  -4.628  0.302E+00  0.131E+00  0.859E-01  0.859E-01
  -4.618  0.307E+00  0.131E+00  0.880E-01  0.880E-01
  -4.608  0.309E+00  0.134E+00  0.876E-01  0.876E-01
  -4.598  0.308E+00  0.139E+00  0.848E-01  0.848E-01
  -4.588  0.306E+00  0.145E+00  0.802E-01  0.802E-01
  -4.578  0.301E+00  0.152E+00  0.744E-01  0.744E-01
  -4.568  0.295E+00  0.159E+00  0.682E-01  0.682E-01
  -4.558  0.288E+00  0.163E+00  0.625E-01  0.625E-01
  -4.548  0.280E+00  0.164E+00  0.580E-01  0.580E-01
  -4.538  0.273E+00  0.163E+00  0.551E-01  0.551E-01
  -4.528  0.268E+00  0.160E+00  0.540E-01  0.540E-01
  -4.518  0.264E+00  0.155E+00  0.545E-01  0.545E-01
  -4.508  0.263E+00  0.150E+00  0.565E-01  0.565E-01
  -4.498  0.266E+00  0.147E+00  0.594E-01  0.594E-01
  -4.488  0.273E+00  0.147E+00  0.629E-01  0.629E-01
  -4.478  0.282E+00  0.149E+00  0.664E-01  0.664E-01
  -4.468  0.294E+00  0.154E+00  0.697E-01  0.697E-01
  -4.458  0.305E+00  0.161E+00  0.722E-01  0.722E-01
  -4.448  0.314E+00  0.167E+00  0.736E-01  0.736E-01
  -4.438  0.318E+00  0.171E+00  0.736E-01  0.736E-01
  -4.428  0.315E+00  0.171E+00  0.720E-01  0.720E-01
  -4.418  0.305E+00  0.167E+00  0.690E-01  0.690E-01
  -4.408  0.289E+00  0.160E+00  0.646E-01  0.646E-01
  -4.398  0.269E+00  0.150E+00  0.596E-01  0.596E-01
  -4.388  0.248E+00  0.139E+00  0.547E-01  0.547E-01
  -4.378  0.229E+00  0.128E+00  0.507E-01  0.507E-01
  -4.368  0.216E+00  0.120E+00  0.483E-01  0.483E-01
  -4.358  0.211E+00  0.114E+00  0.482E-01  0.482E-01
  -4.348  0.214E+00  0.113E+00  0.505E-01  0.505E-01
  -4.338  0.225E+00  0.115E+00  0.551E-01  0.551E-01
  -4.328  0.243E+00  0.121E+00  0.613E-01  0.613E-01
  -4.318  0.265E+00  0.128E+00  0.682E-01  0.682E-01
  -4.308  0.287E+00  0.138E+00  0.747E-01  0.747E-01
  -4.298  0.308E+00  0.149E+00  0.797E-01  0.797E-01
  -4.288  0.323E+00  0.159E+00  0.822E-01  0.822E-01
  -4.278  0.332E+00  0.168E+00  0.819E-01  0.819E-01
  -4.268  0.333E+00  0.176E+00  0.785E-01  0.785E-01
  -4.258  0.327E+00  0.182E+00  0.725E-01  0.725E-01
  -4.248  0.314E+00  0.185E+00  0.648E-01  0.648E-01
  -4.238  0.298E+00  0.185E+00  0.564E-01  0.564E-01
  -4.228  0.281E+00  0.184E+00  0.488E-01  0.488E-01
  -4.218  0.267E+00  0.181E+00  0.429E-01  0.429E-01
  -4.208  0.258E+00  0.178E+00  0.398E-01  0.398E-01
  -4.198  0.255E+00  0.175E+00  0.398E-01  0.398E-01
  -4.188  0.258E+00  0.172E+00  0.428E-01  0.428E-01
  -4.178  0.267E+00  0.170E+00  0.483E-01  0.483E-01
  -4.168  0.279E+00  0.168E+00  0.554E-01  0.554E-01
  -4.158  0.291E+00  0.165E+00  0.629E-01  0.629E-01
  -4.148  0.300E+00  0.161E+00  0.697E-01  0.697E-01
  -4.138  0.305E+00  0.155E+00  0.746E-01  0.746E-01
  -4.128  0.302E+00  0.148E+00  0.771E-01  0.771E-01
  -4.118  0.294E+00  0.140E+00  0.768E-01  0.768E-01
  -4.108  0.279E+00  0.131E+00  0.740E-01  0.740E-01
  -4.098  0.261E+00  0.123E+00  0.692E-01  0.692E-01
  -4.088  0.243E+00  0.116E+00  0.633E-01  0.633E-01
  -4.078  0.227E+00  0.112E+00  0.574E-01  0.574E-01
  -4.068  0.216E+00  0.111E+00  0.523E-01  0.523E-01
  -4.058  0.210E+00  0.113E+00  0.487E-01  0.487E-01
  -4.048  0.212E+00  0.118E+00  0.471E-01  0.471E-01
  -4.038  0.221E+00  0.126E+00  0.474E-01  0.474E-01
  -4.028  0.235E+00  0.137E+00  0.493E-01  0.493E-01
  -4.018  0.254E+00  0.149E+00  0.522E-01  0.522E-01
  -4.008  0.274E+00  0.163E+00  0.555E-01  0.555E-01
  -3.998  0.294E+00  0.177E+00  0.585E-01  0.585E-01
  -3.988  0.311E+00  0.190E+00  0.608E-01  0.608E-01
  -3.978  0.325E+00  0.201E+00  0.622E-01  0.622E-01
  -3.968  0.334E+00  0.209E+00  0.625E-01  0.625E-01
  -3.958  0.337E+00  0.213E+00  0.621E-01  0.621E-01
  -3.948  0.336E+00  0.213E+00  0.612E-01  0.612E-01
  -3.938  0.330E+00  0.210E+00  0.600E-01  0.600E-01
  -3.928  0.321E+00  0.204E+00  0.588E-01  0.588E-01
  -3.918  0.310E+00  0.195E+00  0.576E-01  0.576E-01
  -3.908  0.299E+00  0.186E+00  0.566E-01  0.566E-01
  -3.898  0.288E+00  0.176E+00  0.558E-01  0.558E-01
  -3.888  0.278E+00  0.168E+00  0.550E-01  0.550E-01
  -3.878  0.268E+00  0.160E+00  0.543E-01  0.543E-01
  -3.868  0.260E+00  0.153E+00  0.537E-01  0.537E-01
  -3.858  0.253E+00  0.146E+00  0.533E-01  0.533E-01
  -3.848  0.247E+00  0.141E+00  0.531E-01  0.531E-01
  -3.838  0.242E+00  0.135E+00  0.534E-01  0.534E-01
  -3.828  0.238E+00  0.130E+00  0.540E-01  0.540E-01
  -3.818  0.235E+00  0.125E+00  0.550E-01  0.550E-01
  -3.808  0.233E+00  0.121E+00  0.561E-01  0.561E-01
  -3.798  0.233E+00  0.118E+00  0.570E-01  0.570E-01
  -3.788  0.233E+00  0.118E+00  0.575E-01  0.575E-01
  -3.778  0.235E+00  0.120E+00  0.574E-01  0.574E-01
  -3.768  0.238E+00  0.125E+00  0.567E-01  0.567E-01
  -3.758  0.243E+00  0.132E+00  0.555E-01  0.555E-01
  -3.748  0.251E+00  0.143E+00  0.542E-01  0.542E-01
  -3.738  0.262E+00  0.156E+00  0.530E-01  0.530E-01
  -3.728  0.275E+00  0.170E+00  0.523E-01  0.523E-01
  -3.718  0.290E+00  0.186E+00  0.520E-01  0.520E-01
  -3.708  0.305E+00  0.201E+00  0.521E-01  0.521E-01
  -3.698  0.318E+00  0.214E+00  0.522E-01  0.522E-01
  -3.688  0.328E+00  0.224E+00  0.520E-01  0.520E-01
  -3.678  0.332E+00  0.230E+00  0.513E-01  0.513E-01
  -3.668  0.331E+00  0.232E+00  0.498E-01  0.498E-01
  -3.658  0.324E+00  0.229E+00  0.474E-01  0.474E-01
  -3.648  0.311E+00  0.223E+00  0.441E-01  0.441E-01
  -3.638  0.293E+00  0.213E+00  0.400E-01  0.400E-01
  -3.628  0.273E+00  0.202E+00  0.352E-01  0.352E-01
  -3.618  0.250E+00  0.191E+00  0.298E-01  0.298E-01
  -3.608  0.228E+00  0.179E+00  0.241E-01  0.241E-01
  -3.598  0.206E+00  0.169E+00  0.183E-01  0.183E-01
  -3.588  0.185E+00  0.160E+00  0.127E-01  0.127E-01
  -3.578  0.167E+00  0.151E+00  0.767E-02  0.767E-02
  -3.568  0.151E+00  0.145E+00  0.335E-02  0.335E-02
  -3.558  0.139E+00  0.139E+00 -0.257E-04 -0.257E-04
  -3.548  0.130E+00  0.135E+00 -0.239E-02 -0.239E-02
  -3.538  0.124E+00  0.132E+00 -0.378E-02 -0.378E-02
  -3.528  0.122E+00  0.130E+00 -0.434E-02 -0.434E-02
  -3.518  0.122E+00  0.130E+00 -0.428E-02 -0.428E-02
  -3.508  0.125E+00  0.132E+00 -0.381E-02 -0.381E-02
  -3.498  0.130E+00  0.136E+00 -0.313E-02 -0.313E-02
  -3.488  0.137E+00  0.142E+00 -0.241E-02 -0.241E-02
  -3.478  0.146E+00  0.150E+00 -0.174E-02 -0.174E-02
  -3.468  0.157E+00  0.159E+00 -0.120E-02 -0.120E-02
  -3.458  0.169E+00  0.170E+00 -0.777E-03 -0.777E-03
  -3.448  0.181E+00  0.182E+00 -0.480E-03 -0.480E-03
  -3.438  0.194E+00  0.195E+00 -0.282E-03 -0.282E-03
  -3.428  0.208E+00  0.208E+00 -0.157E-03 -0.157E-03
  -3.418  0.220E+00  0.220E+00 -0.821E-04 -0.821E-04
  -3.408  0.231E+00  0.231E+00 -0.398E-04 -0.398E-04
  -3.398  0.240E+00  0.240E+00 -0.169E-04 -0.169E-04
  -3.388  0.246E+00  0.246E+00 -0.511E-05 -0.511E-05
  -3.378  0.248E+00  0.248E+00  0.720E-06  0.720E-06
  -3.368  0.246E+00  0.246E+00  0.346E-05  0.346E-05
  -3.358  0.240E+00  0.240E+00  0.466E-05  0.466E-05
  -3.348  0.231E+00  0.231E+00  0.510E-05  0.510E-05
  -3.338  0.219E+00  0.219E+00  0.518E-05  0.518E-05
  -3.328  0.207E+00  0.207E+00  0.509E-05  0.509E-05
  -3.318  0.194E+00  0.194E+00  0.493E-05  0.493E-05
  -3.308  0.183E+00  0.183E+00  0.476E-05  0.476E-05
  -3.298  0.174E+00  0.174E+00  0.462E-05  0.462E-05
  -3.288  0.168E+00  0.168E+00  0.452E-05  0.452E-05
  -3.278  0.165E+00  0.165E+00  0.447E-05  0.447E-05
  -3.268  0.163E+00  0.163E+00  0.447E-05  0.447E-05
  -3.258  0.163E+00  0.163E+00  0.451E-05  0.451E-05
  -3.248  0.164E+00  0.164E+00  0.458E-05  0.458E-05
  -3.238  0.166E+00  0.166E+00  0.467E-05  0.467E-05
  -3.228  0.170E+00  0.170E+00  0.479E-05  0.479E-05
  -3.218  0.175E+00  0.175E+00  0.493E-05  0.493E-05
  -3.208  0.182E+00  0.182E+00  0.510E-05  0.510E-05
  -3.198  0.192E+00  0.192E+00  0.531E-05  0.531E-05
  -3.188  0.203E+00  0.203E+00  0.555E-05  0.555E-05
  -3.178  0.216E+00  0.216E+00  0.583E-05  0.583E-05
  -3.168  0.230E+00  0.230E+00  0.612E-05  0.612E-05
  -3.158  0.243E+00  0.243E+00  0.641E-05  0.641E-05
  -3.148  0.254E+00  0.254E+00  0.669E-05  0.669E-05
  -3.138  0.263E+00  0.263E+00  0.693E-05  0.693E-05
  -3.128  0.269E+00  0.269E+00  0.711E-05  0.711E-05
  -3.118  0.271E+00  0.271E+00  0.723E-05  0.723E-05
  -3.108  0.270E+00  0.270E+00  0.727E-05  0.727E-05
  -3.098  0.266E+00  0.266E+00  0.726E-05  0.726E-05
  -3.088  0.260E+00  0.260E+00  0.718E-05  0.718E-05
  -3.078  0.254E+00  0.254E+00  0.707E-05  0.707E-05
  -3.068  0.247E+00  0.247E+00  0.694E-05  0.694E-05
  -3.058  0.239E+00  0.239E+00  0.682E-05  0.682E-05
  -3.048  0.233E+00  0.233E+00  0.671E-05  0.671E-05
  -3.038  0.226E+00  0.226E+00  0.662E-05  0.662E-05
  -3.028  0.219E+00  0.219E+00  0.654E-05  0.654E-05
  -3.018  0.212E+00  0.212E+00  0.644E-05  0.644E-05
  -3.008  0.204E+00  0.204E+00  0.629E-05  0.629E-05
  -2.998  0.195E+00  0.195E+00  0.606E-05  0.606E-05
  -2.988  0.185E+00  0.185E+00  0.572E-05  0.572E-05
  -2.978  0.175E+00  0.175E+00  0.527E-05  0.527E-05
  -2.968  0.165E+00  0.164E+00  0.474E-05  0.474E-05
  -2.958  0.155E+00  0.155E+00  0.416E-05  0.416E-05
  -2.948  0.148E+00  0.148E+00  0.360E-05  0.360E-05
  -2.938  0.145E+00  0.145E+00  0.311E-05  0.311E-05
  -2.928  0.146E+00  0.146E+00  0.276E-05  0.276E-05
  -2.918  0.152E+00  0.152E+00  0.257E-05  0.257E-05
  -2.908  0.163E+00  0.163E+00  0.256E-05  0.256E-05
  -2.898  0.177E+00  0.177E+00  0.273E-05  0.273E-05
  -2.888  0.193E+00  0.193E+00  0.306E-05  0.306E-05
  -2.878  0.210E+00  0.210E+00  0.351E-05  0.351E-05
  -2.868  0.227E+00  0.227E+00  0.406E-05  0.406E-05
  -2.858  0.243E+00  0.243E+00  0.470E-05  0.470E-05
  -2.848  0.259E+00  0.259E+00  0.541E-05  0.541E-05
  -2.838  0.274E+00  0.274E+00  0.618E-05  0.618E-05
  -2.828  0.289E+00  0.289E+00  0.699E-05  0.699E-05
  -2.818  0.304E+00  0.304E+00  0.779E-05  0.779E-05
  -2.808  0.319E+00  0.319E+00  0.853E-05  0.853E-05
  -2.798  0.331E+00  0.331E+00  0.914E-05  0.914E-05
  -2.788  0.340E+00  0.340E+00  0.953E-05  0.953E-05
  -2.778  0.342E+00  0.342E+00  0.963E-05  0.963E-05
  -2.768  0.336E+00  0.336E+00  0.940E-05  0.940E-05
  -2.758  0.321E+00  0.321E+00  0.882E-05  0.882E-05
  -2.748  0.297E+00  0.297E+00  0.795E-05  0.795E-05
  -2.738  0.267E+00  0.267E+00  0.688E-05  0.688E-05
  -2.728  0.234E+00  0.234E+00  0.574E-05  0.574E-05
  -2.718  0.201E+00  0.201E+00  0.465E-05  0.465E-05
  -2.708  0.172E+00  0.172E+00  0.374E-05  0.374E-05
  -2.698  0.152E+00  0.152E+00  0.308E-05  0.308E-05
  -2.688  0.142E+00  0.142E+00  0.271E-05  0.271E-05
  -2.678  0.143E+00  0.143E+00  0.263E-05  0.263E-05
  -2.668  0.155E+00  0.155E+00  0.280E-05  0.280E-05
  -2.658  0.175E+00  0.175E+00  0.315E-05  0.315E-05
  -2.648  0.200E+00  0.200E+00  0.360E-05  0.360E-05
  -2.638  0.227E+00  0.227E+00  0.408E-05  0.408E-05
  -2.628  0.250E+00  0.250E+00  0.451E-05  0.451E-05
  -2.618  0.266E+00  0.266E+00  0.486E-05  0.486E-05
  -2.608  0.272E+00  0.272E+00  0.509E-05  0.509E-05
  -2.598  0.269E+00  0.269E+00  0.520E-05  0.520E-05
  -2.588  0.255E+00  0.255E+00  0.521E-05  0.521E-05
  -2.578  0.234E+00  0.234E+00  0.515E-05  0.515E-05
  -2.568  0.209E+00  0.209E+00  0.506E-05  0.506E-05
  -2.558  0.184E+00  0.184E+00  0.499E-05  0.499E-05
  -2.548  0.162E+00  0.162E+00  0.496E-05  0.496E-05
  -2.538  0.147E+00  0.147E+00  0.500E-05  0.500E-05
  -2.528  0.137E+00  0.137E+00  0.508E-05  0.508E-05
  -2.518  0.134E+00  0.134E+00  0.520E-05  0.520E-05
  -2.508  0.135E+00  0.135E+00  0.529E-05  0.529E-05
  -2.498  0.139E+00  0.139E+00  0.533E-05  0.533E-05
  -2.488  0.143E+00  0.143E+00  0.528E-05  0.528E-05
  -2.478  0.146E+00  0.146E+00  0.511E-05  0.511E-05
  -2.468  0.146E+00  0.146E+00  0.485E-05  0.485E-05
  -2.458  0.146E+00  0.146E+00  0.450E-05  0.450E-05
  -2.448  0.144E+00  0.144E+00  0.411E-05  0.411E-05
  -2.438  0.142E+00  0.142E+00  0.372E-05  0.372E-05
  -2.428  0.141E+00  0.141E+00  0.338E-05  0.338E-05
  -2.418  0.143E+00  0.143E+00  0.311E-05  0.311E-05
  -2.408  0.147E+00  0.147E+00  0.295E-05  0.295E-05
  -2.398  0.153E+00  0.153E+00  0.288E-05  0.288E-05
  -2.388  0.159E+00  0.159E+00  0.290E-05  0.290E-05
  -2.378  0.166E+00  0.166E+00  0.297E-05  0.297E-05
  -2.368  0.170E+00  0.170E+00  0.307E-05  0.307E-05
  -2.358  0.170E+00  0.170E+00  0.316E-05  0.316E-05
  -2.348  0.166E+00  0.166E+00  0.322E-05  0.322E-05
  -2.338  0.158E+00  0.158E+00  0.324E-05  0.324E-05
  -2.328  0.146E+00  0.146E+00  0.324E-05  0.324E-05
  -2.318  0.133E+00  0.133E+00  0.321E-05  0.321E-05
  -2.308  0.119E+00  0.119E+00  0.318E-05  0.318E-05
  -2.298  0.107E+00  0.107E+00  0.317E-05  0.317E-05
  -2.288  0.987E-01  0.987E-01  0.320E-05  0.320E-05
  -2.278  0.936E-01  0.935E-01  0.327E-05  0.327E-05
  -2.268  0.919E-01  0.919E-01  0.338E-05  0.338E-05
  -2.258  0.934E-01  0.934E-01  0.351E-05  0.351E-05
  -2.248  0.971E-01  0.971E-01  0.367E-05  0.367E-05
  -2.238  0.102E+00  0.102E+00  0.384E-05  0.384E-05
  -2.228  0.109E+00  0.109E+00  0.401E-05  0.401E-05
  -2.218  0.115E+00  0.115E+00  0.417E-05  0.417E-05
  -2.208  0.122E+00  0.122E+00  0.431E-05  0.431E-05
  -2.198  0.128E+00  0.128E+00  0.441E-05  0.441E-05
  -2.188  0.133E+00  0.133E+00  0.444E-05  0.444E-05
  -2.178  0.136E+00  0.136E+00  0.440E-05  0.440E-05
  -2.168  0.138E+00  0.138E+00  0.426E-05  0.426E-05
  -2.158  0.137E+00  0.137E+00  0.403E-05  0.403E-05
  -2.148  0.135E+00  0.135E+00  0.373E-05  0.373E-05
  -2.138  0.132E+00  0.132E+00  0.339E-05  0.339E-05
  -2.128  0.128E+00  0.128E+00  0.304E-05  0.304E-05
  -2.118  0.124E+00  0.124E+00  0.273E-05  0.273E-05
  -2.108  0.120E+00  0.120E+00  0.247E-05  0.247E-05
  -2.098  0.116E+00  0.116E+00  0.229E-05  0.229E-05
  -2.088  0.113E+00  0.113E+00  0.218E-05  0.218E-05
  -2.078  0.108E+00  0.108E+00  0.215E-05  0.215E-05
  -2.068  0.104E+00  0.104E+00  0.217E-05  0.217E-05
  -2.058  0.982E-01  0.982E-01  0.221E-05  0.221E-05
  -2.048  0.920E-01  0.920E-01  0.226E-05  0.226E-05
  -2.038  0.854E-01  0.854E-01  0.231E-05  0.231E-05
  -2.028  0.791E-01  0.791E-01  0.235E-05  0.235E-05
  -2.018  0.736E-01  0.736E-01  0.239E-05  0.239E-05
  -2.008  0.694E-01  0.694E-01  0.245E-05  0.245E-05
  -1.998  0.671E-01  0.671E-01  0.252E-05  0.252E-05
  -1.988  0.668E-01  0.668E-01  0.262E-05  0.262E-05
  -1.978  0.687E-01  0.687E-01  0.276E-05  0.276E-05
  -1.968  0.725E-01  0.725E-01  0.291E-05  0.291E-05
  -1.958  0.780E-01  0.780E-01  0.308E-05  0.308E-05
  -1.948  0.848E-01  0.848E-01  0.326E-05  0.326E-05
  -1.938  0.921E-01  0.921E-01  0.342E-05  0.342E-05
  -1.928  0.993E-01  0.993E-01  0.356E-05  0.356E-05
  -1.918  0.106E+00  0.106E+00  0.365E-05  0.365E-05
  -1.908  0.110E+00  0.110E+00  0.370E-05  0.370E-05
  -1.898  0.113E+00  0.113E+00  0.369E-05  0.369E-05
  -1.888  0.114E+00  0.114E+00  0.362E-05  0.362E-05
  -1.878  0.113E+00  0.113E+00  0.349E-05  0.349E-05
  -1.868  0.110E+00  0.110E+00  0.333E-05  0.333E-05
  -1.858  0.107E+00  0.107E+00  0.315E-05  0.315E-05
  -1.848  0.103E+00  0.103E+00  0.295E-05  0.295E-05
  -1.838  0.992E-01  0.992E-01  0.275E-05  0.275E-05
  -1.828  0.949E-01  0.949E-01  0.255E-05  0.255E-05
  -1.818  0.902E-01  0.902E-01  0.236E-05  0.236E-05
  -1.808  0.849E-01  0.849E-01  0.216E-05  0.216E-05
  -1.798  0.790E-01  0.790E-01  0.197E-05  0.197E-05
  -1.788  0.726E-01  0.726E-01  0.178E-05  0.178E-05
  -1.778  0.662E-01  0.662E-01  0.162E-05  0.162E-05
  -1.768  0.603E-01  0.603E-01  0.150E-05  0.150E-05
  -1.758  0.554E-01  0.554E-01  0.144E-05  0.144E-05
  -1.748  0.519E-01  0.519E-01  0.144E-05  0.144E-05
  -1.738  0.498E-01  0.498E-01  0.150E-05  0.150E-05
  -1.728  0.489E-01  0.489E-01  0.161E-05  0.161E-05
  -1.718  0.490E-01  0.490E-01  0.174E-05  0.174E-05
  -1.708  0.497E-01  0.497E-01  0.188E-05  0.188E-05
  -1.698  0.511E-01  0.511E-01  0.203E-05  0.203E-05
  -1.688  0.534E-01  0.534E-01  0.218E-05  0.218E-05
  -1.678  0.567E-01  0.567E-01  0.236E-05  0.236E-05
  -1.668  0.615E-01  0.615E-01  0.255E-05  0.255E-05
  -1.658  0.678E-01  0.678E-01  0.278E-05  0.278E-05
  -1.648  0.754E-01  0.754E-01  0.302E-05  0.302E-05
  -1.638  0.837E-01  0.837E-01  0.327E-05  0.327E-05
  -1.628  0.916E-01  0.916E-01  0.347E-05  0.347E-05
  -1.618  0.980E-01  0.980E-01  0.359E-05  0.359E-05
  -1.608  0.102E+00  0.102E+00  0.359E-05  0.359E-05
  -1.598  0.102E+00  0.102E+00  0.346E-05  0.346E-05
  -1.588  0.989E-01  0.989E-01  0.320E-05  0.320E-05
  -1.578  0.923E-01  0.923E-01  0.283E-05  0.283E-05
  -1.568  0.831E-01  0.831E-01  0.239E-05  0.239E-05
  -1.558  0.724E-01  0.724E-01  0.194E-05  0.194E-05
  -1.548  0.614E-01  0.614E-01  0.152E-05  0.152E-05
  -1.538  0.514E-01  0.514E-01  0.119E-05  0.119E-05
  -1.528  0.432E-01  0.432E-01  0.972E-06  0.972E-06
  -1.518  0.375E-01  0.375E-01  0.878E-06  0.878E-06
  -1.508  0.343E-01  0.343E-01  0.903E-06  0.903E-06
  -1.498  0.337E-01  0.337E-01  0.102E-05  0.102E-05
  -1.488  0.349E-01  0.349E-01  0.120E-05  0.120E-05
  -1.478  0.375E-01  0.375E-01  0.141E-05  0.141E-05
  -1.468  0.408E-01  0.408E-01  0.160E-05  0.160E-05
  -1.458  0.442E-01  0.442E-01  0.175E-05  0.175E-05
  -1.448  0.472E-01  0.472E-01  0.184E-05  0.184E-05
  -1.438  0.496E-01  0.496E-01  0.188E-05  0.188E-05
  -1.428  0.513E-01  0.512E-01  0.187E-05  0.187E-05
  -1.418  0.522E-01  0.522E-01  0.184E-05  0.184E-05
  -1.408  0.527E-01  0.526E-01  0.181E-05  0.181E-05
  -1.398  0.527E-01  0.527E-01  0.181E-05  0.181E-05
  -1.388  0.526E-01  0.526E-01  0.184E-05  0.184E-05
  -1.378  0.526E-01  0.526E-01  0.192E-05  0.192E-05
  -1.368  0.529E-01  0.529E-01  0.204E-05  0.204E-05
  -1.358  0.536E-01  0.536E-01  0.216E-05  0.216E-05
  -1.348  0.549E-01  0.549E-01  0.227E-05  0.227E-05
  -1.338  0.566E-01  0.566E-01  0.235E-05  0.235E-05
  -1.328  0.584E-01  0.584E-01  0.238E-05  0.238E-05
  -1.318  0.600E-01  0.600E-01  0.234E-05  0.234E-05
  -1.308  0.610E-01  0.610E-01  0.225E-05  0.225E-05
  -1.298  0.611E-01  0.611E-01  0.212E-05  0.212E-05
  -1.288  0.600E-01  0.600E-01  0.195E-05  0.195E-05
  -1.278  0.574E-01  0.574E-01  0.177E-05  0.177E-05
  -1.268  0.534E-01  0.534E-01  0.159E-05  0.159E-05
  -1.258  0.482E-01  0.482E-01  0.142E-05  0.142E-05
  -1.248  0.422E-01  0.422E-01  0.127E-05  0.127E-05
  -1.238  0.357E-01  0.357E-01  0.112E-05  0.112E-05
  -1.228  0.294E-01  0.294E-01  0.975E-06  0.975E-06
  -1.218  0.238E-01  0.238E-01  0.841E-06  0.841E-06
  -1.208  0.194E-01  0.194E-01  0.721E-06  0.721E-06
  -1.198  0.166E-01  0.166E-01  0.626E-06  0.626E-06
  -1.188  0.156E-01  0.156E-01  0.567E-06  0.567E-06
  -1.178  0.164E-01  0.164E-01  0.560E-06  0.560E-06
  -1.168  0.189E-01  0.189E-01  0.614E-06  0.614E-06
  -1.158  0.226E-01  0.226E-01  0.734E-06  0.734E-06
  -1.148  0.273E-01  0.273E-01  0.918E-06  0.918E-06
  -1.138  0.324E-01  0.323E-01  0.116E-05  0.116E-05
  -1.128  0.376E-01  0.376E-01  0.143E-05  0.143E-05
  -1.118  0.427E-01  0.427E-01  0.171E-05  0.171E-05
  -1.108  0.474E-01  0.474E-01  0.197E-05  0.197E-05
  -1.098  0.515E-01  0.515E-01  0.218E-05  0.218E-05
  -1.088  0.545E-01  0.545E-01  0.231E-05  0.231E-05
  -1.078  0.561E-01  0.561E-01  0.233E-05  0.233E-05
  -1.068  0.557E-01  0.557E-01  0.223E-05  0.223E-05
  -1.058  0.530E-01  0.530E-01  0.202E-05  0.202E-05
  -1.048  0.479E-01  0.479E-01  0.171E-05  0.171E-05
  -1.038  0.408E-01  0.408E-01  0.135E-05  0.135E-05
  -1.028  0.323E-01  0.323E-01  0.971E-06  0.971E-06
  -1.018  0.234E-01  0.234E-01  0.619E-06  0.619E-06
  -1.008  0.151E-01  0.151E-01  0.332E-06  0.332E-06
  -0.998  0.841E-02  0.841E-02  0.132E-06  0.132E-06
  -0.988  0.392E-02  0.392E-02  0.298E-07  0.298E-07
  -0.978  0.203E-02  0.203E-02  0.189E-07  0.189E-07
  -0.968  0.272E-02  0.272E-02  0.841E-07  0.841E-07
  -0.958  0.567E-02  0.567E-02  0.203E-06  0.203E-06
  -0.948  0.103E-01  0.103E-01  0.350E-06  0.350E-06
  -0.938  0.161E-01  0.161E-01  0.502E-06  0.502E-06
  -0.928  0.222E-01  0.222E-01  0.637E-06  0.637E-06
  -0.918  0.281E-01  0.281E-01  0.741E-06  0.741E-06
  -0.908  0.331E-01  0.331E-01  0.804E-06  0.804E-06
  -0.898  0.368E-01  0.368E-01  0.823E-06  0.823E-06
  -0.888  0.389E-01  0.389E-01  0.801E-06  0.801E-06
  -0.878  0.394E-01  0.394E-01  0.746E-06  0.746E-06
  -0.868  0.382E-01  0.382E-01  0.667E-06  0.667E-06
  -0.858  0.356E-01  0.356E-01  0.574E-06  0.574E-06
  -0.848  0.319E-01  0.319E-01  0.478E-06  0.478E-06
  -0.838  0.275E-01  0.275E-01  0.385E-06  0.385E-06
  -0.828  0.226E-01  0.226E-01  0.299E-06  0.299E-06
  -0.818  0.177E-01  0.177E-01  0.222E-06  0.222E-06
  -0.808  0.131E-01  0.131E-01  0.157E-06  0.157E-06
  -0.798  0.916E-02  0.916E-02  0.103E-06  0.103E-06
  -0.788  0.612E-02  0.612E-02  0.629E-07  0.629E-07
  -0.778  0.425E-02  0.425E-02  0.375E-07  0.375E-07
  -0.768  0.372E-02  0.372E-02  0.283E-07  0.283E-07
  -0.758  0.461E-02  0.461E-02  0.362E-07  0.362E-07
  -0.748  0.685E-02  0.685E-02  0.603E-07  0.603E-07
  -0.738  0.102E-01  0.102E-01  0.983E-07  0.983E-07
  -0.728  0.144E-01  0.144E-01  0.146E-06  0.146E-06
  -0.718  0.188E-01  0.188E-01  0.197E-06  0.197E-06
  -0.708  0.229E-01  0.229E-01  0.245E-06  0.245E-06
  -0.698  0.261E-01  0.261E-01  0.283E-06  0.283E-06
  -0.688  0.279E-01  0.279E-01  0.305E-06  0.305E-06
  -0.678  0.280E-01  0.280E-01  0.308E-06  0.308E-06
  -0.668  0.263E-01  0.263E-01  0.290E-06  0.290E-06
  -0.658  0.231E-01  0.231E-01  0.255E-06  0.255E-06
  -0.648  0.190E-01  0.190E-01  0.209E-06  0.209E-06
  -0.638  0.146E-01  0.146E-01  0.158E-06  0.158E-06
  -0.628  0.105E-01  0.105E-01  0.109E-06  0.109E-06
  -0.618  0.733E-02  0.733E-02  0.680E-07  0.680E-07
  -0.608  0.542E-02  0.542E-02  0.384E-07  0.384E-07
  -0.598  0.482E-02  0.482E-02  0.208E-07  0.208E-07
  -0.588  0.532E-02  0.532E-02  0.135E-07  0.135E-07
  -0.578  0.655E-02  0.655E-02  0.134E-07  0.134E-07
  -0.568  0.805E-02  0.805E-02  0.170E-07  0.170E-07
  -0.558  0.935E-02  0.935E-02  0.215E-07  0.215E-07
  -0.548  0.101E-01  0.101E-01  0.253E-07  0.253E-07
  -0.538  0.102E-01  0.102E-01  0.282E-07  0.282E-07
  -0.528  0.968E-02  0.968E-02  0.318E-07  0.318E-07
  -0.518  0.870E-02  0.870E-02  0.387E-07  0.387E-07
  -0.508  0.764E-02  0.763E-02  0.525E-07  0.525E-07
  -0.498  0.689E-02  0.689E-02  0.769E-07  0.769E-07
  -0.488  0.683E-02  0.683E-02  0.115E-06  0.115E-06
  -0.478  0.775E-02  0.775E-02  0.170E-06  0.170E-06
  -0.468  0.974E-02  0.974E-02  0.242E-06  0.242E-06
  -0.458  0.127E-01  0.127E-01  0.328E-06  0.328E-06
  -0.448  0.164E-01  0.164E-01  0.423E-06  0.423E-06
  -0.438  0.204E-01  0.204E-01  0.517E-06  0.517E-06
  -0.428  0.240E-01  0.240E-01  0.600E-06  0.600E-06
  -0.418  0.267E-01  0.267E-01  0.659E-06  0.659E-06
  -0.408  0.279E-01  0.279E-01  0.684E-06  0.684E-06
  -0.398  0.275E-01  0.275E-01  0.668E-06  0.668E-06
  -0.388  0.253E-01  0.253E-01  0.613E-06  0.613E-06
  -0.378  0.217E-01  0.217E-01  0.524E-06  0.524E-06
  -0.368  0.171E-01  0.171E-01  0.413E-06  0.413E-06
  -0.358  0.121E-01  0.121E-01  0.296E-06  0.296E-06
  -0.348  0.749E-02  0.749E-02  0.189E-06  0.189E-06
  -0.338  0.372E-02  0.372E-02  0.105E-06  0.105E-06
  -0.328  0.119E-02  0.119E-02  0.549E-07  0.549E-07
  -0.318  0.716E-04  0.715E-04  0.441E-07  0.441E-07
  -0.308  0.364E-03  0.364E-03  0.739E-07  0.739E-07
  -0.298  0.193E-02  0.193E-02  0.143E-06  0.143E-06
  -0.288  0.456E-02  0.456E-02  0.246E-06  0.246E-06
  -0.278  0.800E-02  0.800E-02  0.378E-06  0.378E-06
  -0.268  0.120E-01  0.120E-01  0.533E-06  0.533E-06
  -0.258  0.163E-01  0.163E-01  0.702E-06  0.702E-06
  -0.248  0.205E-01  0.205E-01  0.877E-06  0.877E-06
  -0.238  0.246E-01  0.246E-01  0.105E-05  0.105E-05
  -0.228  0.281E-01  0.281E-01  0.121E-05  0.121E-05
  -0.218  0.309E-01  0.309E-01  0.134E-05  0.134E-05
  -0.208  0.328E-01  0.328E-01  0.145E-05  0.145E-05
  -0.198  0.338E-01  0.338E-01  0.153E-05  0.153E-05
  -0.188  0.339E-01  0.339E-01  0.157E-05  0.157E-05
  -0.178  0.329E-01  0.329E-01  0.156E-05  0.156E-05
  -0.168  0.311E-01  0.311E-01  0.152E-05  0.152E-05
  -0.158  0.284E-01  0.284E-01  0.143E-05  0.143E-05
  -0.148  0.251E-01  0.251E-01  0.131E-05  0.131E-05
  -0.138  0.213E-01  0.213E-01  0.117E-05  0.117E-05
  -0.128  0.174E-01  0.174E-01  0.102E-05  0.102E-05
  -0.118  0.138E-01  0.138E-01  0.901E-06  0.901E-06
  -0.108  0.107E-01  0.107E-01  0.820E-06  0.820E-06
  -0.098  0.858E-02  0.858E-02  0.800E-06  0.800E-06
  -0.088  0.774E-02  0.774E-02  0.850E-06  0.850E-06
  -0.078  0.830E-02  0.830E-02  0.968E-06  0.968E-06
  -0.068  0.103E-01  0.103E-01  0.114E-05  0.114E-05
  -0.058  0.136E-01  0.136E-01  0.136E-05  0.136E-05
  -0.048  0.180E-01  0.180E-01  0.161E-05  0.161E-05
  -0.038  0.233E-01  0.233E-01  0.186E-05  0.186E-05
  -0.028  0.291E-01  0.291E-01  0.210E-05  0.210E-05
  -0.018  0.350E-01  0.350E-01  0.232E-05  0.232E-05
  -0.008  0.405E-01  0.405E-01  0.251E-05  0.251E-05
   0.002  0.450E-01  0.450E-01  0.266E-05  0.266E-05
   0.012  0.483E-01  0.482E-01  0.276E-05  0.276E-05
   0.022  0.498E-01  0.498E-01  0.280E-05  0.280E-05
   0.032  0.496E-01  0.496E-01  0.278E-05  0.278E-05
   0.042  0.477E-01  0.477E-01  0.269E-05  0.269E-05
   0.052  0.447E-01  0.447E-01  0.257E-05  0.257E-05
   0.062  0.411E-01  0.411E-01  0.242E-05  0.242E-05
   0.072  0.374E-01  0.374E-01  0.226E-05  0.226E-05
   0.082  0.341E-01  0.341E-01  0.213E-05  0.213E-05
   0.092  0.317E-01  0.316E-01  0.203E-05  0.203E-05
   0.102  0.301E-01  0.301E-01  0.197E-05  0.197E-05
   0.112  0.294E-01  0.294E-01  0.195E-05  0.195E-05
   0.122  0.294E-01  0.294E-01  0.197E-05  0.197E-05
   0.132  0.302E-01  0.302E-01  0.203E-05  0.203E-05
   0.142  0.314E-01  0.314E-01  0.212E-05  0.212E-05
   0.152  0.332E-01  0.332E-01  0.223E-05  0.223E-05
   0.162  0.355E-01  0.355E-01  0.237E-05  0.237E-05
   0.172  0.383E-01  0.383E-01  0.253E-05  0.253E-05
   0.182  0.414E-01  0.414E-01  0.271E-05  0.271E-05
   0.192  0.446E-01  0.446E-01  0.288E-05  0.288E-05
   0.202  0.476E-01  0.476E-01  0.305E-05  0.305E-05
   0.212  0.502E-01  0.502E-01  0.319E-05  0.319E-05
   0.222  0.520E-01  0.520E-01  0.330E-05  0.330E-05
   0.232  0.530E-01  0.530E-01  0.336E-05  0.336E-05
   0.242  0.530E-01  0.530E-01  0.338E-05  0.338E-05
   0.252  0.522E-01  0.522E-01  0.336E-05  0.336E-05
   0.262  0.508E-01  0.508E-01  0.331E-05  0.331E-05
   0.272  0.494E-01  0.494E-01  0.325E-05  0.325E-05
   0.282  0.482E-01  0.482E-01  0.320E-05  0.320E-05
   0.292  0.476E-01  0.476E-01  0.318E-05  0.318E-05
   0.302  0.479E-01  0.479E-01  0.322E-05  0.322E-05
   0.312  0.493E-01  0.493E-01  0.331E-05  0.331E-05
   0.322  0.519E-01  0.519E-01  0.346E-05  0.346E-05
   0.332  0.554E-01  0.554E-01  0.367E-05  0.367E-05
   0.342  0.597E-01  0.597E-01  0.392E-05  0.392E-05
   0.352  0.643E-01  0.643E-01  0.419E-05  0.419E-05
   0.362  0.689E-01  0.688E-01  0.445E-05  0.445E-05
   0.372  0.728E-01  0.728E-01  0.468E-05  0.468E-05
   0.382  0.756E-01  0.756E-01  0.483E-05  0.483E-05
   0.392  0.770E-01  0.770E-01  0.489E-05  0.489E-05
   0.402  0.766E-01  0.766E-01  0.484E-05  0.484E-05
   0.412  0.745E-01  0.745E-01  0.468E-05  0.468E-05
   0.422  0.709E-01  0.708E-01  0.442E-05  0.442E-05
   0.432  0.660E-01  0.660E-01  0.409E-05  0.409E-05
   0.442  0.606E-01  0.606E-01  0.373E-05  0.373E-05
   0.452  0.553E-01  0.553E-01  0.339E-05  0.339E-05
   0.462  0.507E-01  0.507E-01  0.312E-05  0.312E-05
   0.472  0.475E-01  0.475E-01  0.295E-05  0.295E-05
   0.482  0.462E-01  0.462E-01  0.294E-05  0.294E-05
   0.492  0.472E-01  0.472E-01  0.310E-05  0.310E-05
   0.502  0.504E-01  0.504E-01  0.342E-05  0.342E-05
   0.512  0.557E-01  0.557E-01  0.389E-05  0.389E-05
   0.522  0.625E-01  0.625E-01  0.445E-05  0.445E-05
   0.532  0.700E-01  0.700E-01  0.506E-05  0.506E-05
   0.542  0.776E-01  0.776E-01  0.563E-05  0.563E-05
   0.552  0.846E-01  0.845E-01  0.612E-05  0.612E-05
   0.562  0.903E-01  0.903E-01  0.649E-05  0.649E-05
   0.572  0.947E-01  0.947E-01  0.674E-05  0.674E-05
   0.582  0.980E-01  0.980E-01  0.688E-05  0.688E-05
   0.592  0.101E+00  0.101E+00  0.696E-05  0.696E-05
   0.602  0.103E+00  0.103E+00  0.703E-05  0.703E-05
   0.612  0.106E+00  0.106E+00  0.712E-05  0.712E-05
   0.622  0.109E+00  0.109E+00  0.724E-05  0.724E-05
   0.632  0.113E+00  0.113E+00  0.737E-05  0.737E-05
   0.642  0.116E+00  0.116E+00  0.748E-05  0.748E-05
   0.652  0.118E+00  0.118E+00  0.751E-05  0.751E-05
   0.662  0.119E+00  0.119E+00  0.741E-05  0.741E-05
   0.672  0.116E+00  0.116E+00  0.715E-05  0.715E-05
   0.682  0.111E+00  0.111E+00  0.674E-05  0.674E-05
   0.692  0.104E+00  0.104E+00  0.621E-05  0.621E-05
   0.702  0.953E-01  0.952E-01  0.561E-05  0.561E-05
   0.712  0.857E-01  0.856E-01  0.501E-05  0.501E-05
   0.722  0.765E-01  0.764E-01  0.447E-05  0.447E-05
   0.732  0.687E-01  0.687E-01  0.408E-05  0.408E-05
   0.742  0.633E-01  0.633E-01  0.388E-05  0.388E-05
   0.752  0.612E-01  0.612E-01  0.392E-05  0.392E-05
   0.762  0.630E-01  0.630E-01  0.425E-05  0.425E-05
   0.772  0.691E-01  0.691E-01  0.489E-05  0.489E-05
   0.782  0.798E-01  0.798E-01  0.584E-05  0.584E-05
   0.792  0.947E-01  0.947E-01  0.706E-05  0.706E-05
   0.802  0.113E+00  0.113E+00  0.849E-05  0.849E-05
   0.812  0.133E+00  0.133E+00  0.100E-04  0.100E-04
   0.822  0.154E+00  0.154E+00  0.115E-04  0.115E-04
   0.832  0.174E+00  0.174E+00  0.128E-04  0.128E-04
   0.842  0.192E+00  0.192E+00  0.138E-04  0.138E-04
   0.852  0.206E+00  0.206E+00  0.144E-04  0.144E-04
   0.862  0.217E+00  0.217E+00  0.146E-04  0.146E-04
   0.872  0.224E+00  0.224E+00  0.145E-04  0.145E-04
   0.882  0.230E+00  0.230E+00  0.142E-04  0.142E-04
   0.892  0.234E+00  0.234E+00  0.138E-04  0.138E-04
   0.902  0.238E+00  0.238E+00  0.134E-04  0.134E-04
   0.912  0.241E+00  0.241E+00  0.130E-04  0.130E-04
   0.922  0.243E+00  0.243E+00  0.127E-04  0.127E-04
   0.932  0.243E+00  0.243E+00  0.125E-04  0.125E-04
   0.942  0.242E+00  0.242E+00  0.122E-04  0.122E-04
   0.952  0.237E+00  0.237E+00  0.120E-04  0.120E-04
   0.962  0.230E+00  0.230E+00  0.117E-04  0.117E-04
   0.972  0.221E+00  0.221E+00  0.114E-04  0.114E-04
   0.982  0.210E+00  0.210E+00  0.111E-04  0.111E-04
   0.992  0.200E+00  0.200E+00  0.108E-04  0.108E-04
   1.002  0.190E+00  0.190E+00  0.106E-04  0.106E-04
   1.012  0.182E+00  0.182E+00  0.106E-04  0.106E-04
   1.022  0.178E+00  0.178E+00  0.107E-04  0.107E-04
   1.032  0.177E+00  0.177E+00  0.109E-04  0.109E-04
   1.042  0.180E+00  0.180E+00  0.114E-04  0.114E-04
   1.052  0.187E+00  0.187E+00  0.121E-04  0.121E-04
   1.062  0.198E+00  0.198E+00  0.130E-04  0.130E-04
   1.072  0.211E+00  0.211E+00  0.140E-04  0.140E-04
   1.082  0.225E+00  0.225E+00  0.150E-04  0.150E-04
   1.092  0.238E+00  0.238E+00  0.159E-04  0.159E-04
   1.102  0.248E+00  0.248E+00  0.166E-04  0.166E-04
   1.112  0.254E+00  0.254E+00  0.170E-04  0.170E-04
   1.122  0.256E+00  0.256E+00  0.171E-04  0.171E-04
   1.132  0.252E+00  0.252E+00  0.169E-04  0.169E-04
   1.142  0.245E+00  0.245E+00  0.164E-04  0.164E-04
   1.152  0.235E+00  0.235E+00  0.157E-04  0.157E-04
   1.162  0.224E+00  0.224E+00  0.149E-04  0.149E-04
   1.172  0.213E+00  0.213E+00  0.141E-04  0.141E-04
   1.182  0.205E+00  0.205E+00  0.134E-04  0.134E-04
   1.192  0.199E+00  0.199E+00  0.128E-04  0.128E-04
   1.202  0.195E+00  0.195E+00  0.125E-04  0.125E-04
   1.212  0.193E+00  0.193E+00  0.122E-04  0.122E-04
   1.222  0.192E+00  0.192E+00  0.121E-04  0.121E-04
   1.232  0.191E+00  0.191E+00  0.120E-04  0.120E-04
   1.242  0.192E+00  0.192E+00  0.120E-04  0.120E-04
   1.252  0.193E+00  0.193E+00  0.122E-04  0.122E-04
   1.262  0.196E+00  0.196E+00  0.124E-04  0.124E-04
   1.272  0.201E+00  0.201E+00  0.128E-04  0.128E-04
   1.282  0.210E+00  0.210E+00  0.134E-04  0.134E-04
   1.292  0.221E+00  0.221E+00  0.142E-04  0.142E-04
   1.302  0.233E+00  0.233E+00  0.151E-04  0.151E-04
   1.312  0.246E+00  0.246E+00  0.159E-04  0.159E-04
   1.322  0.258E+00  0.258E+00  0.167E-04  0.167E-04
   1.332  0.267E+00  0.267E+00  0.174E-04  0.174E-04
   1.342  0.273E+00  0.273E+00  0.178E-04  0.178E-04
   1.352  0.275E+00  0.275E+00  0.181E-04  0.181E-04
   1.362  0.274E+00  0.274E+00  0.182E-04  0.182E-04
   1.372  0.271E+00  0.271E+00  0.183E-04  0.183E-04
   1.382  0.267E+00  0.267E+00  0.184E-04  0.184E-04
   1.392  0.264E+00  0.264E+00  0.185E-04  0.185E-04
   1.402  0.262E+00  0.262E+00  0.188E-04  0.188E-04
   1.412  0.261E+00  0.261E+00  0.190E-04  0.190E-04
   1.422  0.261E+00  0.261E+00  0.192E-04  0.192E-04
   1.432  0.259E+00  0.259E+00  0.193E-04  0.193E-04
   1.442  0.256E+00  0.256E+00  0.191E-04  0.191E-04
   1.452  0.251E+00  0.251E+00  0.187E-04  0.187E-04
   1.462  0.242E+00  0.242E+00  0.179E-04  0.179E-04
   1.472  0.230E+00  0.230E+00  0.169E-04  0.169E-04
   1.482  0.215E+00  0.215E+00  0.157E-04  0.157E-04
   1.492  0.200E+00  0.200E+00  0.145E-04  0.145E-04
   1.502  0.184E+00  0.184E+00  0.133E-04  0.133E-04
   1.512  0.171E+00  0.171E+00  0.124E-04  0.124E-04
   1.522  0.160E+00  0.160E+00  0.117E-04  0.117E-04
   1.532  0.153E+00  0.153E+00  0.114E-04  0.114E-04
   1.542  0.150E+00  0.150E+00  0.113E-04  0.113E-04
   1.552  0.150E+00  0.150E+00  0.115E-04  0.115E-04
   1.562  0.152E+00  0.152E+00  0.119E-04  0.119E-04
   1.572  0.156E+00  0.156E+00  0.123E-04  0.123E-04
   1.582  0.159E+00  0.159E+00  0.128E-04  0.128E-04
   1.592  0.161E+00  0.161E+00  0.131E-04  0.131E-04
   1.602  0.162E+00  0.162E+00  0.134E-04  0.134E-04
   1.612  0.162E+00  0.162E+00  0.135E-04  0.135E-04
   1.622  0.161E+00  0.161E+00  0.134E-04  0.134E-04
   1.632  0.160E+00  0.160E+00  0.134E-04  0.134E-04
   1.642  0.159E+00  0.159E+00  0.133E-04  0.133E-04
   1.652  0.159E+00  0.159E+00  0.133E-04  0.133E-04
   1.662  0.160E+00  0.160E+00  0.134E-04  0.134E-04
   1.672  0.163E+00  0.163E+00  0.138E-04  0.138E-04
   1.682  0.168E+00  0.168E+00  0.143E-04  0.143E-04
   1.692  0.174E+00  0.174E+00  0.150E-04  0.150E-04
   1.702  0.181E+00  0.181E+00  0.159E-04  0.159E-04
   1.712  0.189E+00  0.189E+00  0.168E-04  0.168E-04
   1.722  0.197E+00  0.197E+00  0.177E-04  0.177E-04
   1.732  0.204E+00  0.204E+00  0.185E-04  0.185E-04
   1.742  0.209E+00  0.209E+00  0.190E-04  0.190E-04
   1.752  0.210E+00  0.210E+00  0.191E-04  0.191E-04
   1.762  0.208E+00  0.207E+00  0.188E-04  0.188E-04
   1.772  0.201E+00  0.201E+00  0.180E-04  0.180E-04
   1.782  0.191E+00  0.191E+00  0.169E-04  0.169E-04
   1.792  0.178E+00  0.178E+00  0.156E-04  0.156E-04
   1.802  0.164E+00  0.164E+00  0.142E-04  0.142E-04
   1.812  0.151E+00  0.151E+00  0.129E-04  0.129E-04
   1.822  0.138E+00  0.138E+00  0.118E-04  0.118E-04
   1.832  0.128E+00  0.128E+00  0.110E-04  0.110E-04
   1.842  0.120E+00  0.120E+00  0.105E-04  0.105E-04
   1.852  0.114E+00  0.114E+00  0.103E-04  0.103E-04
   1.862  0.111E+00  0.111E+00  0.103E-04  0.103E-04
   1.872  0.110E+00  0.110E+00  0.105E-04  0.105E-04
   1.882  0.111E+00  0.111E+00  0.109E-04  0.109E-04
   1.892  0.115E+00  0.115E+00  0.114E-04  0.114E-04
   1.902  0.121E+00  0.121E+00  0.122E-04  0.122E-04
   1.912  0.129E+00  0.129E+00  0.130E-04  0.130E-04
   1.922  0.138E+00  0.138E+00  0.139E-04  0.139E-04
   1.932  0.147E+00  0.147E+00  0.148E-04  0.148E-04
   1.942  0.155E+00  0.155E+00  0.155E-04  0.155E-04
   1.952  0.160E+00  0.160E+00  0.159E-04  0.159E-04
   1.962  0.162E+00  0.162E+00  0.160E-04  0.160E-04
   1.972  0.160E+00  0.160E+00  0.158E-04  0.158E-04
   1.982  0.156E+00  0.156E+00  0.154E-04  0.154E-04
   1.992  0.150E+00  0.150E+00  0.148E-04  0.148E-04
   2.002  0.144E+00  0.144E+00  0.142E-04  0.142E-04
   2.012  0.139E+00  0.139E+00  0.139E-04  0.139E-04
   2.022  0.138E+00  0.138E+00  0.139E-04  0.139E-04
   2.032  0.140E+00  0.140E+00  0.143E-04  0.143E-04
   2.042  0.147E+00  0.147E+00  0.151E-04  0.151E-04
   2.052  0.156E+00  0.156E+00  0.162E-04  0.162E-04
   2.062  0.167E+00  0.167E+00  0.175E-04  0.175E-04
   2.072  0.177E+00  0.177E+00  0.187E-04  0.187E-04
   2.082  0.185E+00  0.185E+00  0.196E-04  0.196E-04
   2.092  0.190E+00  0.189E+00  0.200E-04  0.200E-04
   2.102  0.189E+00  0.189E+00  0.200E-04  0.200E-04
   2.112  0.183E+00  0.183E+00  0.194E-04  0.194E-04
   2.122  0.172E+00  0.172E+00  0.182E-04  0.182E-04
   2.132  0.158E+00  0.157E+00  0.167E-04  0.167E-04
   2.142  0.141E+00  0.141E+00  0.150E-04  0.150E-04
   2.152  0.125E+00  0.125E+00  0.132E-04  0.132E-04
   2.162  0.109E+00  0.109E+00  0.116E-04  0.116E-04
   2.172  0.968E-01  0.968E-01  0.103E-04  0.103E-04
   2.182  0.874E-01  0.874E-01  0.938E-05  0.938E-05
   2.192  0.816E-01  0.816E-01  0.888E-05  0.888E-05
   2.202  0.793E-01  0.793E-01  0.879E-05  0.879E-05
   2.212  0.803E-01  0.803E-01  0.907E-05  0.907E-05
   2.222  0.843E-01  0.842E-01  0.966E-05  0.966E-05
   2.232  0.907E-01  0.907E-01  0.105E-04  0.105E-04
   2.242  0.994E-01  0.993E-01  0.116E-04  0.116E-04
   2.252  0.110E+00  0.110E+00  0.128E-04  0.128E-04
   2.262  0.122E+00  0.122E+00  0.142E-04  0.142E-04
   2.272  0.134E+00  0.134E+00  0.157E-04  0.157E-04
   2.282  0.146E+00  0.146E+00  0.171E-04  0.171E-04
   2.292  0.156E+00  0.156E+00  0.184E-04  0.184E-04
   2.302  0.164E+00  0.164E+00  0.194E-04  0.194E-04
   2.312  0.169E+00  0.169E+00  0.200E-04  0.200E-04
   2.322  0.169E+00  0.169E+00  0.202E-04  0.202E-04
   2.332  0.166E+00  0.166E+00  0.199E-04  0.199E-04
   2.342  0.161E+00  0.161E+00  0.192E-04  0.192E-04
   2.352  0.153E+00  0.153E+00  0.182E-04  0.182E-04
   2.362  0.145E+00  0.145E+00  0.172E-04  0.172E-04
   2.372  0.139E+00  0.139E+00  0.163E-04  0.163E-04
   2.382  0.134E+00  0.134E+00  0.157E-04  0.157E-04
   2.392  0.132E+00  0.132E+00  0.153E-04  0.153E-04
   2.402  0.131E+00  0.131E+00  0.152E-04  0.152E-04
   2.412  0.132E+00  0.132E+00  0.152E-04  0.152E-04
   2.422  0.133E+00  0.133E+00  0.155E-04  0.155E-04
   2.432  0.133E+00  0.133E+00  0.157E-04  0.157E-04
   2.442  0.133E+00  0.133E+00  0.160E-04  0.160E-04
   2.452  0.132E+00  0.132E+00  0.163E-04  0.163E-04
   2.462  0.130E+00  0.130E+00  0.166E-04  0.166E-04
   2.472  0.129E+00  0.129E+00  0.169E-04  0.169E-04
   2.482  0.127E+00  0.127E+00  0.173E-04  0.173E-04
   2.492  0.125E+00  0.125E+00  0.179E-04  0.179E-04
   2.502  0.122E+00  0.122E+00  0.187E-04  0.187E-04
   2.512  0.119E+00  0.119E+00  0.198E-04  0.198E-04
   2.522  0.114E+00  0.114E+00  0.216E-04  0.216E-04
   2.532  0.108E+00  0.108E+00  0.244E-04  0.244E-04
   2.542  0.101E+00  0.101E+00  0.285E-04  0.285E-04
   2.552  0.942E-01  0.942E-01  0.347E-04  0.347E-04
   2.562  0.881E-01  0.881E-01  0.434E-04  0.434E-04
   2.572  0.838E-01  0.837E-01  0.550E-04  0.550E-04
   2.582  0.819E-01  0.818E-01  0.697E-04  0.697E-04
   2.592  0.829E-01  0.827E-01  0.878E-04  0.878E-04
   2.602  0.867E-01  0.865E-01  0.109E-03  0.109E-03
   2.612  0.931E-01  0.929E-01  0.132E-03  0.132E-03
   2.622  0.102E+00  0.101E+00  0.158E-03  0.158E-03
   2.632  0.112E+00  0.111E+00  0.185E-03  0.185E-03
   2.642  0.122E+00  0.122E+00  0.213E-03  0.213E-03
   2.652  0.134E+00  0.133E+00  0.242E-03  0.242E-03
   2.662  0.145E+00  0.145E+00  0.269E-03  0.269E-03
   2.672  0.156E+00  0.155E+00  0.296E-03  0.296E-03
   2.682  0.165E+00  0.164E+00  0.322E-03  0.322E-03
   2.692  0.172E+00  0.171E+00  0.347E-03  0.347E-03
   2.702  0.176E+00  0.175E+00  0.371E-03  0.371E-03
   2.712  0.176E+00  0.176E+00  0.393E-03  0.393E-03
   2.722  0.173E+00  0.172E+00  0.414E-03  0.414E-03
   2.732  0.166E+00  0.166E+00  0.433E-03  0.433E-03
   2.742  0.156E+00  0.156E+00  0.452E-03  0.452E-03
   2.752  0.144E+00  0.143E+00  0.469E-03  0.469E-03
   2.762  0.130E+00  0.129E+00  0.485E-03  0.485E-03
   2.772  0.115E+00  0.114E+00  0.501E-03  0.501E-03
   2.782  0.101E+00  0.100E+00  0.516E-03  0.516E-03
   2.792  0.889E-01  0.878E-01  0.533E-03  0.533E-03
   2.802  0.794E-01  0.783E-01  0.549E-03  0.549E-03
   2.812  0.734E-01  0.723E-01  0.566E-03  0.566E-03
   2.822  0.715E-01  0.703E-01  0.582E-03  0.582E-03
   2.832  0.734E-01  0.722E-01  0.598E-03  0.598E-03
   2.842  0.787E-01  0.775E-01  0.612E-03  0.612E-03
   2.852  0.864E-01  0.851E-01  0.626E-03  0.626E-03
   2.862  0.953E-01  0.940E-01  0.641E-03  0.641E-03
   2.872  0.104E+00  0.103E+00  0.657E-03  0.657E-03
   2.882  0.112E+00  0.111E+00  0.675E-03  0.675E-03
   2.892  0.118E+00  0.116E+00  0.694E-03  0.694E-03
   2.902  0.121E+00  0.119E+00  0.712E-03  0.712E-03
   2.912  0.122E+00  0.120E+00  0.728E-03  0.728E-03
   2.922  0.120E+00  0.118E+00  0.740E-03  0.740E-03
   2.932  0.117E+00  0.115E+00  0.748E-03  0.748E-03
   2.942  0.113E+00  0.111E+00  0.752E-03  0.752E-03
   2.952  0.109E+00  0.107E+00  0.757E-03  0.757E-03
   2.962  0.106E+00  0.104E+00  0.764E-03  0.764E-03
   2.972  0.104E+00  0.103E+00  0.778E-03  0.778E-03
   2.982  0.104E+00  0.103E+00  0.799E-03  0.799E-03
   2.992  0.107E+00  0.105E+00  0.826E-03  0.826E-03
   3.002  0.111E+00  0.109E+00  0.855E-03  0.855E-03
   3.012  0.117E+00  0.115E+00  0.882E-03  0.882E-03
   3.022  0.124E+00  0.122E+00  0.902E-03  0.902E-03
   3.032  0.132E+00  0.130E+00  0.913E-03  0.913E-03
   3.042  0.140E+00  0.138E+00  0.916E-03  0.916E-03
   3.052  0.146E+00  0.144E+00  0.915E-03  0.915E-03
   3.062  0.151E+00  0.149E+00  0.915E-03  0.915E-03
   3.072  0.153E+00  0.151E+00  0.923E-03  0.923E-03
   3.082  0.152E+00  0.150E+00  0.942E-03  0.942E-03
   3.092  0.148E+00  0.146E+00  0.974E-03  0.974E-03
   3.102  0.141E+00  0.139E+00  0.101E-02  0.101E-02
   3.112  0.132E+00  0.130E+00  0.106E-02  0.106E-02
   3.122  0.123E+00  0.121E+00  0.110E-02  0.110E-02
   3.132  0.114E+00  0.112E+00  0.112E-02  0.112E-02
   3.142  0.106E+00  0.104E+00  0.113E-02  0.113E-02
   3.152  0.996E-01  0.974E-01  0.113E-02  0.113E-02
   3.162  0.943E-01  0.921E-01  0.111E-02  0.111E-02
   3.172  0.896E-01  0.875E-01  0.108E-02  0.108E-02
   3.182  0.851E-01  0.830E-01  0.106E-02  0.106E-02
   3.192  0.807E-01  0.786E-01  0.105E-02  0.105E-02
   3.202  0.765E-01  0.744E-01  0.107E-02  0.107E-02
   3.212  0.734E-01  0.712E-01  0.110E-02  0.110E-02
   3.222  0.722E-01  0.699E-01  0.115E-02  0.115E-02
   3.232  0.736E-01  0.712E-01  0.121E-02  0.121E-02
   3.242  0.778E-01  0.753E-01  0.126E-02  0.126E-02
   3.252  0.846E-01  0.820E-01  0.131E-02  0.131E-02
   3.262  0.929E-01  0.902E-01  0.133E-02  0.133E-02
   3.272  0.101E+00  0.988E-01  0.133E-02  0.133E-02
   3.282  0.109E+00  0.106E+00  0.131E-02  0.131E-02
   3.292  0.115E+00  0.112E+00  0.127E-02  0.127E-02
   3.302  0.118E+00  0.116E+00  0.123E-02  0.123E-02
   3.312  0.119E+00  0.117E+00  0.119E-02  0.119E-02
   3.322  0.119E+00  0.117E+00  0.116E-02  0.116E-02
   3.332  0.119E+00  0.116E+00  0.117E-02  0.117E-02
   3.342  0.119E+00  0.116E+00  0.119E-02  0.119E-02
   3.352  0.120E+00  0.117E+00  0.124E-02  0.124E-02
   3.362  0.123E+00  0.120E+00  0.131E-02  0.131E-02
   3.372  0.127E+00  0.124E+00  0.138E-02  0.138E-02
   3.382  0.132E+00  0.129E+00  0.145E-02  0.145E-02
   3.392  0.137E+00  0.134E+00  0.150E-02  0.150E-02
   3.402  0.142E+00  0.139E+00  0.152E-02  0.152E-02
   3.412  0.144E+00  0.141E+00  0.152E-02  0.152E-02
   3.422  0.144E+00  0.141E+00  0.148E-02  0.148E-02
   3.432  0.141E+00  0.138E+00  0.143E-02  0.143E-02
   3.442  0.135E+00  0.132E+00  0.136E-02  0.136E-02
   3.452  0.126E+00  0.123E+00  0.130E-02  0.130E-02
   3.462  0.116E+00  0.113E+00  0.125E-02  0.125E-02
   3.472  0.104E+00  0.102E+00  0.122E-02  0.122E-02
   3.482  0.933E-01  0.909E-01  0.122E-02  0.122E-02
   3.492  0.838E-01  0.813E-01  0.125E-02  0.125E-02
   3.502  0.765E-01  0.739E-01  0.131E-02  0.131E-02
   3.512  0.720E-01  0.693E-01  0.139E-02  0.139E-02
   3.522  0.706E-01  0.677E-01  0.148E-02  0.148E-02
   3.532  0.720E-01  0.689E-01  0.157E-02  0.157E-02
   3.542  0.756E-01  0.723E-01  0.164E-02  0.164E-02
   3.552  0.807E-01  0.773E-01  0.168E-02  0.168E-02
   3.562  0.862E-01  0.829E-01  0.169E-02  0.169E-02
   3.572  0.913E-01  0.880E-01  0.165E-02  0.165E-02
   3.582  0.950E-01  0.919E-01  0.157E-02  0.157E-02
   3.592  0.971E-01  0.942E-01  0.148E-02  0.148E-02
   3.602  0.975E-01  0.947E-01  0.138E-02  0.138E-02
   3.612  0.965E-01  0.939E-01  0.129E-02  0.129E-02
   3.622  0.950E-01  0.925E-01  0.123E-02  0.123E-02
   3.632  0.938E-01  0.914E-01  0.122E-02  0.122E-02
   3.642  0.938E-01  0.913E-01  0.124E-02  0.124E-02
   3.652  0.955E-01  0.929E-01  0.130E-02  0.130E-02
   3.662  0.991E-01  0.963E-01  0.139E-02  0.139E-02
   3.672  0.104E+00  0.101E+00  0.150E-02  0.150E-02
   3.682  0.111E+00  0.108E+00  0.160E-02  0.160E-02
   3.692  0.117E+00  0.114E+00  0.168E-02  0.168E-02
   3.702  0.123E+00  0.120E+00  0.175E-02  0.175E-02
   3.712  0.127E+00  0.124E+00  0.177E-02  0.177E-02
   3.722  0.130E+00  0.126E+00  0.177E-02  0.177E-02
   3.732  0.130E+00  0.127E+00  0.173E-02  0.173E-02
   3.742  0.128E+00  0.125E+00  0.166E-02  0.166E-02
   3.752  0.125E+00  0.122E+00  0.158E-02  0.158E-02
   3.762  0.120E+00  0.117E+00  0.149E-02  0.149E-02
   3.772  0.116E+00  0.113E+00  0.141E-02  0.141E-02
   3.782  0.112E+00  0.109E+00  0.134E-02  0.134E-02
   3.792  0.109E+00  0.106E+00  0.129E-02  0.129E-02
   3.802  0.107E+00  0.104E+00  0.128E-02  0.128E-02
   3.812  0.106E+00  0.104E+00  0.129E-02  0.129E-02
   3.822  0.106E+00  0.103E+00  0.134E-02  0.134E-02
   3.832  0.106E+00  0.103E+00  0.141E-02  0.141E-02
   3.842  0.105E+00  0.102E+00  0.149E-02  0.149E-02
   3.852  0.104E+00  0.100E+00  0.158E-02  0.158E-02
   3.862  0.100E+00  0.966E-01  0.166E-02  0.166E-02
   3.872  0.948E-01  0.913E-01  0.173E-02  0.173E-02
   3.882  0.883E-01  0.848E-01  0.177E-02  0.177E-02
   3.892  0.815E-01  0.779E-01  0.178E-02  0.178E-02
   3.902  0.752E-01  0.716E-01  0.176E-02  0.176E-02
   3.912  0.703E-01  0.669E-01  0.172E-02  0.172E-02
   3.922  0.676E-01  0.643E-01  0.166E-02  0.166E-02
   3.932  0.674E-01  0.642E-01  0.160E-02  0.160E-02
   3.942  0.694E-01  0.663E-01  0.155E-02  0.155E-02
   3.952  0.731E-01  0.701E-01  0.150E-02  0.150E-02
   3.962  0.776E-01  0.747E-01  0.145E-02  0.145E-02
   3.972  0.823E-01  0.794E-01  0.141E-02  0.141E-02
   3.982  0.863E-01  0.835E-01  0.137E-02  0.137E-02
   3.992  0.893E-01  0.866E-01  0.134E-02  0.134E-02
   4.002  0.914E-01  0.888E-01  0.132E-02  0.132E-02
   4.012  0.929E-01  0.903E-01  0.132E-02  0.132E-02
   4.022  0.944E-01  0.917E-01  0.134E-02  0.134E-02
   4.032  0.966E-01  0.938E-01  0.139E-02  0.139E-02
   4.042  0.100E+00  0.971E-01  0.146E-02  0.146E-02
   4.052  0.105E+00  0.102E+00  0.156E-02  0.156E-02
   4.062  0.112E+00  0.108E+00  0.167E-02  0.167E-02
   4.072  0.119E+00  0.116E+00  0.177E-02  0.177E-02
   4.082  0.127E+00  0.124E+00  0.184E-02  0.184E-02
   4.092  0.135E+00  0.131E+00  0.189E-02  0.189E-02
   4.102  0.141E+00  0.137E+00  0.189E-02  0.189E-02
   4.112  0.144E+00  0.140E+00  0.185E-02  0.185E-02
   4.122  0.144E+00  0.140E+00  0.178E-02  0.178E-02
   4.132  0.141E+00  0.137E+00  0.169E-02  0.169E-02
   4.142  0.134E+00  0.130E+00  0.160E-02  0.160E-02
   4.152  0.123E+00  0.120E+00  0.151E-02  0.151E-02
   4.162  0.110E+00  0.107E+00  0.143E-02  0.143E-02
   4.172  0.958E-01  0.931E-01  0.137E-02  0.137E-02
   4.182  0.812E-01  0.786E-01  0.132E-02  0.132E-02
   4.192  0.681E-01  0.655E-01  0.129E-02  0.129E-02
   4.202  0.577E-01  0.551E-01  0.127E-02  0.127E-02
   4.212  0.512E-01  0.486E-01  0.128E-02  0.128E-02
   4.222  0.491E-01  0.465E-01  0.130E-02  0.130E-02
   4.232  0.514E-01  0.488E-01  0.134E-02  0.134E-02
   4.242  0.574E-01  0.546E-01  0.142E-02  0.142E-02
   4.252  0.659E-01  0.629E-01  0.152E-02  0.152E-02
   4.262  0.753E-01  0.721E-01  0.164E-02  0.164E-02
   4.272  0.843E-01  0.808E-01  0.176E-02  0.176E-02
   4.282  0.917E-01  0.880E-01  0.188E-02  0.188E-02
   4.292  0.968E-01  0.928E-01  0.197E-02  0.197E-02
   4.302  0.993E-01  0.952E-01  0.202E-02  0.202E-02
   4.312  0.995E-01  0.955E-01  0.202E-02  0.202E-02
   4.322  0.980E-01  0.941E-01  0.197E-02  0.197E-02
   4.332  0.956E-01  0.919E-01  0.187E-02  0.187E-02
   4.342  0.930E-01  0.895E-01  0.175E-02  0.175E-02
   4.352  0.909E-01  0.877E-01  0.160E-02  0.160E-02
   4.362  0.896E-01  0.867E-01  0.146E-02  0.146E-02
   4.372  0.894E-01  0.868E-01  0.133E-02  0.133E-02
   4.382  0.904E-01  0.879E-01  0.123E-02  0.123E-02
   4.392  0.921E-01  0.898E-01  0.116E-02  0.116E-02
   4.402  0.944E-01  0.921E-01  0.114E-02  0.114E-02
   4.412  0.967E-01  0.944E-01  0.115E-02  0.115E-02
   4.422  0.986E-01  0.962E-01  0.119E-02  0.119E-02
   4.432  0.999E-01  0.974E-01  0.126E-02  0.126E-02
   4.442  0.100E+00  0.978E-01  0.135E-02  0.135E-02
   4.452  0.101E+00  0.977E-01  0.146E-02  0.146E-02
   4.462  0.101E+00  0.975E-01  0.158E-02  0.158E-02
   4.472  0.101E+00  0.977E-01  0.170E-02  0.170E-02
   4.482  0.102E+00  0.987E-01  0.182E-02  0.182E-02
   4.492  0.105E+00  0.101E+00  0.191E-02  0.191E-02
   4.502  0.108E+00  0.104E+00  0.198E-02  0.198E-02
   4.512  0.111E+00  0.107E+00  0.201E-02  0.201E-02
   4.522  0.115E+00  0.111E+00  0.200E-02  0.200E-02
   4.532  0.117E+00  0.113E+00  0.195E-02  0.195E-02
   4.542  0.118E+00  0.114E+00  0.187E-02  0.187E-02
   4.552  0.116E+00  0.113E+00  0.176E-02  0.176E-02
   4.562  0.112E+00  0.109E+00  0.164E-02  0.164E-02
   4.572  0.105E+00  0.102E+00  0.152E-02  0.152E-02
   4.582  0.956E-01  0.927E-01  0.141E-02  0.141E-02
   4.592  0.845E-01  0.819E-01  0.130E-02  0.130E-02
   4.602  0.727E-01  0.703E-01  0.121E-02  0.121E-02
   4.612  0.614E-01  0.591E-01  0.114E-02  0.114E-02
   4.622  0.518E-01  0.496E-01  0.109E-02  0.109E-02
   4.632  0.449E-01  0.428E-01  0.107E-02  0.107E-02
   4.642  0.416E-01  0.394E-01  0.108E-02  0.108E-02
   4.652  0.419E-01  0.396E-01  0.113E-02  0.113E-02
   4.662  0.457E-01  0.432E-01  0.122E-02  0.122E-02
   4.672  0.521E-01  0.495E-01  0.134E-02  0.134E-02
   4.682  0.603E-01  0.574E-01  0.148E-02  0.148E-02
   4.692  0.692E-01  0.659E-01  0.163E-02  0.163E-02
   4.702  0.777E-01  0.741E-01  0.178E-02  0.178E-02
   4.712  0.852E-01  0.814E-01  0.190E-02  0.190E-02
   4.722  0.915E-01  0.875E-01  0.199E-02  0.199E-02
   4.732  0.966E-01  0.926E-01  0.203E-02  0.203E-02
   4.742  0.101E+00  0.969E-01  0.202E-02  0.202E-02
   4.752  0.105E+00  0.101E+00  0.196E-02  0.196E-02
   4.762  0.108E+00  0.105E+00  0.186E-02  0.186E-02
   4.772  0.112E+00  0.108E+00  0.173E-02  0.173E-02
   4.782  0.115E+00  0.112E+00  0.158E-02  0.158E-02
   4.792  0.119E+00  0.116E+00  0.145E-02  0.145E-02
   4.802  0.121E+00  0.118E+00  0.133E-02  0.133E-02
   4.812  0.122E+00  0.120E+00  0.124E-02  0.124E-02
   4.822  0.122E+00  0.119E+00  0.119E-02  0.119E-02
   4.832  0.119E+00  0.117E+00  0.116E-02  0.116E-02
   4.842  0.114E+00  0.112E+00  0.115E-02  0.115E-02
   4.852  0.107E+00  0.105E+00  0.115E-02  0.115E-02
   4.862  0.989E-01  0.966E-01  0.116E-02  0.116E-02
   4.872  0.895E-01  0.871E-01  0.117E-02  0.117E-02
   4.882  0.800E-01  0.776E-01  0.119E-02  0.119E-02
   4.892  0.714E-01  0.689E-01  0.122E-02  0.122E-02
   4.902  0.646E-01  0.621E-01  0.126E-02  0.126E-02
   4.912  0.605E-01  0.578E-01  0.133E-02  0.133E-02
   4.922  0.592E-01  0.563E-01  0.142E-02  0.142E-02
   4.932  0.608E-01  0.577E-01  0.153E-02  0.153E-02
   4.942  0.649E-01  0.616E-01  0.164E-02  0.164E-02
   4.952  0.707E-01  0.672E-01  0.175E-02  0.175E-02
   4.962  0.774E-01  0.738E-01  0.183E-02  0.183E-02
   4.972  0.840E-01  0.802E-01  0.188E-02  0.188E-02
   4.982  0.895E-01  0.857E-01  0.189E-02  0.189E-02
   4.992  0.932E-01  0.895E-01  0.185E-02  0.185E-02
   5.002  0.948E-01  0.912E-01  0.178E-02  0.178E-02
   5.012  0.940E-01  0.906E-01  0.167E-02  0.167E-02
   5.022  0.909E-01  0.879E-01  0.154E-02  0.154E-02
   5.032  0.861E-01  0.833E-01  0.141E-02  0.141E-02
   5.042  0.800E-01  0.775E-01  0.128E-02  0.128E-02
   5.052  0.736E-01  0.712E-01  0.117E-02  0.117E-02
   5.062  0.675E-01  0.654E-01  0.109E-02  0.109E-02
   5.072  0.628E-01  0.607E-01  0.104E-02  0.104E-02
   5.082  0.601E-01  0.580E-01  0.101E-02  0.101E-02
   5.092  0.598E-01  0.578E-01  0.102E-02  0.102E-02
   5.102  0.623E-01  0.602E-01  0.106E-02  0.106E-02
   5.112  0.672E-01  0.650E-01  0.111E-02  0.111E-02
   5.122  0.740E-01  0.717E-01  0.116E-02  0.116E-02
   5.132  0.820E-01  0.795E-01  0.122E-02  0.122E-02
   5.142  0.902E-01  0.877E-01  0.127E-02  0.127E-02
   5.152  0.979E-01  0.953E-01  0.132E-02  0.132E-02
   5.162  0.104E+00  0.102E+00  0.135E-02  0.135E-02
   5.172  0.110E+00  0.107E+00  0.138E-02  0.138E-02
   5.182  0.113E+00  0.110E+00  0.142E-02  0.142E-02
   5.192  0.115E+00  0.113E+00  0.146E-02  0.146E-02
   5.202  0.116E+00  0.113E+00  0.150E-02  0.150E-02
   5.212  0.116E+00  0.113E+00  0.154E-02  0.154E-02
   5.222  0.115E+00  0.112E+00  0.158E-02  0.158E-02
   5.232  0.113E+00  0.110E+00  0.161E-02  0.161E-02
   5.242  0.110E+00  0.107E+00  0.162E-02  0.162E-02
   5.252  0.106E+00  0.103E+00  0.160E-02  0.160E-02
   5.262  0.101E+00  0.977E-01  0.155E-02  0.155E-02
   5.272  0.943E-01  0.913E-01  0.149E-02  0.149E-02
   5.282  0.870E-01  0.841E-01  0.141E-02  0.141E-02
   5.292  0.791E-01  0.764E-01  0.134E-02  0.134E-02
   5.302  0.713E-01  0.688E-01  0.127E-02  0.127E-02
   5.312  0.643E-01  0.619E-01  0.121E-02  0.121E-02
   5.322  0.588E-01  0.565E-01  0.118E-02  0.118E-02
   5.332  0.555E-01  0.532E-01  0.117E-02  0.117E-02
   5.342  0.548E-01  0.525E-01  0.118E-02  0.118E-02
   5.352  0.567E-01  0.543E-01  0.122E-02  0.122E-02
   5.362  0.606E-01  0.581E-01  0.126E-02  0.126E-02
   5.372  0.657E-01  0.630E-01  0.131E-02  0.131E-02
   5.382  0.708E-01  0.681E-01  0.136E-02  0.136E-02
   5.392  0.749E-01  0.721E-01  0.140E-02  0.140E-02
   5.402  0.773E-01  0.745E-01  0.142E-02  0.142E-02
   5.412  0.777E-01  0.748E-01  0.143E-02  0.143E-02
   5.422  0.761E-01  0.733E-01  0.142E-02  0.142E-02
   5.432  0.732E-01  0.705E-01  0.139E-02  0.139E-02
   5.442  0.698E-01  0.671E-01  0.135E-02  0.135E-02
   5.452  0.666E-01  0.640E-01  0.131E-02  0.131E-02
   5.462  0.643E-01  0.617E-01  0.127E-02  0.127E-02
   5.472  0.632E-01  0.607E-01  0.124E-02  0.124E-02
   5.482  0.633E-01  0.609E-01  0.121E-02  0.121E-02
   5.492  0.647E-01  0.623E-01  0.119E-02  0.119E-02
   5.502  0.669E-01  0.646E-01  0.117E-02  0.117E-02
   5.512  0.696E-01  0.673E-01  0.116E-02  0.116E-02
   5.522  0.724E-01  0.702E-01  0.114E-02  0.114E-02
   5.532  0.749E-01  0.726E-01  0.112E-02  0.112E-02
   5.542  0.764E-01  0.742E-01  0.109E-02  0.109E-02
   5.552  0.767E-01  0.745E-01  0.106E-02  0.106E-02
   5.562  0.753E-01  0.732E-01  0.103E-02  0.103E-02
   5.572  0.722E-01  0.702E-01  0.101E-02  0.101E-02
   5.582  0.677E-01  0.657E-01  0.989E-03  0.989E-03
   5.592  0.623E-01  0.603E-01  0.975E-03  0.975E-03
   5.602  0.568E-01  0.548E-01  0.966E-03  0.966E-03
   5.612  0.522E-01  0.503E-01  0.961E-03  0.961E-03
   5.622  0.494E-01  0.475E-01  0.957E-03  0.957E-03
   5.632  0.490E-01  0.471E-01  0.953E-03  0.953E-03
   5.642  0.511E-01  0.492E-01  0.948E-03  0.948E-03
   5.652  0.555E-01  0.536E-01  0.943E-03  0.943E-03
   5.662  0.614E-01  0.595E-01  0.940E-03  0.940E-03
   5.672  0.677E-01  0.658E-01  0.942E-03  0.942E-03
   5.682  0.734E-01  0.715E-01  0.955E-03  0.955E-03
   5.692  0.775E-01  0.755E-01  0.983E-03  0.983E-03
   5.702  0.794E-01  0.773E-01  0.103E-02  0.103E-02
   5.712  0.789E-01  0.767E-01  0.110E-02  0.110E-02
   5.722  0.762E-01  0.739E-01  0.118E-02  0.118E-02
   5.732  0.721E-01  0.696E-01  0.127E-02  0.127E-02
   5.742  0.675E-01  0.648E-01  0.136E-02  0.136E-02
   5.752  0.634E-01  0.606E-01  0.144E-02  0.144E-02
   5.762  0.608E-01  0.578E-01  0.150E-02  0.150E-02
   5.772  0.603E-01  0.573E-01  0.153E-02  0.153E-02
   5.782  0.622E-01  0.591E-01  0.153E-02  0.153E-02
   5.792  0.663E-01  0.633E-01  0.150E-02  0.150E-02
   5.802  0.720E-01  0.691E-01  0.144E-02  0.144E-02
   5.812  0.785E-01  0.757E-01  0.138E-02  0.138E-02
   5.822  0.847E-01  0.821E-01  0.130E-02  0.130E-02
   5.832  0.898E-01  0.873E-01  0.123E-02  0.123E-02
   5.842  0.931E-01  0.907E-01  0.117E-02  0.117E-02
   5.852  0.945E-01  0.922E-01  0.112E-02  0.112E-02
   5.862  0.942E-01  0.920E-01  0.109E-02  0.109E-02
   5.872  0.930E-01  0.908E-01  0.107E-02  0.107E-02
   5.882  0.916E-01  0.894E-01  0.106E-02  0.106E-02
   5.892  0.908E-01  0.887E-01  0.106E-02  0.106E-02
   5.902  0.913E-01  0.892E-01  0.107E-02  0.107E-02
   5.912  0.932E-01  0.910E-01  0.108E-02  0.108E-02
   5.922  0.961E-01  0.939E-01  0.110E-02  0.110E-02
   5.932  0.994E-01  0.972E-01  0.111E-02  0.111E-02
   5.942  0.102E+00  0.100E+00  0.111E-02  0.111E-02
   5.952  0.104E+00  0.102E+00  0.110E-02  0.110E-02
   5.962  0.104E+00  0.102E+00  0.108E-02  0.108E-02
   5.972  0.102E+00  0.100E+00  0.105E-02  0.105E-02
   5.982  0.986E-01  0.965E-01  0.102E-02  0.102E-02
   5.992  0.938E-01  0.918E-01  0.100E-02  0.100E-02
   6.002  0.883E-01  0.863E-01  0.989E-03  0.989E-03
   6.012  0.826E-01  0.806E-01  0.993E-03  0.993E-03
   6.022  0.773E-01  0.753E-01  0.102E-02  0.102E-02
   6.032  0.725E-01  0.704E-01  0.106E-02  0.106E-02
   6.042  0.685E-01  0.663E-01  0.112E-02  0.112E-02
   6.052  0.654E-01  0.630E-01  0.119E-02  0.119E-02
   6.062  0.631E-01  0.606E-01  0.126E-02  0.126E-02
   6.072  0.619E-01  0.592E-01  0.131E-02  0.131E-02
   6.082  0.615E-01  0.588E-01  0.135E-02  0.135E-02
   6.092  0.618E-01  0.591E-01  0.135E-02  0.135E-02
   6.102  0.625E-01  0.599E-01  0.132E-02  0.132E-02
   6.112  0.631E-01  0.606E-01  0.126E-02  0.126E-02
   6.122  0.633E-01  0.610E-01  0.119E-02  0.119E-02
   6.132  0.629E-01  0.607E-01  0.110E-02  0.110E-02
   6.142  0.619E-01  0.598E-01  0.103E-02  0.103E-02
   6.152  0.607E-01  0.587E-01  0.963E-03  0.963E-03
   6.162  0.597E-01  0.579E-01  0.923E-03  0.923E-03
   6.172  0.597E-01  0.579E-01  0.907E-03  0.907E-03
   6.182  0.610E-01  0.592E-01  0.912E-03  0.912E-03
   6.192  0.639E-01  0.621E-01  0.931E-03  0.931E-03
   6.202  0.683E-01  0.664E-01  0.956E-03  0.956E-03
   6.212  0.738E-01  0.718E-01  0.977E-03  0.977E-03
   6.222  0.797E-01  0.777E-01  0.990E-03  0.990E-03
   6.232  0.854E-01  0.834E-01  0.990E-03  0.990E-03
   6.242  0.903E-01  0.883E-01  0.978E-03  0.978E-03
   6.252  0.938E-01  0.918E-01  0.957E-03  0.957E-03
   6.262  0.956E-01  0.937E-01  0.932E-03  0.932E-03
   6.272  0.957E-01  0.939E-01  0.908E-03  0.908E-03
   6.282  0.941E-01  0.924E-01  0.890E-03  0.890E-03
   6.292  0.912E-01  0.895E-01  0.881E-03  0.881E-03
   6.302  0.874E-01  0.856E-01  0.881E-03  0.881E-03
   6.312  0.831E-01  0.813E-01  0.890E-03  0.890E-03
   6.322  0.791E-01  0.773E-01  0.906E-03  0.906E-03
   6.332  0.758E-01  0.740E-01  0.927E-03  0.927E-03
   6.342  0.736E-01  0.717E-01  0.950E-03  0.950E-03
   6.352  0.728E-01  0.708E-01  0.973E-03  0.973E-03
   6.362  0.730E-01  0.710E-01  0.995E-03  0.995E-03
   6.372  0.741E-01  0.721E-01  0.101E-02  0.101E-02
   6.382  0.754E-01  0.734E-01  0.103E-02  0.103E-02
   6.392  0.764E-01  0.743E-01  0.104E-02  0.104E-02
   6.402  0.764E-01  0.743E-01  0.105E-02  0.105E-02
   6.412  0.750E-01  0.729E-01  0.105E-02  0.105E-02
   6.422  0.722E-01  0.701E-01  0.103E-02  0.103E-02
   6.432  0.682E-01  0.661E-01  0.101E-02  0.101E-02
   6.442  0.634E-01  0.614E-01  0.983E-03  0.983E-03
   6.452  0.586E-01  0.567E-01  0.948E-03  0.948E-03
   6.462  0.546E-01  0.528E-01  0.912E-03  0.912E-03
   6.472  0.520E-01  0.503E-01  0.878E-03  0.878E-03
   6.482  0.512E-01  0.495E-01  0.851E-03  0.851E-03
   6.492  0.523E-01  0.506E-01  0.833E-03  0.833E-03
   6.502  0.549E-01  0.533E-01  0.824E-03  0.824E-03
   6.512  0.585E-01  0.568E-01  0.822E-03  0.822E-03
   6.522  0.623E-01  0.606E-01  0.823E-03  0.823E-03
   6.532  0.656E-01  0.639E-01  0.823E-03  0.823E-03
   6.542  0.679E-01  0.662E-01  0.817E-03  0.817E-03
   6.552  0.689E-01  0.673E-01  0.804E-03  0.804E-03
   6.562  0.689E-01  0.673E-01  0.782E-03  0.782E-03
   6.572  0.682E-01  0.667E-01  0.752E-03  0.752E-03
   6.582  0.675E-01  0.661E-01  0.716E-03  0.716E-03
   6.592  0.675E-01  0.661E-01  0.680E-03  0.680E-03
   6.602  0.685E-01  0.672E-01  0.648E-03  0.648E-03
   6.612  0.709E-01  0.697E-01  0.625E-03  0.625E-03
   6.622  0.746E-01  0.734E-01  0.619E-03  0.619E-03
   6.632  0.792E-01  0.779E-01  0.632E-03  0.632E-03
   6.642  0.840E-01  0.826E-01  0.669E-03  0.669E-03
   6.652  0.883E-01  0.868E-01  0.731E-03  0.731E-03
   6.662  0.914E-01  0.898E-01  0.820E-03  0.820E-03
   6.672  0.928E-01  0.909E-01  0.939E-03  0.939E-03
   6.682  0.922E-01  0.900E-01  0.110E-02  0.110E-02
   6.692  0.896E-01  0.870E-01  0.131E-02  0.131E-02
   6.702  0.856E-01  0.824E-01  0.159E-02  0.159E-02
   6.712  0.808E-01  0.768E-01  0.197E-02  0.197E-02
   6.722  0.761E-01  0.711E-01  0.249E-02  0.249E-02
   6.732  0.725E-01  0.661E-01  0.318E-02  0.318E-02
   6.742  0.706E-01  0.625E-01  0.406E-02  0.406E-02
   6.752  0.710E-01  0.608E-01  0.513E-02  0.513E-02
   6.762  0.737E-01  0.609E-01  0.636E-02  0.636E-02
   6.772  0.782E-01  0.627E-01  0.771E-02  0.771E-02
   6.782  0.837E-01  0.655E-01  0.910E-02  0.910E-02
   6.792  0.893E-01  0.684E-01  0.104E-01  0.104E-01
   6.802  0.939E-01  0.706E-01  0.117E-01  0.117E-01
   6.812  0.966E-01  0.712E-01  0.127E-01  0.127E-01
   6.822  0.969E-01  0.700E-01  0.135E-01  0.135E-01
   6.832  0.948E-01  0.668E-01  0.140E-01  0.140E-01
   6.842  0.909E-01  0.621E-01  0.144E-01  0.144E-01
   6.852  0.859E-01  0.565E-01  0.147E-01  0.147E-01
   6.862  0.809E-01  0.510E-01  0.150E-01  0.150E-01
   6.872  0.770E-01  0.465E-01  0.152E-01  0.152E-01
   6.882  0.747E-01  0.437E-01  0.155E-01  0.155E-01
   6.892  0.744E-01  0.429E-01  0.157E-01  0.157E-01
   6.902  0.761E-01  0.442E-01  0.159E-01  0.159E-01
   6.912  0.791E-01  0.470E-01  0.160E-01  0.160E-01
   6.922  0.830E-01  0.510E-01  0.160E-01  0.160E-01
   6.932  0.870E-01  0.553E-01  0.159E-01  0.159E-01
   6.942  0.909E-01  0.595E-01  0.157E-01  0.157E-01
   6.952  0.943E-01  0.631E-01  0.156E-01  0.156E-01
   6.962  0.975E-01  0.658E-01  0.158E-01  0.158E-01
   6.972  0.101E+00  0.678E-01  0.165E-01  0.165E-01
   6.982  0.104E+00  0.691E-01  0.176E-01  0.176E-01
   6.992  0.108E+00  0.700E-01  0.192E-01  0.192E-01
   7.002  0.113E+00  0.705E-01  0.213E-01  0.213E-01
   7.012  0.118E+00  0.708E-01  0.237E-01  0.237E-01
   7.022  0.123E+00  0.709E-01  0.261E-01  0.261E-01
   7.032  0.128E+00  0.708E-01  0.284E-01  0.284E-01
   7.042  0.131E+00  0.707E-01  0.303E-01  0.303E-01
   7.052  0.134E+00  0.707E-01  0.318E-01  0.318E-01
   7.062  0.136E+00  0.709E-01  0.328E-01  0.328E-01
   7.072  0.138E+00  0.715E-01  0.333E-01  0.333E-01
   7.082  0.140E+00  0.726E-01  0.335E-01  0.335E-01
   7.092  0.141E+00  0.741E-01  0.335E-01  0.335E-01
   7.102  0.143E+00  0.758E-01  0.334E-01  0.334E-01
   7.112  0.144E+00  0.773E-01  0.332E-01  0.332E-01
   7.122  0.144E+00  0.783E-01  0.330E-01  0.330E-01
   7.132  0.144E+00  0.783E-01  0.326E-01  0.326E-01
   7.142  0.141E+00  0.771E-01  0.321E-01  0.321E-01
   7.152  0.138E+00  0.746E-01  0.315E-01  0.315E-01
   7.162  0.132E+00  0.708E-01  0.308E-01  0.308E-01
   7.172  0.126E+00  0.660E-01  0.301E-01  0.301E-01
   7.182  0.120E+00  0.605E-01  0.296E-01  0.296E-01
   7.192  0.114E+00  0.547E-01  0.294E-01  0.294E-01
   7.202  0.108E+00  0.488E-01  0.298E-01  0.298E-01
   7.212  0.105E+00  0.432E-01  0.307E-01  0.307E-01
   7.222  0.103E+00  0.381E-01  0.323E-01  0.323E-01
   7.232  0.102E+00  0.337E-01  0.343E-01  0.343E-01
   7.242  0.103E+00  0.300E-01  0.366E-01  0.366E-01
   7.252  0.105E+00  0.271E-01  0.391E-01  0.391E-01
   7.262  0.108E+00  0.250E-01  0.415E-01  0.415E-01
   7.272  0.111E+00  0.237E-01  0.436E-01  0.436E-01
   7.282  0.114E+00  0.232E-01  0.452E-01  0.452E-01
   7.292  0.117E+00  0.238E-01  0.464E-01  0.464E-01
   7.302  0.120E+00  0.257E-01  0.470E-01  0.470E-01
   7.312  0.124E+00  0.295E-01  0.471E-01  0.471E-01
   7.322  0.129E+00  0.354E-01  0.469E-01  0.469E-01
   7.332  0.136E+00  0.438E-01  0.462E-01  0.462E-01
   7.342  0.145E+00  0.544E-01  0.452E-01  0.452E-01
   7.352  0.155E+00  0.668E-01  0.439E-01  0.439E-01
   7.362  0.165E+00  0.798E-01  0.424E-01  0.424E-01
   7.372  0.174E+00  0.921E-01  0.407E-01  0.407E-01
   7.382  0.180E+00  0.102E+00  0.391E-01  0.391E-01
   7.392  0.184E+00  0.108E+00  0.376E-01  0.376E-01
   7.402  0.184E+00  0.110E+00  0.366E-01  0.366E-01
   7.412  0.180E+00  0.108E+00  0.363E-01  0.363E-01
   7.422  0.175E+00  0.102E+00  0.368E-01  0.368E-01
   7.432  0.170E+00  0.929E-01  0.384E-01  0.384E-01
   7.442  0.165E+00  0.832E-01  0.408E-01  0.408E-01
   7.452  0.162E+00  0.742E-01  0.441E-01  0.441E-01
   7.462  0.163E+00  0.669E-01  0.478E-01  0.478E-01
   7.472  0.166E+00  0.619E-01  0.518E-01  0.518E-01
   7.482  0.171E+00  0.593E-01  0.557E-01  0.557E-01
   7.492  0.177E+00  0.584E-01  0.591E-01  0.591E-01
   7.502  0.182E+00  0.588E-01  0.617E-01  0.617E-01
   7.512  0.186E+00  0.597E-01  0.634E-01  0.634E-01
   7.522  0.188E+00  0.605E-01  0.639E-01  0.639E-01
   7.532  0.187E+00  0.606E-01  0.633E-01  0.633E-01
   7.542  0.183E+00  0.601E-01  0.617E-01  0.617E-01
   7.552  0.177E+00  0.590E-01  0.591E-01  0.591E-01
   7.562  0.169E+00  0.574E-01  0.558E-01  0.558E-01
   7.572  0.160E+00  0.557E-01  0.520E-01  0.520E-01
   7.582  0.151E+00  0.543E-01  0.482E-01  0.482E-01
   7.592  0.143E+00  0.534E-01  0.447E-01  0.447E-01
   7.602  0.137E+00  0.533E-01  0.418E-01  0.418E-01
   7.612  0.134E+00  0.540E-01  0.398E-01  0.398E-01
   7.622  0.133E+00  0.554E-01  0.389E-01  0.389E-01
   7.632  0.135E+00  0.571E-01  0.392E-01  0.392E-01
   7.642  0.140E+00  0.590E-01  0.405E-01  0.405E-01
   7.652  0.146E+00  0.607E-01  0.427E-01  0.427E-01
   7.662  0.153E+00  0.622E-01  0.455E-01  0.455E-01
   7.672  0.160E+00  0.634E-01  0.485E-01  0.485E-01
   7.682  0.168E+00  0.644E-01  0.516E-01  0.516E-01
   7.692  0.175E+00  0.654E-01  0.546E-01  0.546E-01
   7.702  0.181E+00  0.666E-01  0.574E-01  0.574E-01
   7.712  0.188E+00  0.681E-01  0.600E-01  0.600E-01
   7.722  0.195E+00  0.700E-01  0.626E-01  0.626E-01
   7.732  0.202E+00  0.721E-01  0.651E-01  0.651E-01
   7.742  0.210E+00  0.743E-01  0.677E-01  0.677E-01
   7.752  0.216E+00  0.760E-01  0.702E-01  0.702E-01
   7.762  0.223E+00  0.768E-01  0.729E-01  0.729E-01
   7.772  0.228E+00  0.764E-01  0.757E-01  0.757E-01
   7.782  0.232E+00  0.745E-01  0.788E-01  0.788E-01
   7.792  0.237E+00  0.712E-01  0.827E-01  0.827E-01
   7.802  0.242E+00  0.666E-01  0.877E-01  0.877E-01
   7.812  0.250E+00  0.613E-01  0.945E-01  0.945E-01
   7.822  0.263E+00  0.561E-01  0.103E+00  0.103E+00
   7.832  0.281E+00  0.515E-01  0.115E+00  0.115E+00
   7.842  0.305E+00  0.480E-01  0.129E+00  0.129E+00
   7.852  0.335E+00  0.459E-01  0.144E+00  0.144E+00
   7.862  0.369E+00  0.451E-01  0.162E+00  0.162E+00
   7.872  0.404E+00  0.453E-01  0.180E+00  0.180E+00
   7.882  0.439E+00  0.460E-01  0.196E+00  0.196E+00
   7.892  0.469E+00  0.468E-01  0.211E+00  0.211E+00
   7.902  0.493E+00  0.472E-01  0.223E+00  0.223E+00
   7.912  0.507E+00  0.470E-01  0.230E+00  0.230E+00
   7.922  0.513E+00  0.463E-01  0.233E+00  0.233E+00
   7.932  0.509E+00  0.450E-01  0.232E+00  0.232E+00
   7.942  0.497E+00  0.435E-01  0.227E+00  0.227E+00
   7.952  0.479E+00  0.421E-01  0.218E+00  0.218E+00
   7.962  0.456E+00  0.409E-01  0.208E+00  0.208E+00
   7.972  0.432E+00  0.402E-01  0.196E+00  0.196E+00
   7.982  0.407E+00  0.402E-01  0.183E+00  0.183E+00
   7.992  0.384E+00  0.410E-01  0.171E+00  0.171E+00
   8.002  0.363E+00  0.427E-01  0.160E+00  0.160E+00
   8.012  0.346E+00  0.451E-01  0.150E+00  0.150E+00
   8.022  0.332E+00  0.483E-01  0.142E+00  0.142E+00
   8.032  0.321E+00  0.519E-01  0.135E+00  0.135E+00
   8.042  0.313E+00  0.557E-01  0.129E+00  0.129E+00
   8.052  0.307E+00  0.592E-01  0.124E+00  0.124E+00
   8.062  0.302E+00  0.619E-01  0.120E+00  0.120E+00
   8.072  0.297E+00  0.635E-01  0.117E+00  0.117E+00
   8.082  0.291E+00  0.635E-01  0.114E+00  0.114E+00
   8.092  0.283E+00  0.619E-01  0.111E+00  0.111E+00
   8.102  0.274E+00  0.588E-01  0.108E+00  0.108E+00
   8.112  0.263E+00  0.548E-01  0.104E+00  0.104E+00
   8.122  0.250E+00  0.502E-01  0.100E+00  0.100E+00
   8.132  0.237E+00  0.457E-01  0.956E-01  0.956E-01
   8.142  0.224E+00  0.418E-01  0.909E-01  0.909E-01
   8.152  0.211E+00  0.388E-01  0.860E-01  0.860E-01
   8.162  0.199E+00  0.368E-01  0.811E-01  0.811E-01
   8.172  0.189E+00  0.358E-01  0.764E-01  0.764E-01
   8.182  0.180E+00  0.357E-01  0.721E-01  0.721E-01
   8.192  0.173E+00  0.363E-01  0.683E-01  0.683E-01
   8.202  0.168E+00  0.373E-01  0.651E-01  0.651E-01
   8.212  0.163E+00  0.386E-01  0.623E-01  0.623E-01
   8.222  0.160E+00  0.399E-01  0.601E-01  0.601E-01
   8.232  0.157E+00  0.409E-01  0.582E-01  0.582E-01
   8.242  0.155E+00  0.414E-01  0.566E-01  0.566E-01
   8.252  0.152E+00  0.412E-01  0.554E-01  0.554E-01
   8.262  0.149E+00  0.402E-01  0.546E-01  0.546E-01
   8.272  0.147E+00  0.387E-01  0.542E-01  0.542E-01
   8.282  0.145E+00  0.369E-01  0.543E-01  0.543E-01
   8.292  0.145E+00  0.350E-01  0.548E-01  0.548E-01
   8.302  0.145E+00  0.335E-01  0.555E-01  0.555E-01
   8.312  0.145E+00  0.326E-01  0.563E-01  0.563E-01
   8.322  0.146E+00  0.325E-01  0.569E-01  0.569E-01
   8.332  0.147E+00  0.330E-01  0.570E-01  0.570E-01
   8.342  0.147E+00  0.339E-01  0.563E-01  0.563E-01
   8.352  0.145E+00  0.348E-01  0.549E-01  0.549E-01
   8.362  0.141E+00  0.354E-01  0.527E-01  0.527E-01
   8.372  0.135E+00  0.355E-01  0.498E-01  0.498E-01
   8.382  0.128E+00  0.350E-01  0.466E-01  0.466E-01
   8.392  0.121E+00  0.339E-01  0.434E-01  0.434E-01
   8.402  0.114E+00  0.324E-01  0.406E-01  0.406E-01
   8.412  0.108E+00  0.307E-01  0.385E-01  0.385E-01
   8.422  0.103E+00  0.290E-01  0.372E-01  0.372E-01
   8.432  0.101E+00  0.272E-01  0.370E-01  0.370E-01
   8.442  0.101E+00  0.255E-01  0.377E-01  0.377E-01
   8.452  0.102E+00  0.238E-01  0.390E-01  0.390E-01
   8.462  0.103E+00  0.220E-01  0.407E-01  0.407E-01
   8.472  0.105E+00  0.202E-01  0.423E-01  0.423E-01
   8.482  0.105E+00  0.184E-01  0.433E-01  0.433E-01
   8.492  0.104E+00  0.167E-01  0.435E-01  0.435E-01
   8.502  0.100E+00  0.151E-01  0.425E-01  0.425E-01
   8.512  0.942E-01  0.137E-01  0.403E-01  0.403E-01
   8.522  0.861E-01  0.123E-01  0.369E-01  0.369E-01
   8.532  0.762E-01  0.110E-01  0.326E-01  0.326E-01
   8.542  0.654E-01  0.950E-02  0.280E-01  0.280E-01
   8.552  0.546E-01  0.791E-02  0.233E-01  0.233E-01
   8.562  0.448E-01  0.620E-02  0.193E-01  0.193E-01
   8.572  0.371E-01  0.446E-02  0.163E-01  0.163E-01
   8.582  0.322E-01  0.282E-02  0.147E-01  0.147E-01
   8.592  0.304E-01  0.141E-02  0.145E-01  0.145E-01
   8.602  0.318E-01  0.334E-03  0.157E-01  0.157E-01
   8.612  0.358E-01 -0.376E-03  0.181E-01  0.181E-01
   8.622  0.418E-01 -0.732E-03  0.213E-01  0.213E-01
   8.632  0.488E-01 -0.797E-03  0.248E-01  0.248E-01
   8.642  0.561E-01 -0.655E-03  0.284E-01  0.284E-01
   8.652  0.627E-01 -0.393E-03  0.316E-01  0.316E-01
   8.662  0.684E-01 -0.854E-04  0.342E-01  0.342E-01
   8.672  0.727E-01  0.214E-03  0.363E-01  0.363E-01
   8.682  0.758E-01  0.474E-03  0.376E-01  0.376E-01
   8.692  0.776E-01  0.679E-03  0.385E-01  0.385E-01
   8.702  0.785E-01  0.827E-03  0.388E-01  0.388E-01
   8.712  0.785E-01  0.922E-03  0.388E-01  0.388E-01
   8.722  0.776E-01  0.970E-03  0.383E-01  0.383E-01
   8.732  0.758E-01  0.981E-03  0.374E-01  0.374E-01
   8.742  0.730E-01  0.961E-03  0.360E-01  0.360E-01
   8.752  0.691E-01  0.917E-03  0.341E-01  0.341E-01
   8.762  0.643E-01  0.855E-03  0.317E-01  0.317E-01
   8.772  0.589E-01  0.783E-03  0.290E-01  0.290E-01
   8.782  0.534E-01  0.706E-03  0.263E-01  0.263E-01
   8.792  0.484E-01  0.632E-03  0.239E-01  0.239E-01
   8.802  0.446E-01  0.566E-03  0.220E-01  0.220E-01
   8.812  0.421E-01  0.511E-03  0.208E-01  0.208E-01
   8.822  0.409E-01  0.471E-03  0.202E-01  0.202E-01
   8.832  0.410E-01  0.446E-03  0.203E-01  0.203E-01
   8.842  0.416E-01  0.434E-03  0.206E-01  0.206E-01
   8.852  0.424E-01  0.434E-03  0.210E-01  0.210E-01
   8.862  0.429E-01  0.442E-03  0.212E-01  0.212E-01
   8.872  0.429E-01  0.456E-03  0.212E-01  0.212E-01
   8.882  0.425E-01  0.474E-03  0.210E-01  0.210E-01
   8.892  0.420E-01  0.494E-03  0.207E-01  0.207E-01
   8.902  0.418E-01  0.515E-03  0.206E-01  0.206E-01
   8.912  0.424E-01  0.537E-03  0.209E-01  0.209E-01
   8.922  0.440E-01  0.562E-03  0.217E-01  0.217E-01
   8.932  0.469E-01  0.589E-03  0.231E-01  0.231E-01
   8.942  0.507E-01  0.619E-03  0.250E-01  0.250E-01
   8.952  0.549E-01  0.651E-03  0.271E-01  0.271E-01
   8.962  0.591E-01  0.682E-03  0.292E-01  0.292E-01
   8.972  0.626E-01  0.710E-03  0.309E-01  0.309E-01
   8.982  0.647E-01  0.731E-03  0.320E-01  0.320E-01
   8.992  0.650E-01  0.740E-03  0.321E-01  0.321E-01
   9.002  0.635E-01  0.735E-03  0.314E-01  0.314E-01
   9.012  0.601E-01  0.713E-03  0.297E-01  0.297E-01
   9.022  0.553E-01  0.674E-03  0.273E-01  0.273E-01
   9.032  0.494E-01  0.621E-03  0.244E-01  0.244E-01
   9.042  0.432E-01  0.558E-03  0.213E-01  0.213E-01
   9.052  0.372E-01  0.490E-03  0.184E-01  0.184E-01
   9.062  0.322E-01  0.426E-03  0.159E-01  0.159E-01
   9.072  0.287E-01  0.371E-03  0.142E-01  0.142E-01
   9.082  0.269E-01  0.333E-03  0.133E-01  0.133E-01
   9.092  0.269E-01  0.314E-03  0.133E-01  0.133E-01
   9.102  0.283E-01  0.317E-03  0.140E-01  0.140E-01
   9.112  0.307E-01  0.338E-03  0.152E-01  0.152E-01
   9.122  0.334E-01  0.375E-03  0.165E-01  0.165E-01
   9.132  0.357E-01  0.420E-03  0.176E-01  0.176E-01
   9.142  0.372E-01  0.466E-03  0.183E-01  0.183E-01
   9.152  0.376E-01  0.508E-03  0.186E-01  0.186E-01
   9.162  0.372E-01  0.539E-03  0.184E-01  0.184E-01
   9.172  0.364E-01  0.557E-03  0.179E-01  0.179E-01
   9.182  0.357E-01  0.562E-03  0.176E-01  0.176E-01
   9.192  0.358E-01  0.554E-03  0.176E-01  0.176E-01
   9.202  0.371E-01  0.539E-03  0.183E-01  0.183E-01
   9.212  0.399E-01  0.519E-03  0.197E-01  0.197E-01
   9.222  0.439E-01  0.500E-03  0.217E-01  0.217E-01
   9.232  0.487E-01  0.485E-03  0.241E-01  0.241E-01
   9.242  0.537E-01  0.476E-03  0.266E-01  0.266E-01
   9.252  0.584E-01  0.474E-03  0.290E-01  0.290E-01
   9.262  0.621E-01  0.478E-03  0.308E-01  0.308E-01
   9.272  0.645E-01  0.485E-03  0.320E-01  0.320E-01
   9.282  0.655E-01  0.491E-03  0.325E-01  0.325E-01
   9.292  0.652E-01  0.493E-03  0.323E-01  0.323E-01
   9.302  0.635E-01  0.488E-03  0.315E-01  0.315E-01
   9.312  0.608E-01  0.476E-03  0.302E-01  0.302E-01
   9.322  0.571E-01  0.457E-03  0.283E-01  0.283E-01
   9.332  0.525E-01  0.435E-03  0.261E-01  0.261E-01
   9.342  0.473E-01  0.412E-03  0.235E-01  0.235E-01
   9.352  0.417E-01  0.396E-03  0.206E-01  0.206E-01
   9.362  0.359E-01  0.389E-03  0.178E-01  0.178E-01
   9.372  0.304E-01  0.395E-03  0.150E-01  0.150E-01
   9.382  0.254E-01  0.412E-03  0.125E-01  0.125E-01
   9.392  0.215E-01  0.439E-03  0.105E-01  0.105E-01
   9.402  0.186E-01  0.470E-03  0.907E-02  0.907E-02
   9.412  0.169E-01  0.499E-03  0.819E-02  0.819E-02
   9.422  0.162E-01  0.520E-03  0.783E-02  0.783E-02
   9.432  0.163E-01  0.529E-03  0.787E-02  0.787E-02
   9.442  0.170E-01  0.526E-03  0.823E-02  0.823E-02
   9.452  0.181E-01  0.510E-03  0.879E-02  0.879E-02
   9.462  0.194E-01  0.487E-03  0.947E-02  0.947E-02
   9.472  0.209E-01  0.460E-03  0.102E-01  0.102E-01
   9.482  0.224E-01  0.434E-03  0.110E-01  0.110E-01
   9.492  0.239E-01  0.413E-03  0.117E-01  0.117E-01
   9.502  0.252E-01  0.399E-03  0.124E-01  0.124E-01
   9.512  0.265E-01  0.392E-03  0.131E-01  0.131E-01
   9.522  0.278E-01  0.393E-03  0.137E-01  0.137E-01
   9.532  0.290E-01  0.401E-03  0.143E-01  0.143E-01
   9.542  0.304E-01  0.412E-03  0.150E-01  0.150E-01
   9.552  0.321E-01  0.427E-03  0.158E-01  0.158E-01
   9.562  0.344E-01  0.443E-03  0.170E-01  0.170E-01
   9.572  0.375E-01  0.457E-03  0.185E-01  0.185E-01
   9.582  0.414E-01  0.469E-03  0.205E-01  0.205E-01
   9.592  0.461E-01  0.477E-03  0.228E-01  0.228E-01
   9.602  0.514E-01  0.483E-03  0.255E-01  0.255E-01
   9.612  0.569E-01  0.488E-03  0.282E-01  0.282E-01
   9.622  0.620E-01  0.493E-03  0.307E-01  0.307E-01
   9.632  0.660E-01  0.500E-03  0.328E-01  0.328E-01
   9.642  0.684E-01  0.510E-03  0.340E-01  0.340E-01
   9.652  0.687E-01  0.522E-03  0.341E-01  0.341E-01
   9.662  0.666E-01  0.533E-03  0.330E-01  0.330E-01
   9.672  0.621E-01  0.540E-03  0.308E-01  0.308E-01
   9.682  0.557E-01  0.540E-03  0.276E-01  0.276E-01
   9.692  0.479E-01  0.530E-03  0.237E-01  0.237E-01
   9.702  0.396E-01  0.511E-03  0.195E-01  0.195E-01
   9.712  0.314E-01  0.485E-03  0.154E-01  0.154E-01
   9.722  0.240E-01  0.454E-03  0.118E-01  0.118E-01
   9.732  0.180E-01  0.424E-03  0.878E-02  0.878E-02
   9.742  0.136E-01  0.399E-03  0.661E-02  0.661E-02
   9.752  0.110E-01  0.381E-03  0.530E-02  0.530E-02
   9.762  0.100E-01  0.373E-03  0.482E-02  0.482E-02
   9.772  0.105E-01  0.375E-03  0.504E-02  0.504E-02
   9.782  0.120E-01  0.386E-03  0.582E-02  0.582E-02
   9.792  0.143E-01  0.407E-03  0.696E-02  0.696E-02
   9.802  0.170E-01  0.437E-03  0.828E-02  0.828E-02
   9.812  0.197E-01  0.474E-03  0.960E-02  0.960E-02
   9.822  0.221E-01  0.516E-03  0.108E-01  0.108E-01
   9.832  0.239E-01  0.563E-03  0.117E-01  0.117E-01
   9.842  0.251E-01  0.609E-03  0.122E-01  0.122E-01
   9.852  0.255E-01  0.652E-03  0.124E-01  0.124E-01
   9.862  0.253E-01  0.688E-03  0.123E-01  0.123E-01
   9.872  0.245E-01  0.715E-03  0.119E-01  0.119E-01
   9.882  0.233E-01  0.732E-03  0.113E-01  0.113E-01
   9.892  0.221E-01  0.740E-03  0.107E-01  0.107E-01
   9.902  0.211E-01  0.743E-03  0.102E-01  0.102E-01
   9.912  0.206E-01  0.744E-03  0.994E-02  0.994E-02
   9.922  0.210E-01  0.749E-03  0.101E-01  0.101E-01
   9.932  0.223E-01  0.759E-03  0.108E-01  0.108E-01
   9.942  0.249E-01  0.777E-03  0.120E-01  0.120E-01
   9.952  0.286E-01  0.801E-03  0.139E-01  0.139E-01
   9.962  0.333E-01  0.829E-03  0.162E-01  0.162E-01
   9.972  0.388E-01  0.857E-03  0.190E-01  0.190E-01
   9.982  0.445E-01  0.883E-03  0.218E-01  0.218E-01
   9.992  0.500E-01  0.905E-03  0.245E-01  0.245E-01
  10.002  0.546E-01  0.922E-03  0.268E-01  0.268E-01
  10.012  0.579E-01  0.935E-03  0.285E-01  0.285E-01
  10.022  0.593E-01  0.944E-03  0.292E-01  0.292E-01
  10.032  0.586E-01  0.953E-03  0.288E-01  0.288E-01
  10.042  0.558E-01  0.963E-03  0.274E-01  0.274E-01
  10.052  0.510E-01  0.978E-03  0.250E-01  0.250E-01
  10.062  0.448E-01  0.100E-02  0.219E-01  0.219E-01
  10.072  0.377E-01  0.103E-02  0.184E-01  0.184E-01
  10.082  0.306E-01  0.108E-02  0.148E-01  0.148E-01
  10.092  0.241E-01  0.113E-02  0.115E-01  0.115E-01
  10.102  0.188E-01  0.119E-02  0.880E-02  0.880E-02
  10.112  0.149E-01  0.126E-02  0.682E-02  0.682E-02
  10.122  0.125E-01  0.132E-02  0.561E-02  0.561E-02
  10.132  0.116E-01  0.137E-02  0.510E-02  0.510E-02
  10.142  0.117E-01  0.140E-02  0.515E-02  0.515E-02
  10.152  0.126E-01  0.141E-02  0.562E-02  0.562E-02
  10.162  0.141E-01  0.140E-02  0.637E-02  0.637E-02
  10.172  0.160E-01  0.138E-02  0.729E-02  0.729E-02
  10.182  0.180E-01  0.135E-02  0.830E-02  0.830E-02
  10.192  0.200E-01  0.133E-02  0.934E-02  0.934E-02
  10.202  0.220E-01  0.132E-02  0.104E-01  0.104E-01
  10.212  0.239E-01  0.133E-02  0.113E-01  0.113E-01
  10.222  0.254E-01  0.136E-02  0.120E-01  0.120E-01
  10.232  0.266E-01  0.140E-02  0.126E-01  0.126E-01
  10.242  0.274E-01  0.145E-02  0.130E-01  0.130E-01
  10.252  0.277E-01  0.150E-02  0.131E-01  0.131E-01
  10.262  0.276E-01  0.156E-02  0.130E-01  0.130E-01
  10.272  0.272E-01  0.161E-02  0.128E-01  0.128E-01
  10.282  0.267E-01  0.166E-02  0.125E-01  0.125E-01
  10.292  0.261E-01  0.172E-02  0.122E-01  0.122E-01
  10.302  0.256E-01  0.178E-02  0.119E-01  0.119E-01
  10.312  0.254E-01  0.185E-02  0.118E-01  0.118E-01
  10.322  0.255E-01  0.194E-02  0.118E-01  0.118E-01
  10.332  0.261E-01  0.204E-02  0.120E-01  0.120E-01
  10.342  0.272E-01  0.215E-02  0.126E-01  0.126E-01
  10.352  0.290E-01  0.225E-02  0.134E-01  0.134E-01
  10.362  0.313E-01  0.234E-02  0.145E-01  0.145E-01
  10.372  0.339E-01  0.240E-02  0.158E-01  0.158E-01
  10.382  0.366E-01  0.243E-02  0.171E-01  0.171E-01
  10.392  0.389E-01  0.241E-02  0.182E-01  0.182E-01
  10.402  0.405E-01  0.235E-02  0.191E-01  0.191E-01
  10.412  0.410E-01  0.226E-02  0.194E-01  0.194E-01
  10.422  0.402E-01  0.215E-02  0.190E-01  0.190E-01
  10.432  0.380E-01  0.202E-02  0.180E-01  0.180E-01
  10.442  0.347E-01  0.188E-02  0.164E-01  0.164E-01
  10.452  0.305E-01  0.175E-02  0.144E-01  0.144E-01
  10.462  0.258E-01  0.162E-02  0.121E-01  0.121E-01
  10.472  0.210E-01  0.150E-02  0.977E-02  0.977E-02
  10.482  0.167E-01  0.139E-02  0.765E-02  0.765E-02
  10.492  0.130E-01  0.128E-02  0.586E-02  0.586E-02
  10.502  0.102E-01  0.120E-02  0.450E-02  0.450E-02
  10.512  0.832E-02  0.114E-02  0.359E-02  0.359E-02
  10.522  0.732E-02  0.111E-02  0.311E-02  0.311E-02
  10.532  0.710E-02  0.110E-02  0.300E-02  0.300E-02
  10.542  0.754E-02  0.111E-02  0.321E-02  0.321E-02
  10.552  0.854E-02  0.114E-02  0.370E-02  0.370E-02
  10.562  0.101E-01  0.117E-02  0.444E-02  0.444E-02
  10.572  0.120E-01  0.120E-02  0.542E-02  0.542E-02
  10.582  0.145E-01  0.122E-02  0.664E-02  0.664E-02
  10.592  0.174E-01  0.123E-02  0.809E-02  0.809E-02
  10.602  0.207E-01  0.123E-02  0.973E-02  0.973E-02
  10.612  0.242E-01  0.122E-02  0.115E-01  0.115E-01
  10.622  0.278E-01  0.122E-02  0.133E-01  0.133E-01
  10.632  0.311E-01  0.123E-02  0.149E-01  0.149E-01
  10.642  0.338E-01  0.125E-02  0.163E-01  0.163E-01
  10.652  0.358E-01  0.130E-02  0.172E-01  0.172E-01
  10.662  0.367E-01  0.136E-02  0.177E-01  0.177E-01
  10.672  0.365E-01  0.143E-02  0.175E-01  0.175E-01
  10.682  0.353E-01  0.150E-02  0.169E-01  0.169E-01
  10.692  0.332E-01  0.155E-02  0.158E-01  0.158E-01
  10.702  0.307E-01  0.157E-02  0.146E-01  0.146E-01
  10.712  0.280E-01  0.155E-02  0.132E-01  0.132E-01
  10.722  0.256E-01  0.150E-02  0.121E-01  0.121E-01
  10.732  0.239E-01  0.143E-02  0.112E-01  0.112E-01
  10.742  0.230E-01  0.136E-02  0.108E-01  0.108E-01
  10.752  0.231E-01  0.131E-02  0.109E-01  0.109E-01
  10.762  0.240E-01  0.132E-02  0.114E-01  0.114E-01
  10.772  0.258E-01  0.139E-02  0.122E-01  0.122E-01
  10.782  0.279E-01  0.154E-02  0.132E-01  0.132E-01
  10.792  0.300E-01  0.176E-02  0.141E-01  0.141E-01
  10.802  0.318E-01  0.203E-02  0.149E-01  0.149E-01
  10.812  0.328E-01  0.232E-02  0.153E-01  0.153E-01
  10.822  0.331E-01  0.260E-02  0.152E-01  0.152E-01
  10.832  0.323E-01  0.283E-02  0.148E-01  0.148E-01
  10.842  0.307E-01  0.298E-02  0.139E-01  0.139E-01
  10.852  0.284E-01  0.304E-02  0.127E-01  0.127E-01
  10.862  0.255E-01  0.301E-02  0.113E-01  0.113E-01
  10.872  0.224E-01  0.289E-02  0.977E-02  0.977E-02
  10.882  0.193E-01  0.271E-02  0.831E-02  0.831E-02
  10.892  0.165E-01  0.250E-02  0.699E-02  0.699E-02
  10.902  0.140E-01  0.228E-02  0.587E-02  0.587E-02
  10.912  0.121E-01  0.209E-02  0.499E-02  0.499E-02
  10.922  0.107E-01  0.193E-02  0.441E-02  0.441E-02
  10.932  0.101E-01  0.183E-02  0.415E-02  0.415E-02
  10.942  0.103E-01  0.178E-02  0.424E-02  0.424E-02
  10.952  0.112E-01  0.178E-02  0.472E-02  0.472E-02
  10.962  0.130E-01  0.182E-02  0.559E-02  0.559E-02
  10.972  0.156E-01  0.190E-02  0.683E-02  0.683E-02
  10.982  0.188E-01  0.200E-02  0.839E-02  0.839E-02
  10.992  0.224E-01  0.211E-02  0.102E-01  0.102E-01
  11.002  0.263E-01  0.220E-02  0.121E-01  0.121E-01
  11.012  0.301E-01  0.227E-02  0.139E-01  0.139E-01
  11.022  0.335E-01  0.231E-02  0.156E-01  0.156E-01
  11.032  0.363E-01  0.232E-02  0.170E-01  0.170E-01
  11.042  0.384E-01  0.231E-02  0.181E-01  0.181E-01
  11.052  0.399E-01  0.227E-02  0.188E-01  0.188E-01
  11.062  0.408E-01  0.224E-02  0.193E-01  0.193E-01
  11.072  0.411E-01  0.221E-02  0.195E-01  0.195E-01
  11.082  0.410E-01  0.221E-02  0.194E-01  0.194E-01
  11.092  0.403E-01  0.223E-02  0.191E-01  0.191E-01
  11.102  0.391E-01  0.227E-02  0.184E-01  0.184E-01
  11.112  0.373E-01  0.232E-02  0.175E-01  0.175E-01
  11.122  0.349E-01  0.238E-02  0.163E-01  0.163E-01
  11.132  0.321E-01  0.243E-02  0.148E-01  0.148E-01
  11.142  0.290E-01  0.246E-02  0.132E-01  0.132E-01
  11.152  0.259E-01  0.246E-02  0.117E-01  0.117E-01
  11.162  0.231E-01  0.243E-02  0.103E-01  0.103E-01
  11.172  0.208E-01  0.237E-02  0.920E-02  0.920E-02
  11.182  0.190E-01  0.227E-02  0.838E-02  0.838E-02
  11.192  0.178E-01  0.213E-02  0.784E-02  0.784E-02
  11.202  0.170E-01  0.198E-02  0.751E-02  0.751E-02
  11.212  0.164E-01  0.181E-02  0.729E-02  0.729E-02
  11.222  0.158E-01  0.165E-02  0.710E-02  0.710E-02
  11.232  0.152E-01  0.151E-02  0.684E-02  0.684E-02
  11.242  0.144E-01  0.141E-02  0.649E-02  0.649E-02
  11.252  0.134E-01  0.134E-02  0.603E-02  0.603E-02
  11.262  0.123E-01  0.133E-02  0.548E-02  0.548E-02
  11.272  0.112E-01  0.137E-02  0.490E-02  0.490E-02
  11.282  0.101E-01  0.147E-02  0.433E-02  0.433E-02
  11.292  0.929E-02  0.161E-02  0.384E-02  0.384E-02
  11.302  0.881E-02  0.180E-02  0.350E-02  0.350E-02
  11.312  0.874E-02  0.200E-02  0.337E-02  0.337E-02
  11.322  0.914E-02  0.219E-02  0.347E-02  0.347E-02
  11.332  0.100E-01  0.236E-02  0.383E-02  0.383E-02
  11.342  0.113E-01  0.246E-02  0.441E-02  0.441E-02
  11.352  0.129E-01  0.249E-02  0.520E-02  0.520E-02
  11.362  0.146E-01  0.242E-02  0.611E-02  0.611E-02
  11.372  0.164E-01  0.227E-02  0.707E-02  0.707E-02
  11.382  0.180E-01  0.204E-02  0.800E-02  0.800E-02
  11.392  0.194E-01  0.177E-02  0.882E-02  0.882E-02
  11.402  0.204E-01  0.149E-02  0.948E-02  0.948E-02
  11.412  0.211E-01  0.122E-02  0.996E-02  0.996E-02
  11.422  0.216E-01  0.985E-03  0.103E-01  0.103E-01
  11.432  0.220E-01  0.811E-03  0.106E-01  0.106E-01
  11.442  0.226E-01  0.700E-03  0.110E-01  0.110E-01
  11.452  0.236E-01  0.653E-03  0.115E-01  0.115E-01
  11.462  0.250E-01  0.662E-03  0.121E-01  0.121E-01
  11.472  0.268E-01  0.717E-03  0.130E-01  0.130E-01
  11.482  0.289E-01  0.803E-03  0.140E-01  0.140E-01
  11.492  0.308E-01  0.906E-03  0.150E-01  0.150E-01
  11.502  0.323E-01  0.101E-02  0.156E-01  0.156E-01
  11.512  0.328E-01  0.110E-02  0.159E-01  0.159E-01
  11.522  0.322E-01  0.116E-02  0.155E-01  0.155E-01
  11.532  0.303E-01  0.118E-02  0.146E-01  0.146E-01
  11.542  0.274E-01  0.116E-02  0.131E-01  0.131E-01
  11.552  0.237E-01  0.109E-02  0.113E-01  0.113E-01
  11.562  0.198E-01  0.988E-03  0.942E-02  0.942E-02
  11.572  0.162E-01  0.864E-03  0.766E-02  0.766E-02
  11.582  0.132E-01  0.735E-03  0.624E-02  0.624E-02
  11.592  0.112E-01  0.615E-03  0.529E-02  0.529E-02
  11.602  0.102E-01  0.513E-03  0.486E-02  0.486E-02
  11.612  0.102E-01  0.434E-03  0.490E-02  0.490E-02
  11.622  0.110E-01  0.376E-03  0.533E-02  0.533E-02
  11.632  0.124E-01  0.331E-03  0.602E-02  0.602E-02
  11.642  0.140E-01  0.294E-03  0.684E-02  0.684E-02
  11.652  0.156E-01  0.257E-03  0.767E-02  0.767E-02
  11.662  0.171E-01  0.217E-03  0.843E-02  0.843E-02
  11.672  0.183E-01  0.175E-03  0.905E-02  0.905E-02
  11.682  0.192E-01  0.132E-03  0.951E-02  0.951E-02
  11.692  0.197E-01  0.907E-04  0.979E-02  0.979E-02
  11.702  0.199E-01  0.554E-04  0.990E-02  0.990E-02
  11.712  0.197E-01  0.282E-04  0.985E-02  0.985E-02
  11.722  0.193E-01  0.995E-05  0.966E-02  0.966E-02
  11.732  0.187E-01  0.716E-06  0.935E-02  0.935E-02
  11.742  0.179E-01 -0.483E-06  0.897E-02  0.897E-02
  11.752  0.171E-01  0.500E-05  0.856E-02  0.856E-02
  11.762  0.163E-01  0.157E-04  0.816E-02  0.816E-02
  11.772  0.157E-01  0.304E-04  0.785E-02  0.785E-02
  11.782  0.154E-01  0.480E-04  0.766E-02  0.766E-02
  11.792  0.153E-01  0.674E-04  0.764E-02  0.764E-02
  11.802  0.157E-01  0.877E-04  0.782E-02  0.782E-02
  11.812  0.165E-01  0.108E-03  0.820E-02  0.820E-02
  11.822  0.177E-01  0.127E-03  0.877E-02  0.877E-02
  11.832  0.192E-01  0.143E-03  0.951E-02  0.951E-02
  11.842  0.209E-01  0.155E-03  0.104E-01  0.104E-01
  11.852  0.227E-01  0.162E-03  0.113E-01  0.113E-01
  11.862  0.244E-01  0.164E-03  0.121E-01  0.121E-01
  11.872  0.258E-01  0.160E-03  0.128E-01  0.128E-01
  11.882  0.269E-01  0.151E-03  0.134E-01  0.134E-01
  11.892  0.273E-01  0.138E-03  0.136E-01  0.136E-01
  11.902  0.272E-01  0.122E-03  0.135E-01  0.135E-01
  11.912  0.265E-01  0.105E-03  0.132E-01  0.132E-01
  11.922  0.253E-01  0.878E-04  0.126E-01  0.126E-01
  11.932  0.240E-01  0.726E-04  0.120E-01  0.120E-01
  11.942  0.227E-01  0.602E-04  0.113E-01  0.113E-01
  11.952  0.216E-01  0.511E-04  0.108E-01  0.108E-01
  11.962  0.207E-01  0.453E-04  0.103E-01  0.103E-01
  11.972  0.201E-01  0.422E-04  0.100E-01  0.100E-01
  11.982  0.198E-01  0.409E-04  0.987E-02  0.987E-02
  11.992  0.197E-01  0.402E-04  0.982E-02  0.982E-02
  12.002  0.198E-01  0.393E-04  0.987E-02  0.987E-02
  12.012  0.201E-01  0.375E-04  0.100E-01  0.100E-01
  12.022  0.207E-01  0.347E-04  0.103E-01  0.103E-01
  12.032  0.216E-01  0.312E-04  0.108E-01  0.108E-01
  12.042  0.226E-01  0.275E-04  0.113E-01  0.113E-01
  12.052  0.238E-01  0.243E-04  0.119E-01  0.119E-01
  12.062  0.247E-01  0.220E-04  0.124E-01  0.124E-01
  12.072  0.253E-01  0.211E-04  0.127E-01  0.127E-01
  12.082  0.253E-01  0.214E-04  0.127E-01  0.127E-01
  12.092  0.246E-01  0.227E-04  0.123E-01  0.123E-01
  12.102  0.231E-01  0.247E-04  0.115E-01  0.115E-01
  12.112  0.208E-01  0.266E-04  0.104E-01  0.104E-01
  12.122  0.179E-01  0.279E-04  0.894E-02  0.894E-02
  12.132  0.147E-01  0.283E-04  0.732E-02  0.732E-02
  12.142  0.113E-01  0.275E-04  0.565E-02  0.565E-02
  12.152  0.816E-02  0.254E-04  0.407E-02  0.407E-02
  12.162  0.539E-02  0.223E-04  0.268E-02  0.268E-02
  12.172  0.317E-02  0.186E-04  0.158E-02  0.158E-02
  12.182  0.161E-02  0.148E-04  0.798E-03  0.798E-03
  12.192  0.718E-03  0.113E-04  0.353E-03  0.353E-03
  12.202  0.442E-03  0.857E-05  0.216E-03  0.216E-03
  12.212  0.682E-03  0.674E-05  0.338E-03  0.338E-03
  12.222  0.132E-02  0.587E-05  0.656E-03  0.656E-03
  12.232  0.223E-02  0.584E-05  0.111E-02  0.111E-02
  12.242  0.330E-02  0.645E-05  0.164E-02  0.164E-02
  12.252  0.444E-02  0.743E-05  0.221E-02  0.221E-02
  12.262  0.557E-02  0.855E-05  0.278E-02  0.278E-02
  12.272  0.665E-02  0.960E-05  0.332E-02  0.332E-02
  12.282  0.762E-02  0.105E-04  0.380E-02  0.380E-02
  12.292  0.843E-02  0.111E-04  0.421E-02  0.421E-02
  12.302  0.906E-02  0.113E-04  0.452E-02  0.452E-02
  12.312  0.946E-02  0.113E-04  0.472E-02  0.472E-02
  12.322  0.962E-02  0.110E-04  0.480E-02  0.480E-02
  12.332  0.952E-02  0.105E-04  0.475E-02  0.475E-02
  12.342  0.917E-02  0.962E-05  0.458E-02  0.458E-02
  12.352  0.859E-02  0.856E-05  0.429E-02  0.429E-02
  12.362  0.783E-02  0.731E-05  0.391E-02  0.391E-02
  12.372  0.693E-02  0.595E-05  0.346E-02  0.346E-02
  12.382  0.596E-02  0.457E-05  0.298E-02  0.298E-02
  12.392  0.496E-02  0.325E-05  0.248E-02  0.248E-02
  12.402  0.400E-02  0.208E-05  0.200E-02  0.200E-02
  12.412  0.311E-02  0.111E-05  0.156E-02  0.156E-02
  12.422  0.232E-02  0.379E-06  0.116E-02  0.116E-02
  12.432  0.164E-02 -0.123E-06  0.819E-03  0.819E-03
  12.442  0.107E-02 -0.424E-06  0.534E-03  0.534E-03
  12.452  0.610E-03 -0.569E-06  0.305E-03  0.305E-03
  12.462  0.262E-03 -0.604E-06  0.131E-03  0.131E-03
  12.472  0.248E-04 -0.573E-06  0.127E-04  0.127E-04
  12.482 -0.979E-04 -0.506E-06 -0.487E-04 -0.487E-04
  12.492 -0.999E-04 -0.425E-06 -0.497E-04 -0.497E-04
  12.502  0.252E-04 -0.341E-06  0.128E-04  0.128E-04
  12.512  0.281E-03 -0.259E-06  0.141E-03  0.141E-03
  12.522  0.668E-03 -0.180E-06  0.334E-03  0.334E-03
  12.532  0.117E-02 -0.105E-06  0.587E-03  0.587E-03
  12.542  0.178E-02 -0.311E-07  0.888E-03  0.888E-03
  12.552  0.244E-02  0.431E-07  0.122E-02  0.122E-02
  12.562  0.311E-02  0.121E-06  0.155E-02  0.155E-02
  12.572  0.373E-02  0.207E-06  0.186E-02  0.186E-02
  12.582  0.423E-02  0.309E-06  0.212E-02  0.212E-02
  12.592  0.459E-02  0.434E-06  0.229E-02  0.229E-02
  12.602  0.476E-02  0.592E-06  0.238E-02  0.238E-02
  12.612  0.477E-02  0.789E-06  0.238E-02  0.238E-02
  12.622  0.465E-02  0.103E-05  0.232E-02  0.232E-02
  12.632  0.446E-02  0.131E-05  0.223E-02  0.223E-02
  12.642  0.425E-02  0.161E-05  0.212E-02  0.212E-02
  12.652  0.406E-02  0.192E-05  0.203E-02  0.203E-02
  12.662  0.391E-02  0.218E-05  0.195E-02  0.195E-02
  12.672  0.376E-02  0.237E-05  0.188E-02  0.188E-02
  12.682  0.359E-02  0.244E-05  0.180E-02  0.180E-02
  12.692  0.336E-02  0.239E-05  0.168E-02  0.168E-02
  12.702  0.305E-02  0.220E-05  0.152E-02  0.152E-02
  12.712  0.266E-02  0.189E-05  0.133E-02  0.133E-02
  12.722  0.223E-02  0.151E-05  0.112E-02  0.112E-02
  12.732  0.182E-02  0.109E-05  0.912E-03  0.912E-03
  12.742  0.150E-02  0.687E-06  0.748E-03  0.748E-03
  12.752  0.130E-02  0.343E-06  0.650E-03  0.650E-03
  12.762  0.125E-02  0.819E-07  0.627E-03  0.627E-03
  12.772  0.135E-02 -0.865E-07  0.676E-03  0.676E-03
  12.782  0.156E-02 -0.168E-06  0.779E-03  0.779E-03
  12.792  0.182E-02 -0.178E-06  0.912E-03  0.912E-03
  12.802  0.210E-02 -0.138E-06  0.105E-02  0.105E-02
  12.812  0.236E-02 -0.646E-07  0.118E-02  0.118E-02
  12.822  0.259E-02  0.259E-07  0.130E-02  0.130E-02
  12.832  0.280E-02  0.124E-06  0.140E-02  0.140E-02
  12.842  0.302E-02  0.224E-06  0.151E-02  0.151E-02
  12.852  0.325E-02  0.323E-06  0.163E-02  0.163E-02
  12.862  0.351E-02  0.415E-06  0.176E-02  0.176E-02
  12.872  0.378E-02  0.495E-06  0.189E-02  0.189E-02
  12.882  0.401E-02  0.556E-06  0.200E-02  0.200E-02
  12.892  0.414E-02  0.589E-06  0.207E-02  0.207E-02
  12.902  0.413E-02  0.589E-06  0.206E-02  0.206E-02
  12.912  0.394E-02  0.554E-06  0.197E-02  0.197E-02
  12.922  0.358E-02  0.487E-06  0.179E-02  0.179E-02
  12.932  0.308E-02  0.395E-06  0.154E-02  0.154E-02
  12.942  0.250E-02  0.290E-06  0.125E-02  0.125E-02
  12.952  0.190E-02  0.185E-06  0.951E-03  0.951E-03
  12.962  0.136E-02  0.910E-07  0.679E-03  0.679E-03
  12.972  0.904E-03  0.164E-07  0.452E-03  0.452E-03
  12.982  0.556E-03 -0.354E-07  0.278E-03  0.278E-03
  12.992  0.310E-03 -0.648E-07  0.155E-03  0.155E-03
  13.002  0.144E-03 -0.756E-07  0.719E-04  0.719E-04
  13.012  0.345E-04 -0.732E-07  0.173E-04  0.173E-04
  13.022 -0.390E-04 -0.629E-07 -0.195E-04 -0.195E-04
  13.032 -0.907E-04 -0.495E-07 -0.453E-04 -0.453E-04
  13.042 -0.127E-03 -0.361E-07 -0.635E-04 -0.635E-04
  13.052 -0.150E-03 -0.247E-07 -0.750E-04 -0.750E-04
  13.062 -0.159E-03 -0.159E-07 -0.797E-04 -0.797E-04
  13.072 -0.156E-03 -0.968E-08 -0.780E-04 -0.780E-04
  13.082 -0.142E-03 -0.558E-08 -0.710E-04 -0.710E-04
  13.092 -0.121E-03 -0.306E-08 -0.604E-04 -0.604E-04
  13.102 -0.965E-04 -0.159E-08 -0.482E-04 -0.482E-04
  13.112 -0.725E-04 -0.789E-09 -0.363E-04 -0.363E-04
  13.122 -0.514E-04 -0.372E-09 -0.257E-04 -0.257E-04
  13.132 -0.345E-04 -0.168E-09 -0.173E-04 -0.173E-04
  13.142 -0.219E-04 -0.721E-10 -0.110E-04 -0.110E-04
  13.152 -0.132E-04 -0.296E-10 -0.661E-05 -0.661E-05
  13.162 -0.757E-05 -0.116E-10 -0.379E-05 -0.379E-05
  13.172 -0.413E-05 -0.436E-11 -0.206E-05 -0.206E-05
