#  E (eV)   dos(E)     Int dos(E) EFermi =   -1.264 eV
 -10.000  0.3860E+00  0.3860E-02
  -9.990  0.3925E+00  0.7785E-02
  -9.980  0.4013E+00  0.1180E-01
  -9.970  0.4121E+00  0.1592E-01
  -9.960  0.4245E+00  0.2016E-01
  -9.950  0.4381E+00  0.2454E-01
  -9.940  0.4524E+00  0.2907E-01
  -9.930  0.4669E+00  0.3374E-01
  -9.920  0.4812E+00  0.3855E-01
  -9.910  0.4946E+00  0.4350E-01
  -9.900  0.5066E+00  0.4856E-01
  -9.890  0.5169E+00  0.5373E-01
  -9.880  0.5249E+00  0.5898E-01
  -9.870  0.5302E+00  0.6428E-01
  -9.860  0.5326E+00  0.6961E-01
  -9.850  0.5318E+00  0.7492E-01
  -9.840  0.5277E+00  0.8020E-01
  -9.830  0.5202E+00  0.8540E-01
  -9.820  0.5094E+00  0.9050E-01
  -9.810  0.4955E+00  0.9545E-01
  -9.800  0.4787E+00  0.1002E+00
  -9.790  0.4595E+00  0.1048E+00
  -9.780  0.4383E+00  0.1092E+00
  -9.770  0.4157E+00  0.1134E+00
  -9.760  0.3922E+00  0.1173E+00
  -9.750  0.3687E+00  0.1210E+00
  -9.740  0.3457E+00  0.1244E+00
  -9.730  0.3241E+00  0.1277E+00
  -9.720  0.3045E+00  0.1307E+00
  -9.710  0.2876E+00  0.1336E+00
  -9.700  0.2741E+00  0.1363E+00
  -9.690  0.2645E+00  0.1390E+00
  -9.680  0.2593E+00  0.1416E+00
  -9.670  0.2589E+00  0.1442E+00
  -9.660  0.2634E+00  0.1468E+00
  -9.650  0.2731E+00  0.1495E+00
  -9.640  0.2879E+00  0.1524E+00
  -9.630  0.3077E+00  0.1555E+00
  -9.620  0.3321E+00  0.1588E+00
  -9.610  0.3607E+00  0.1624E+00
  -9.600  0.3929E+00  0.1663E+00
  -9.590  0.4280E+00  0.1706E+00
  -9.580  0.4652E+00  0.1753E+00
  -9.570  0.5037E+00  0.1803E+00
  -9.560  0.5424E+00  0.1857E+00
  -9.550  0.5804E+00  0.1915E+00
  -9.540  0.6167E+00  0.1977E+00
  -9.530  0.6505E+00  0.2042E+00
  -9.520  0.6809E+00  0.2110E+00
  -9.510  0.7071E+00  0.2181E+00
  -9.500  0.7288E+00  0.2254E+00
  -9.490  0.7454E+00  0.2328E+00
  -9.480  0.7569E+00  0.2404E+00
  -9.470  0.7633E+00  0.2480E+00
  -9.460  0.7648E+00  0.2557E+00
  -9.450  0.7620E+00  0.2633E+00
  -9.440  0.7553E+00  0.2709E+00
  -9.430  0.7455E+00  0.2783E+00
  -9.420  0.7334E+00  0.2856E+00
  -9.410  0.7198E+00  0.2928E+00
  -9.400  0.7054E+00  0.2999E+00
  -9.390  0.6911E+00  0.3068E+00
  -9.380  0.6773E+00  0.3136E+00
  -9.370  0.6645E+00  0.3202E+00
  -9.360  0.6530E+00  0.3268E+00
  -9.350  0.6428E+00  0.3332E+00
  -9.340  0.6338E+00  0.3395E+00
  -9.330  0.6257E+00  0.3458E+00
  -9.320  0.6182E+00  0.3520E+00
  -9.310  0.6107E+00  0.3581E+00
  -9.300  0.6026E+00  0.3641E+00
  -9.290  0.5934E+00  0.3700E+00
  -9.280  0.5825E+00  0.3759E+00
  -9.270  0.5694E+00  0.3816E+00
  -9.260  0.5538E+00  0.3871E+00
  -9.250  0.5354E+00  0.3924E+00
  -9.240  0.5143E+00  0.3976E+00
  -9.230  0.4905E+00  0.4025E+00
  -9.220  0.4642E+00  0.4071E+00
  -9.210  0.4358E+00  0.4115E+00
  -9.200  0.4058E+00  0.4155E+00
  -9.190  0.3748E+00  0.4193E+00
  -9.180  0.3434E+00  0.4227E+00
  -9.170  0.3124E+00  0.4259E+00
  -9.160  0.2823E+00  0.4287E+00
  -9.150  0.2540E+00  0.4312E+00
  -9.140  0.2279E+00  0.4335E+00
  -9.130  0.2046E+00  0.4355E+00
  -9.120  0.1848E+00  0.4374E+00
  -9.110  0.1688E+00  0.4391E+00
  -9.100  0.1571E+00  0.4406E+00
  -9.090  0.1499E+00  0.4421E+00
  -9.080  0.1476E+00  0.4436E+00
  -9.070  0.1504E+00  0.4451E+00
  -9.060  0.1584E+00  0.4467E+00
  -9.050  0.1718E+00  0.4484E+00
  -9.040  0.1907E+00  0.4503E+00
  -9.030  0.2149E+00  0.4525E+00
  -9.020  0.2446E+00  0.4549E+00
  -9.010  0.2794E+00  0.4577E+00
  -9.000  0.3192E+00  0.4609E+00
  -8.990  0.3635E+00  0.4645E+00
  -8.980  0.4120E+00  0.4687E+00
  -8.970  0.4640E+00  0.4733E+00
  -8.960  0.5190E+00  0.4785E+00
  -8.950  0.5761E+00  0.4843E+00
  -8.940  0.6345E+00  0.4906E+00
  -8.930  0.6932E+00  0.4975E+00
  -8.920  0.7514E+00  0.5051E+00
  -8.910  0.8081E+00  0.5131E+00
  -8.900  0.8623E+00  0.5218E+00
  -8.890  0.9131E+00  0.5309E+00
  -8.880  0.9597E+00  0.5405E+00
  -8.870  0.1001E+01  0.5505E+00
  -8.860  0.1038E+01  0.5609E+00
  -8.850  0.1068E+01  0.5716E+00
  -8.840  0.1091E+01  0.5825E+00
  -8.830  0.1109E+01  0.5936E+00
  -8.820  0.1120E+01  0.6048E+00
  -8.810  0.1124E+01  0.6160E+00
  -8.800  0.1123E+01  0.6272E+00
  -8.790  0.1116E+01  0.6384E+00
  -8.780  0.1105E+01  0.6494E+00
  -8.770  0.1089E+01  0.6603E+00
  -8.760  0.1070E+01  0.6710E+00
  -8.750  0.1047E+01  0.6815E+00
  -8.740  0.1023E+01  0.6917E+00
  -8.730  0.9976E+00  0.7017E+00
  -8.720  0.9715E+00  0.7114E+00
  -8.710  0.9454E+00  0.7209E+00
  -8.700  0.9199E+00  0.7301E+00
  -8.690  0.8953E+00  0.7390E+00
  -8.680  0.8721E+00  0.7477E+00
  -8.670  0.8504E+00  0.7563E+00
  -8.660  0.8303E+00  0.7646E+00
  -8.650  0.8119E+00  0.7727E+00
  -8.640  0.7950E+00  0.7806E+00
  -8.630  0.7795E+00  0.7884E+00
  -8.620  0.7653E+00  0.7961E+00
  -8.610  0.7522E+00  0.8036E+00
  -8.600  0.7399E+00  0.8110E+00
  -8.590  0.7283E+00  0.8183E+00
  -8.580  0.7174E+00  0.8254E+00
  -8.570  0.7070E+00  0.8325E+00
  -8.560  0.6972E+00  0.8395E+00
  -8.550  0.6881E+00  0.8464E+00
  -8.540  0.6798E+00  0.8532E+00
  -8.530  0.6727E+00  0.8599E+00
  -8.520  0.6670E+00  0.8666E+00
  -8.510  0.6630E+00  0.8732E+00
  -8.500  0.6610E+00  0.8798E+00
  -8.490  0.6614E+00  0.8864E+00
  -8.480  0.6645E+00  0.8931E+00
  -8.470  0.6703E+00  0.8998E+00
  -8.460  0.6792E+00  0.9066E+00
  -8.450  0.6912E+00  0.9135E+00
  -8.440  0.7063E+00  0.9205E+00
  -8.430  0.7244E+00  0.9278E+00
  -8.420  0.7452E+00  0.9352E+00
  -8.410  0.7687E+00  0.9429E+00
  -8.400  0.7944E+00  0.9509E+00
  -8.390  0.8219E+00  0.9591E+00
  -8.380  0.8509E+00  0.9676E+00
  -8.370  0.8809E+00  0.9764E+00
  -8.360  0.9114E+00  0.9855E+00
  -8.350  0.9420E+00  0.9949E+00
  -8.340  0.9722E+00  0.1005E+01
  -8.330  0.1002E+01  0.1015E+01
  -8.320  0.1030E+01  0.1025E+01
  -8.310  0.1056E+01  0.1036E+01
  -8.300  0.1081E+01  0.1046E+01
  -8.290  0.1103E+01  0.1057E+01
  -8.280  0.1122E+01  0.1069E+01
  -8.270  0.1139E+01  0.1080E+01
  -8.260  0.1152E+01  0.1091E+01
  -8.250  0.1162E+01  0.1103E+01
  -8.240  0.1169E+01  0.1115E+01
  -8.230  0.1173E+01  0.1127E+01
  -8.220  0.1173E+01  0.1138E+01
  -8.210  0.1170E+01  0.1150E+01
  -8.200  0.1164E+01  0.1162E+01
  -8.190  0.1155E+01  0.1173E+01
  -8.180  0.1143E+01  0.1185E+01
  -8.170  0.1129E+01  0.1196E+01
  -8.160  0.1113E+01  0.1207E+01
  -8.150  0.1095E+01  0.1218E+01
  -8.140  0.1076E+01  0.1229E+01
  -8.130  0.1056E+01  0.1239E+01
  -8.120  0.1035E+01  0.1250E+01
  -8.110  0.1015E+01  0.1260E+01
  -8.100  0.9951E+00  0.1270E+01
  -8.090  0.9762E+00  0.1279E+01
  -8.080  0.9589E+00  0.1289E+01
  -8.070  0.9436E+00  0.1299E+01
  -8.060  0.9307E+00  0.1308E+01
  -8.050  0.9208E+00  0.1317E+01
  -8.040  0.9144E+00  0.1326E+01
  -8.030  0.9118E+00  0.1335E+01
  -8.020  0.9133E+00  0.1344E+01
  -8.010  0.9193E+00  0.1354E+01
  -8.000  0.9298E+00  0.1363E+01
  -7.990  0.9450E+00  0.1372E+01
  -7.980  0.9648E+00  0.1382E+01
  -7.970  0.9890E+00  0.1392E+01
  -7.960  0.1017E+01  0.1402E+01
  -7.950  0.1049E+01  0.1413E+01
  -7.940  0.1083E+01  0.1423E+01
  -7.930  0.1120E+01  0.1435E+01
  -7.920  0.1157E+01  0.1446E+01
  -7.910  0.1196E+01  0.1458E+01
  -7.900  0.1233E+01  0.1470E+01
  -7.890  0.1269E+01  0.1483E+01
  -7.880  0.1303E+01  0.1496E+01
  -7.870  0.1333E+01  0.1510E+01
  -7.860  0.1360E+01  0.1523E+01
  -7.850  0.1383E+01  0.1537E+01
  -7.840  0.1401E+01  0.1551E+01
  -7.830  0.1415E+01  0.1565E+01
  -7.820  0.1424E+01  0.1579E+01
  -7.810  0.1429E+01  0.1594E+01
  -7.800  0.1430E+01  0.1608E+01
  -7.790  0.1428E+01  0.1622E+01
  -7.780  0.1424E+01  0.1636E+01
  -7.770  0.1417E+01  0.1651E+01
  -7.760  0.1409E+01  0.1665E+01
  -7.750  0.1400E+01  0.1679E+01
  -7.740  0.1391E+01  0.1693E+01
  -7.730  0.1381E+01  0.1706E+01
  -7.720  0.1373E+01  0.1720E+01
  -7.710  0.1365E+01  0.1734E+01
  -7.700  0.1357E+01  0.1747E+01
  -7.690  0.1350E+01  0.1761E+01
  -7.680  0.1343E+01  0.1774E+01
  -7.670  0.1337E+01  0.1788E+01
  -7.660  0.1329E+01  0.1801E+01
  -7.650  0.1322E+01  0.1814E+01
  -7.640  0.1312E+01  0.1827E+01
  -7.630  0.1302E+01  0.1840E+01
  -7.620  0.1289E+01  0.1853E+01
  -7.610  0.1273E+01  0.1866E+01
  -7.600  0.1255E+01  0.1878E+01
  -7.590  0.1234E+01  0.1891E+01
  -7.580  0.1210E+01  0.1903E+01
  -7.570  0.1183E+01  0.1915E+01
  -7.560  0.1153E+01  0.1926E+01
  -7.550  0.1120E+01  0.1937E+01
  -7.540  0.1085E+01  0.1948E+01
  -7.530  0.1048E+01  0.1959E+01
  -7.520  0.1009E+01  0.1969E+01
  -7.510  0.9703E+00  0.1979E+01
  -7.500  0.9312E+00  0.1988E+01
  -7.490  0.8927E+00  0.1997E+01
  -7.480  0.8557E+00  0.2005E+01
  -7.470  0.8208E+00  0.2014E+01
  -7.460  0.7887E+00  0.2021E+01
  -7.450  0.7601E+00  0.2029E+01
  -7.440  0.7353E+00  0.2036E+01
  -7.430  0.7148E+00  0.2044E+01
  -7.420  0.6988E+00  0.2051E+01
  -7.410  0.6876E+00  0.2057E+01
  -7.400  0.6810E+00  0.2064E+01
  -7.390  0.6789E+00  0.2071E+01
  -7.380  0.6810E+00  0.2078E+01
  -7.370  0.6870E+00  0.2085E+01
  -7.360  0.6966E+00  0.2092E+01
  -7.350  0.7091E+00  0.2099E+01
  -7.340  0.7242E+00  0.2106E+01
  -7.330  0.7414E+00  0.2113E+01
  -7.320  0.7603E+00  0.2121E+01
  -7.310  0.7805E+00  0.2129E+01
  -7.300  0.8017E+00  0.2137E+01
  -7.290  0.8237E+00  0.2145E+01
  -7.280  0.8461E+00  0.2154E+01
  -7.270  0.8689E+00  0.2162E+01
  -7.260  0.8919E+00  0.2171E+01
  -7.250  0.9150E+00  0.2180E+01
  -7.240  0.9380E+00  0.2190E+01
  -7.230  0.9609E+00  0.2199E+01
  -7.220  0.9834E+00  0.2209E+01
  -7.210  0.1005E+01  0.2219E+01
  -7.200  0.1027E+01  0.2229E+01
  -7.190  0.1047E+01  0.2240E+01
  -7.180  0.1066E+01  0.2251E+01
  -7.170  0.1084E+01  0.2261E+01
  -7.160  0.1100E+01  0.2272E+01
  -7.150  0.1115E+01  0.2284E+01
  -7.140  0.1128E+01  0.2295E+01
  -7.130  0.1139E+01  0.2306E+01
  -7.120  0.1147E+01  0.2318E+01
  -7.110  0.1154E+01  0.2329E+01
  -7.100  0.1159E+01  0.2341E+01
  -7.090  0.1162E+01  0.2352E+01
  -7.080  0.1162E+01  0.2364E+01
  -7.070  0.1161E+01  0.2376E+01
  -7.060  0.1157E+01  0.2387E+01
  -7.050  0.1152E+01  0.2399E+01
  -7.040  0.1144E+01  0.2410E+01
  -7.030  0.1133E+01  0.2422E+01
  -7.020  0.1119E+01  0.2433E+01
  -7.010  0.1103E+01  0.2444E+01
  -7.000  0.1083E+01  0.2455E+01
  -6.990  0.1060E+01  0.2465E+01
  -6.980  0.1033E+01  0.2476E+01
  -6.970  0.1003E+01  0.2486E+01
  -6.960  0.9685E+00  0.2495E+01
  -6.950  0.9306E+00  0.2505E+01
  -6.940  0.8892E+00  0.2513E+01
  -6.930  0.8449E+00  0.2522E+01
  -6.920  0.7981E+00  0.2530E+01
  -6.910  0.7494E+00  0.2537E+01
  -6.900  0.6996E+00  0.2544E+01
  -6.890  0.6496E+00  0.2551E+01
  -6.880  0.6002E+00  0.2557E+01
  -6.870  0.5525E+00  0.2562E+01
  -6.860  0.5074E+00  0.2567E+01
  -6.850  0.4659E+00  0.2572E+01
  -6.840  0.4289E+00  0.2576E+01
  -6.830  0.3973E+00  0.2580E+01
  -6.820  0.3717E+00  0.2584E+01
  -6.810  0.3529E+00  0.2588E+01
  -6.800  0.3413E+00  0.2591E+01
  -6.790  0.3373E+00  0.2594E+01
  -6.780  0.3411E+00  0.2598E+01
  -6.770  0.3528E+00  0.2601E+01
  -6.760  0.3724E+00  0.2605E+01
  -6.750  0.3994E+00  0.2609E+01
  -6.740  0.4336E+00  0.2613E+01
  -6.730  0.4744E+00  0.2618E+01
  -6.720  0.5209E+00  0.2623E+01
  -6.710  0.5724E+00  0.2629E+01
  -6.700  0.6279E+00  0.2635E+01
  -6.690  0.6862E+00  0.2642E+01
  -6.680  0.7462E+00  0.2650E+01
  -6.670  0.8065E+00  0.2658E+01
  -6.660  0.8659E+00  0.2666E+01
  -6.650  0.9231E+00  0.2676E+01
  -6.640  0.9769E+00  0.2685E+01
  -6.630  0.1026E+01  0.2696E+01
  -6.620  0.1069E+01  0.2706E+01
  -6.610  0.1106E+01  0.2717E+01
  -6.600  0.1136E+01  0.2729E+01
  -6.590  0.1157E+01  0.2740E+01
  -6.580  0.1170E+01  0.2752E+01
  -6.570  0.1175E+01  0.2764E+01
  -6.560  0.1171E+01  0.2776E+01
  -6.550  0.1159E+01  0.2787E+01
  -6.540  0.1139E+01  0.2799E+01
  -6.530  0.1113E+01  0.2810E+01
  -6.520  0.1080E+01  0.2820E+01
  -6.510  0.1042E+01  0.2831E+01
  -6.500  0.1000E+01  0.2841E+01
  -6.490  0.9558E+00  0.2850E+01
  -6.480  0.9097E+00  0.2860E+01
  -6.470  0.8633E+00  0.2868E+01
  -6.460  0.8178E+00  0.2876E+01
  -6.450  0.7742E+00  0.2884E+01
  -6.440  0.7337E+00  0.2891E+01
  -6.430  0.6971E+00  0.2898E+01
  -6.420  0.6652E+00  0.2905E+01
  -6.410  0.6383E+00  0.2911E+01
  -6.400  0.6169E+00  0.2918E+01
  -6.390  0.6009E+00  0.2924E+01
  -6.380  0.5904E+00  0.2929E+01
  -6.370  0.5849E+00  0.2935E+01
  -6.360  0.5840E+00  0.2941E+01
  -6.350  0.5870E+00  0.2947E+01
  -6.340  0.5932E+00  0.2953E+01
  -6.330  0.6017E+00  0.2959E+01
  -6.320  0.6117E+00  0.2965E+01
  -6.310  0.6224E+00  0.2971E+01
  -6.300  0.6331E+00  0.2978E+01
  -6.290  0.6430E+00  0.2984E+01
  -6.280  0.6517E+00  0.2991E+01
  -6.270  0.6588E+00  0.2997E+01
  -6.260  0.6641E+00  0.3004E+01
  -6.250  0.6677E+00  0.3011E+01
  -6.240  0.6696E+00  0.3017E+01
  -6.230  0.6701E+00  0.3024E+01
  -6.220  0.6695E+00  0.3031E+01
  -6.210  0.6684E+00  0.3037E+01
  -6.200  0.6672E+00  0.3044E+01
  -6.190  0.6664E+00  0.3051E+01
  -6.180  0.6664E+00  0.3057E+01
  -6.170  0.6676E+00  0.3064E+01
  -6.160  0.6703E+00  0.3071E+01
  -6.150  0.6747E+00  0.3077E+01
  -6.140  0.6809E+00  0.3084E+01
  -6.130  0.6888E+00  0.3091E+01
  -6.120  0.6983E+00  0.3098E+01
  -6.110  0.7092E+00  0.3105E+01
  -6.100  0.7210E+00  0.3112E+01
  -6.090  0.7335E+00  0.3120E+01
  -6.080  0.7461E+00  0.3127E+01
  -6.070  0.7585E+00  0.3135E+01
  -6.060  0.7702E+00  0.3142E+01
  -6.050  0.7809E+00  0.3150E+01
  -6.040  0.7900E+00  0.3158E+01
  -6.030  0.7974E+00  0.3166E+01
  -6.020  0.8028E+00  0.3174E+01
  -6.010  0.8061E+00  0.3182E+01
  -6.000  0.8072E+00  0.3190E+01
  -5.990  0.8061E+00  0.3198E+01
  -5.980  0.8031E+00  0.3206E+01
  -5.970  0.7982E+00  0.3214E+01
  -5.960  0.7918E+00  0.3222E+01
  -5.950  0.7842E+00  0.3230E+01
  -5.940  0.7758E+00  0.3238E+01
  -5.930  0.7668E+00  0.3246E+01
  -5.920  0.7578E+00  0.3253E+01
  -5.910  0.7491E+00  0.3261E+01
  -5.900  0.7409E+00  0.3268E+01
  -5.890  0.7335E+00  0.3275E+01
  -5.880  0.7271E+00  0.3283E+01
  -5.870  0.7218E+00  0.3290E+01
  -5.860  0.7177E+00  0.3297E+01
  -5.850  0.7147E+00  0.3304E+01
  -5.840  0.7127E+00  0.3311E+01
  -5.830  0.7117E+00  0.3318E+01
  -5.820  0.7115E+00  0.3326E+01
  -5.810  0.7119E+00  0.3333E+01
  -5.800  0.7129E+00  0.3340E+01
  -5.790  0.7142E+00  0.3347E+01
  -5.780  0.7159E+00  0.3354E+01
  -5.770  0.7178E+00  0.3361E+01
  -5.760  0.7200E+00  0.3369E+01
  -5.750  0.7224E+00  0.3376E+01
  -5.740  0.7250E+00  0.3383E+01
  -5.730  0.7278E+00  0.3390E+01
  -5.720  0.7307E+00  0.3398E+01
  -5.710  0.7336E+00  0.3405E+01
  -5.700  0.7364E+00  0.3412E+01
  -5.690  0.7388E+00  0.3420E+01
  -5.680  0.7405E+00  0.3427E+01
  -5.670  0.7412E+00  0.3434E+01
  -5.660  0.7406E+00  0.3442E+01
  -5.650  0.7382E+00  0.3449E+01
  -5.640  0.7337E+00  0.3457E+01
  -5.630  0.7269E+00  0.3464E+01
  -5.620  0.7175E+00  0.3471E+01
  -5.610  0.7054E+00  0.3478E+01
  -5.600  0.6906E+00  0.3485E+01
  -5.590  0.6734E+00  0.3492E+01
  -5.580  0.6540E+00  0.3498E+01
  -5.570  0.6330E+00  0.3505E+01
  -5.560  0.6110E+00  0.3511E+01
  -5.550  0.5886E+00  0.3517E+01
  -5.540  0.5668E+00  0.3522E+01
  -5.530  0.5464E+00  0.3528E+01
  -5.520  0.5284E+00  0.3533E+01
  -5.510  0.5135E+00  0.3538E+01
  -5.500  0.5025E+00  0.3543E+01
  -5.490  0.4963E+00  0.3548E+01
  -5.480  0.4952E+00  0.3553E+01
  -5.470  0.4996E+00  0.3558E+01
  -5.460  0.5098E+00  0.3563E+01
  -5.450  0.5256E+00  0.3568E+01
  -5.440  0.5468E+00  0.3574E+01
  -5.430  0.5731E+00  0.3580E+01
  -5.420  0.6037E+00  0.3586E+01
  -5.410  0.6379E+00  0.3592E+01
  -5.400  0.6747E+00  0.3599E+01
  -5.390  0.7132E+00  0.3606E+01
  -5.380  0.7524E+00  0.3613E+01
  -5.370  0.7910E+00  0.3621E+01
  -5.360  0.8282E+00  0.3630E+01
  -5.350  0.8629E+00  0.3638E+01
  -5.340  0.8942E+00  0.3647E+01
  -5.330  0.9215E+00  0.3656E+01
  -5.320  0.9441E+00  0.3666E+01
  -5.310  0.9617E+00  0.3675E+01
  -5.300  0.9740E+00  0.3685E+01
  -5.290  0.9810E+00  0.3695E+01
  -5.280  0.9827E+00  0.3705E+01
  -5.270  0.9795E+00  0.3715E+01
  -5.260  0.9717E+00  0.3724E+01
  -5.250  0.9598E+00  0.3734E+01
  -5.240  0.9442E+00  0.3743E+01
  -5.230  0.9256E+00  0.3753E+01
  -5.220  0.9045E+00  0.3762E+01
  -5.210  0.8815E+00  0.3771E+01
  -5.200  0.8571E+00  0.3779E+01
  -5.190  0.8317E+00  0.3787E+01
  -5.180  0.8057E+00  0.3795E+01
  -5.170  0.7795E+00  0.3803E+01
  -5.160  0.7533E+00  0.3811E+01
  -5.150  0.7274E+00  0.3818E+01
  -5.140  0.7019E+00  0.3825E+01
  -5.130  0.6770E+00  0.3832E+01
  -5.120  0.6528E+00  0.3838E+01
  -5.110  0.6295E+00  0.3845E+01
  -5.100  0.6071E+00  0.3851E+01
  -5.090  0.5856E+00  0.3857E+01
  -5.080  0.5653E+00  0.3862E+01
  -5.070  0.5460E+00  0.3868E+01
  -5.060  0.5279E+00  0.3873E+01
  -5.050  0.5110E+00  0.3878E+01
  -5.040  0.4952E+00  0.3883E+01
  -5.030  0.4805E+00  0.3888E+01
  -5.020  0.4669E+00  0.3893E+01
  -5.010  0.4542E+00  0.3897E+01
  -5.000  0.4424E+00  0.3902E+01
  -4.990  0.4315E+00  0.3906E+01
  -4.980  0.4214E+00  0.3910E+01
  -4.970  0.4121E+00  0.3914E+01
  -4.960  0.4038E+00  0.3918E+01
  -4.950  0.3964E+00  0.3922E+01
  -4.940  0.3903E+00  0.3926E+01
  -4.930  0.3857E+00  0.3930E+01
  -4.920  0.3830E+00  0.3934E+01
  -4.910  0.3824E+00  0.3938E+01
  -4.900  0.3844E+00  0.3941E+01
  -4.890  0.3895E+00  0.3945E+01
  -4.880  0.3979E+00  0.3949E+01
  -4.870  0.4100E+00  0.3953E+01
  -4.860  0.4261E+00  0.3958E+01
  -4.850  0.4462E+00  0.3962E+01
  -4.840  0.4703E+00  0.3967E+01
  -4.830  0.4984E+00  0.3972E+01
  -4.820  0.5300E+00  0.3977E+01
  -4.810  0.5648E+00  0.3983E+01
  -4.800  0.6022E+00  0.3989E+01
  -4.790  0.6415E+00  0.3995E+01
  -4.780  0.6820E+00  0.4002E+01
  -4.770  0.7228E+00  0.4009E+01
  -4.760  0.7631E+00  0.4017E+01
  -4.750  0.8020E+00  0.4025E+01
  -4.740  0.8388E+00  0.4033E+01
  -4.730  0.8728E+00  0.4042E+01
  -4.720  0.9032E+00  0.4051E+01
  -4.710  0.9295E+00  0.4060E+01
  -4.700  0.9515E+00  0.4070E+01
  -4.690  0.9687E+00  0.4080E+01
  -4.680  0.9810E+00  0.4089E+01
  -4.670  0.9883E+00  0.4099E+01
  -4.660  0.9906E+00  0.4109E+01
  -4.650  0.9881E+00  0.4119E+01
  -4.640  0.9810E+00  0.4129E+01
  -4.630  0.9694E+00  0.4139E+01
  -4.620  0.9537E+00  0.4148E+01
  -4.610  0.9342E+00  0.4157E+01
  -4.600  0.9111E+00  0.4167E+01
  -4.590  0.8850E+00  0.4175E+01
  -4.580  0.8562E+00  0.4184E+01
  -4.570  0.8251E+00  0.4192E+01
  -4.560  0.7922E+00  0.4200E+01
  -4.550  0.7581E+00  0.4208E+01
  -4.540  0.7232E+00  0.4215E+01
  -4.530  0.6882E+00  0.4222E+01
  -4.520  0.6536E+00  0.4228E+01
  -4.510  0.6200E+00  0.4235E+01
  -4.500  0.5880E+00  0.4240E+01
  -4.490  0.5581E+00  0.4246E+01
  -4.480  0.5310E+00  0.4251E+01
  -4.470  0.5072E+00  0.4256E+01
  -4.460  0.4871E+00  0.4261E+01
  -4.450  0.4710E+00  0.4266E+01
  -4.440  0.4593E+00  0.4271E+01
  -4.430  0.4523E+00  0.4275E+01
  -4.420  0.4499E+00  0.4280E+01
  -4.410  0.4522E+00  0.4284E+01
  -4.400  0.4591E+00  0.4289E+01
  -4.390  0.4704E+00  0.4293E+01
  -4.380  0.4857E+00  0.4298E+01
  -4.370  0.5046E+00  0.4303E+01
  -4.360  0.5266E+00  0.4309E+01
  -4.350  0.5509E+00  0.4314E+01
  -4.340  0.5770E+00  0.4320E+01
  -4.330  0.6039E+00  0.4326E+01
  -4.320  0.6310E+00  0.4332E+01
  -4.310  0.6572E+00  0.4339E+01
  -4.300  0.6818E+00  0.4346E+01
  -4.290  0.7039E+00  0.4353E+01
  -4.280  0.7227E+00  0.4360E+01
  -4.270  0.7376E+00  0.4367E+01
  -4.260  0.7480E+00  0.4375E+01
  -4.250  0.7534E+00  0.4382E+01
  -4.240  0.7536E+00  0.4390E+01
  -4.230  0.7484E+00  0.4397E+01
  -4.220  0.7379E+00  0.4405E+01
  -4.210  0.7223E+00  0.4412E+01
  -4.200  0.7021E+00  0.4419E+01
  -4.190  0.6777E+00  0.4426E+01
  -4.180  0.6499E+00  0.4432E+01
  -4.170  0.6193E+00  0.4438E+01
  -4.160  0.5867E+00  0.4444E+01
  -4.150  0.5531E+00  0.4450E+01
  -4.140  0.5192E+00  0.4455E+01
  -4.130  0.4858E+00  0.4460E+01
  -4.120  0.4536E+00  0.4464E+01
  -4.110  0.4232E+00  0.4469E+01
  -4.100  0.3951E+00  0.4473E+01
  -4.090  0.3698E+00  0.4476E+01
  -4.080  0.3475E+00  0.4480E+01
  -4.070  0.3285E+00  0.4483E+01
  -4.060  0.3128E+00  0.4486E+01
  -4.050  0.3005E+00  0.4489E+01
  -4.040  0.2915E+00  0.4492E+01
  -4.030  0.2857E+00  0.4495E+01
  -4.020  0.2829E+00  0.4498E+01
  -4.010  0.2831E+00  0.4501E+01
  -4.000  0.2858E+00  0.4503E+01
  -3.990  0.2909E+00  0.4506E+01
  -3.980  0.2980E+00  0.4509E+01
  -3.970  0.3068E+00  0.4512E+01
  -3.960  0.3170E+00  0.4516E+01
  -3.950  0.3282E+00  0.4519E+01
  -3.940  0.3399E+00  0.4522E+01
  -3.930  0.3517E+00  0.4526E+01
  -3.920  0.3632E+00  0.4529E+01
  -3.910  0.3740E+00  0.4533E+01
  -3.900  0.3837E+00  0.4537E+01
  -3.890  0.3918E+00  0.4541E+01
  -3.880  0.3981E+00  0.4545E+01
  -3.870  0.4023E+00  0.4549E+01
  -3.860  0.4043E+00  0.4553E+01
  -3.850  0.4038E+00  0.4557E+01
  -3.840  0.4010E+00  0.4561E+01
  -3.830  0.3958E+00  0.4565E+01
  -3.820  0.3885E+00  0.4569E+01
  -3.810  0.3792E+00  0.4573E+01
  -3.800  0.3683E+00  0.4576E+01
  -3.790  0.3560E+00  0.4580E+01
  -3.780  0.3426E+00  0.4583E+01
  -3.770  0.3285E+00  0.4587E+01
  -3.760  0.3139E+00  0.4590E+01
  -3.750  0.2992E+00  0.4593E+01
  -3.740  0.2845E+00  0.4596E+01
  -3.730  0.2700E+00  0.4598E+01
  -3.720  0.2557E+00  0.4601E+01
  -3.710  0.2419E+00  0.4603E+01
  -3.700  0.2285E+00  0.4605E+01
  -3.690  0.2154E+00  0.4608E+01
  -3.680  0.2027E+00  0.4610E+01
  -3.670  0.1903E+00  0.4612E+01
  -3.660  0.1781E+00  0.4613E+01
  -3.650  0.1662E+00  0.4615E+01
  -3.640  0.1544E+00  0.4617E+01
  -3.630  0.1428E+00  0.4618E+01
  -3.620  0.1313E+00  0.4619E+01
  -3.610  0.1200E+00  0.4620E+01
  -3.600  0.1090E+00  0.4622E+01
  -3.590  0.9833E-01  0.4623E+01
  -3.580  0.8800E-01  0.4623E+01
  -3.570  0.7813E-01  0.4624E+01
  -3.560  0.6878E-01  0.4625E+01
  -3.550  0.6002E-01  0.4626E+01
  -3.540  0.5190E-01  0.4626E+01
  -3.530  0.4446E-01  0.4626E+01
  -3.520  0.3773E-01  0.4627E+01
  -3.510  0.3170E-01  0.4627E+01
  -3.500  0.2638E-01  0.4627E+01
  -3.490  0.2173E-01  0.4628E+01
  -3.480  0.1771E-01  0.4628E+01
  -3.470  0.1429E-01  0.4628E+01
  -3.460  0.1142E-01  0.4628E+01
  -3.450  0.9024E-02  0.4628E+01
  -3.440  0.7058E-02  0.4628E+01
  -3.430  0.5462E-02  0.4628E+01
  -3.420  0.4183E-02  0.4628E+01
  -3.410  0.3170E-02  0.4628E+01
  -3.400  0.2376E-02  0.4628E+01
  -3.390  0.1762E-02  0.4628E+01
  -3.380  0.1293E-02  0.4628E+01
  -3.370  0.9390E-03  0.4628E+01
  -3.360  0.6745E-03  0.4628E+01
  -3.350  0.4793E-03  0.4628E+01
  -3.340  0.3370E-03  0.4628E+01
  -3.330  0.2344E-03  0.4628E+01
  -3.320  0.1613E-03  0.4628E+01
  -3.310  0.1098E-03  0.4628E+01
  -3.300  0.7391E-04  0.4628E+01
  -3.290  0.4924E-04  0.4628E+01
  -3.280  0.3245E-04  0.4628E+01
  -3.270  0.2116E-04  0.4628E+01
  -3.260  0.1364E-04  0.4628E+01
  -3.250  0.8706E-05  0.4628E+01
  -3.240  0.5495E-05  0.4628E+01
  -3.230  0.3431E-05  0.4628E+01
  -3.220  0.2119E-05  0.4628E+01
  -3.210  0.1295E-05  0.4628E+01
  -3.200  0.7829E-06  0.4628E+01
  -3.190  0.4682E-06  0.4628E+01
  -3.180  0.2770E-06  0.4628E+01
  -3.170  0.1621E-06  0.4628E+01
  -3.160  0.9385E-07  0.4628E+01
  -3.150  0.5375E-07  0.4628E+01
  -3.140  0.3045E-07  0.4628E+01
  -3.130  0.1707E-07  0.4628E+01
  -3.120  0.9464E-08  0.4628E+01
  -3.110  0.5191E-08  0.4628E+01
  -3.100  0.2817E-08  0.4628E+01
  -3.090  0.1512E-08  0.4628E+01
  -3.080  0.8029E-09  0.4628E+01
  -3.070  0.4218E-09  0.4628E+01
  -3.060  0.2192E-09  0.4628E+01
  -3.050  0.1127E-09  0.4628E+01
  -3.040  0.5730E-10  0.4628E+01
  -3.030  0.2883E-10  0.4628E+01
  -3.020  0.1435E-10  0.4628E+01
  -3.010  0.7064E-11  0.4628E+01
  -3.000  0.3441E-11  0.4628E+01
  -2.990  0.1658E-11  0.4628E+01
  -2.980  0.7901E-12  0.4628E+01
  -2.970  0.3726E-12  0.4628E+01
  -2.960  0.1738E-12  0.4628E+01
  -2.950  0.8019E-13  0.4628E+01
  -2.940  0.3660E-13  0.4628E+01
  -2.930  0.1653E-13  0.4628E+01
  -2.920  0.7384E-14  0.4628E+01
  -2.910  0.3263E-14  0.4628E+01
  -2.900  0.1427E-14  0.4628E+01
  -2.890  0.6170E-15  0.4628E+01
  -2.880  0.2640E-15  0.4628E+01
  -2.870  0.1117E-15  0.4628E+01
  -2.860  0.4677E-16  0.4628E+01
  -2.850  0.1937E-16  0.4628E+01
  -2.840  0.7937E-17  0.4628E+01
  -2.830  0.3217E-17  0.4628E+01
  -2.820  0.1290E-17  0.4628E+01
  -2.810  0.5117E-18  0.4628E+01
  -2.800  0.2008E-18  0.4628E+01
  -2.790  0.7795E-19  0.4628E+01
  -2.780  0.2993E-19  0.4628E+01
  -2.770  0.1137E-19  0.4628E+01
  -2.760  0.4273E-20  0.4628E+01
  -2.750  0.1589E-20  0.4628E+01
  -2.740  0.5843E-21  0.4628E+01
  -2.730  0.2126E-21  0.4628E+01
  -2.720  0.7650E-22  0.4628E+01
  -2.710  0.2724E-22  0.4628E+01
  -2.700  0.9594E-23  0.4628E+01
  -2.690  0.3343E-23  0.4628E+01
  -2.680  0.1152E-23  0.4628E+01
  -2.670  0.3929E-24  0.4628E+01
  -2.660  0.1325E-24  0.4628E+01
  -2.650  0.4422E-25  0.4628E+01
  -2.640  0.1460E-25  0.4628E+01
  -2.630  0.4767E-26  0.4628E+01
  -2.620  0.1540E-26  0.4628E+01
  -2.610  0.4922E-27  0.4628E+01
  -2.600  0.1556E-27  0.4628E+01
  -2.590  0.4866E-28  0.4628E+01
  -2.580  0.1506E-28  0.4628E+01
  -2.570  0.4608E-29  0.4628E+01
  -2.560  0.1395E-29  0.4628E+01
  -2.550  0.4179E-30  0.4628E+01
  -2.540  0.1238E-30  0.4628E+01
  -2.530  0.3629E-31  0.4628E+01
  -2.520  0.1052E-31  0.4628E+01
  -2.510  0.3019E-32  0.4628E+01
  -2.500  0.8567E-33  0.4628E+01
  -2.490  0.2405E-33  0.4628E+01
  -2.480  0.6678E-34  0.4628E+01
  -2.470  0.1835E-34  0.4628E+01
  -2.460  0.4986E-35  0.4628E+01
  -2.450  0.1340E-35  0.4628E+01
  -2.440  0.3565E-36  0.4628E+01
  -2.430  0.9380E-37  0.4628E+01
  -2.420  0.2441E-37  0.4628E+01
  -2.410  0.6286E-38  0.4628E+01
  -2.400  0.1601E-38  0.4628E+01
  -2.390  0.4034E-39  0.4628E+01
  -2.380  0.1006E-39  0.4628E+01
  -2.370  0.2480E-40  0.4628E+01
  -2.360  0.6049E-41  0.4628E+01
  -2.350  0.1460E-41  0.4628E+01
  -2.340  0.3484E-42  0.4628E+01
  -2.330  0.8229E-43  0.4628E+01
  -2.320  0.1922E-43  0.4628E+01
  -2.310  0.4443E-44  0.4628E+01
  -2.300  0.1016E-44  0.4628E+01
  -2.290  0.2297E-45  0.4628E+01
  -2.280  0.5140E-46  0.4628E+01
  -2.270  0.1138E-46  0.4628E+01
  -2.260  0.2491E-47  0.4628E+01
  -2.250  0.5395E-48  0.4628E+01
  -2.240  0.1156E-48  0.4628E+01
  -2.230  0.2451E-49  0.4628E+01
  -2.220  0.5139E-50  0.4628E+01
  -2.210  0.1066E-50  0.4628E+01
  -2.200  0.2187E-51  0.4628E+01
  -2.190  0.4441E-52  0.4628E+01
  -2.180  0.8918E-53  0.4628E+01
  -2.170  0.1772E-53  0.4628E+01
  -2.160  0.3482E-54  0.4628E+01
  -2.150  0.6770E-55  0.4628E+01
  -2.140  0.1302E-55  0.4628E+01
  -2.130  0.2477E-56  0.4628E+01
  -2.120  0.4663E-57  0.4628E+01
  -2.110  0.8682E-58  0.4628E+01
  -2.100  0.1599E-58  0.4628E+01
  -2.090  0.2914E-59  0.4628E+01
  -2.080  0.5252E-60  0.4628E+01
  -2.070  0.9366E-61  0.4628E+01
  -2.060  0.1652E-61  0.4628E+01
  -2.050  0.2883E-62  0.4628E+01
  -2.040  0.4978E-63  0.4628E+01
  -2.030  0.8501E-64  0.4628E+01
  -2.020  0.1436E-64  0.4628E+01
  -2.010  0.2400E-65  0.4628E+01
  -2.000  0.3968E-66  0.4628E+01
  -1.990  0.6490E-67  0.4628E+01
  -1.980  0.1050E-67  0.4628E+01
  -1.970  0.1681E-68  0.4628E+01
  -1.960  0.2661E-69  0.4628E+01
  -1.950  0.4169E-70  0.4628E+01
  -1.940  0.6460E-71  0.4628E+01
  -1.930  0.9902E-72  0.4628E+01
  -1.920  0.1502E-72  0.4628E+01
  -1.910  0.2253E-73  0.4628E+01
  -1.900  0.3343E-74  0.4628E+01
  -1.890  0.4907E-75  0.4628E+01
  -1.880  0.7127E-76  0.4628E+01
  -1.870  0.1024E-76  0.4628E+01
  -1.860  0.1455E-77  0.4628E+01
  -1.850  0.2046E-78  0.4628E+01
  -1.840  0.2846E-79  0.4628E+01
  -1.830  0.3916E-80  0.4628E+01
  -1.820  0.5330E-81  0.4628E+01
  -1.810  0.7185E-82  0.4628E+01
  -1.800  0.9650E-83  0.4628E+01
  -1.790  0.1351E-83  0.4628E+01
  -1.780  0.2558E-84  0.4628E+01
  -1.770  0.1128E-84  0.4628E+01
  -1.760  0.9435E-85  0.4628E+01
  -1.750  0.9199E-85  0.4628E+01
  -1.740  0.9182E-85  0.4628E+01
  -1.730  0.9182E-85  0.4628E+01
  -1.720  0.9182E-85  0.4628E+01
  -1.710  0.9182E-85  0.4628E+01
  -1.700  0.9182E-85  0.4628E+01
  -1.690  0.9182E-85  0.4628E+01
  -1.680  0.9182E-85  0.4628E+01
  -1.670  0.9182E-85  0.4628E+01
  -1.660  0.9182E-85  0.4628E+01
  -1.650  0.9182E-85  0.4628E+01
  -1.640  0.9182E-85  0.4628E+01
  -1.630  0.9182E-85  0.4628E+01
  -1.620  0.9182E-85  0.4628E+01
  -1.610  0.9182E-85  0.4628E+01
  -1.600  0.9182E-85  0.4628E+01
  -1.590  0.9182E-85  0.4628E+01
  -1.580  0.9182E-85  0.4628E+01
  -1.570  0.9182E-85  0.4628E+01
  -1.560  0.9182E-85  0.4628E+01
  -1.550  0.9182E-85  0.4628E+01
  -1.540  0.9182E-85  0.4628E+01
  -1.530  0.9182E-85  0.4628E+01
  -1.520  0.9182E-85  0.4628E+01
  -1.510  0.9182E-85  0.4628E+01
  -1.500  0.9182E-85  0.4628E+01
  -1.490  0.9182E-85  0.4628E+01
  -1.480  0.9182E-85  0.4628E+01
  -1.470  0.9182E-85  0.4628E+01
  -1.460  0.9182E-85  0.4628E+01
  -1.450  0.9182E-85  0.4628E+01
  -1.440  0.9182E-85  0.4628E+01
  -1.430  0.9182E-85  0.4628E+01
  -1.420  0.9182E-85  0.4628E+01
  -1.410  0.9182E-85  0.4628E+01
  -1.400  0.9182E-85  0.4628E+01
  -1.390  0.9182E-85  0.4628E+01
  -1.380  0.9182E-85  0.4628E+01
  -1.370  0.9182E-85  0.4628E+01
  -1.360  0.9182E-85  0.4628E+01
  -1.350  0.9182E-85  0.4628E+01
  -1.340  0.9182E-85  0.4628E+01
  -1.330  0.9182E-85  0.4628E+01
  -1.320  0.9182E-85  0.4628E+01
  -1.310  0.9182E-85  0.4628E+01
  -1.300  0.9182E-85  0.4628E+01
  -1.290  0.9182E-85  0.4628E+01
  -1.280  0.9182E-85  0.4628E+01
  -1.270  0.9182E-85  0.4628E+01
  -1.260  0.9182E-85  0.4628E+01
  -1.250  0.9182E-85  0.4628E+01
  -1.240  0.9182E-85  0.4628E+01
  -1.230  0.9182E-85  0.4628E+01
  -1.220  0.9182E-85  0.4628E+01
  -1.210  0.9182E-85  0.4628E+01
  -1.200  0.9182E-85  0.4628E+01
  -1.190  0.9182E-85  0.4628E+01
  -1.180  0.9182E-85  0.4628E+01
  -1.170  0.9185E-85  0.4628E+01
  -1.160  0.9224E-85  0.4628E+01
  -1.150  0.9533E-85  0.4628E+01
  -1.140  0.1192E-84  0.4628E+01
  -1.130  0.3024E-84  0.4628E+01
  -1.120  0.1690E-83  0.4628E+01
  -1.110  0.1209E-82  0.4628E+01
  -1.100  0.8919E-82  0.4628E+01
  -1.090  0.6547E-81  0.4628E+01
  -1.080  0.4758E-80  0.4628E+01
  -1.070  0.3420E-79  0.4628E+01
  -1.060  0.2433E-78  0.4628E+01
  -1.050  0.1712E-77  0.4628E+01
  -1.040  0.1191E-76  0.4628E+01
  -1.030  0.8203E-76  0.4628E+01
  -1.020  0.5588E-75  0.4628E+01
  -1.010  0.3765E-74  0.4628E+01
  -1.000  0.2510E-73  0.4628E+01
  -0.990  0.1655E-72  0.4628E+01
  -0.980  0.1080E-71  0.4628E+01
  -0.970  0.6968E-71  0.4628E+01
  -0.960  0.4448E-70  0.4628E+01
  -0.950  0.2809E-69  0.4628E+01
  -0.940  0.1755E-68  0.4628E+01
  -0.930  0.1085E-67  0.4628E+01
  -0.920  0.6632E-67  0.4628E+01
  -0.910  0.4011E-66  0.4628E+01
  -0.900  0.2400E-65  0.4628E+01
  -0.890  0.1421E-64  0.4628E+01
  -0.880  0.8319E-64  0.4628E+01
  -0.870  0.4819E-63  0.4628E+01
  -0.860  0.2761E-62  0.4628E+01
  -0.850  0.1565E-61  0.4628E+01
  -0.840  0.8777E-61  0.4628E+01
  -0.830  0.4869E-60  0.4628E+01
  -0.820  0.2672E-59  0.4628E+01
  -0.810  0.1451E-58  0.4628E+01
  -0.800  0.7791E-58  0.4628E+01
  -0.790  0.4139E-57  0.4628E+01
  -0.780  0.2176E-56  0.4628E+01
  -0.770  0.1131E-55  0.4628E+01
  -0.760  0.5818E-55  0.4628E+01
  -0.750  0.2960E-54  0.4628E+01
  -0.740  0.1490E-53  0.4628E+01
  -0.730  0.7419E-53  0.4628E+01
  -0.720  0.3655E-52  0.4628E+01
  -0.710  0.1781E-51  0.4628E+01
  -0.700  0.8585E-51  0.4628E+01
  -0.690  0.4094E-50  0.4628E+01
  -0.680  0.1931E-49  0.4628E+01
  -0.670  0.9014E-49  0.4628E+01
  -0.660  0.4161E-48  0.4628E+01
  -0.650  0.1900E-47  0.4628E+01
  -0.640  0.8586E-47  0.4628E+01
  -0.630  0.3838E-46  0.4628E+01
  -0.620  0.1697E-45  0.4628E+01
  -0.610  0.7422E-45  0.4628E+01
  -0.600  0.3211E-44  0.4628E+01
  -0.590  0.1375E-43  0.4628E+01
  -0.580  0.5821E-43  0.4628E+01
  -0.570  0.2438E-42  0.4628E+01
  -0.560  0.1010E-41  0.4628E+01
  -0.550  0.4142E-41  0.4628E+01
  -0.540  0.1680E-40  0.4628E+01
  -0.530  0.6738E-40  0.4628E+01
  -0.520  0.2674E-39  0.4628E+01
  -0.510  0.1050E-38  0.4628E+01
  -0.500  0.4078E-38  0.4628E+01
  -0.490  0.1567E-37  0.4628E+01
  -0.480  0.5955E-37  0.4628E+01
  -0.470  0.2239E-36  0.4628E+01
  -0.460  0.8328E-36  0.4628E+01
  -0.450  0.3064E-35  0.4628E+01
  -0.440  0.1115E-34  0.4628E+01
  -0.430  0.4016E-34  0.4628E+01
  -0.420  0.1431E-33  0.4628E+01
  -0.410  0.5042E-33  0.4628E+01
  -0.400  0.1758E-32  0.4628E+01
  -0.390  0.6062E-32  0.4628E+01
  -0.380  0.2068E-31  0.4628E+01
  -0.370  0.6979E-31  0.4628E+01
  -0.360  0.2330E-30  0.4628E+01
  -0.350  0.7696E-30  0.4628E+01
  -0.340  0.2514E-29  0.4628E+01
  -0.330  0.8127E-29  0.4628E+01
  -0.320  0.2599E-28  0.4628E+01
  -0.310  0.8220E-28  0.4628E+01
  -0.300  0.2572E-27  0.4628E+01
  -0.290  0.7962E-27  0.4628E+01
  -0.280  0.2438E-26  0.4628E+01
  -0.270  0.7386E-26  0.4628E+01
  -0.260  0.2214E-25  0.4628E+01
  -0.250  0.6562E-25  0.4628E+01
  -0.240  0.1925E-24  0.4628E+01
  -0.230  0.5584E-24  0.4628E+01
  -0.220  0.1603E-23  0.4628E+01
  -0.210  0.4550E-23  0.4628E+01
  -0.200  0.1278E-22  0.4628E+01
  -0.190  0.3551E-22  0.4628E+01
  -0.180  0.9762E-22  0.4628E+01
  -0.170  0.2655E-21  0.4628E+01
  -0.160  0.7141E-21  0.4628E+01
  -0.150  0.1900E-20  0.4628E+01
  -0.140  0.5003E-20  0.4628E+01
  -0.130  0.1303E-19  0.4628E+01
  -0.120  0.3357E-19  0.4628E+01
  -0.110  0.8556E-19  0.4628E+01
  -0.100  0.2157E-18  0.4628E+01
  -0.090  0.5381E-18  0.4628E+01
  -0.080  0.1328E-17  0.4628E+01
  -0.070  0.3241E-17  0.4628E+01
  -0.060  0.7828E-17  0.4628E+01
  -0.050  0.1870E-16  0.4628E+01
  -0.040  0.4420E-16  0.4628E+01
  -0.030  0.1033E-15  0.4628E+01
  -0.020  0.2390E-15  0.4628E+01
  -0.010  0.5470E-15  0.4628E+01
   0.000  0.1238E-14  0.4628E+01
   0.010  0.2773E-14  0.4628E+01
   0.020  0.6143E-14  0.4628E+01
   0.030  0.1347E-13  0.4628E+01
   0.040  0.2920E-13  0.4628E+01
   0.050  0.6264E-13  0.4628E+01
   0.060  0.1329E-12  0.4628E+01
   0.070  0.2791E-12  0.4628E+01
   0.080  0.5797E-12  0.4628E+01
   0.090  0.1191E-11  0.4628E+01
   0.100  0.2422E-11  0.4628E+01
   0.110  0.4872E-11  0.4628E+01
   0.120  0.9696E-11  0.4628E+01
   0.130  0.1909E-10  0.4628E+01
   0.140  0.3719E-10  0.4628E+01
   0.150  0.7167E-10  0.4628E+01
   0.160  0.1367E-09  0.4628E+01
   0.170  0.2578E-09  0.4628E+01
   0.180  0.4813E-09  0.4628E+01
   0.190  0.8890E-09  0.4628E+01
   0.200  0.1625E-08  0.4628E+01
   0.210  0.2938E-08  0.4628E+01
   0.220  0.5257E-08  0.4628E+01
   0.230  0.9307E-08  0.4628E+01
   0.240  0.1631E-07  0.4628E+01
   0.250  0.2827E-07  0.4628E+01
   0.260  0.4850E-07  0.4628E+01
   0.270  0.8234E-07  0.4628E+01
   0.280  0.1384E-06  0.4628E+01
   0.290  0.2301E-06  0.4628E+01
   0.300  0.3787E-06  0.4628E+01
   0.310  0.6168E-06  0.4628E+01
   0.320  0.9946E-06  0.4628E+01
   0.330  0.1587E-05  0.4628E+01
   0.340  0.2508E-05  0.4628E+01
   0.350  0.3922E-05  0.4628E+01
   0.360  0.6071E-05  0.4628E+01
   0.370  0.9306E-05  0.4628E+01
   0.380  0.1412E-04  0.4628E+01
   0.390  0.2122E-04  0.4628E+01
   0.400  0.3158E-04  0.4628E+01
   0.410  0.4653E-04  0.4628E+01
   0.420  0.6789E-04  0.4628E+01
   0.430  0.9812E-04  0.4628E+01
   0.440  0.1405E-03  0.4628E+01
   0.450  0.1992E-03  0.4628E+01
   0.460  0.2797E-03  0.4628E+01
   0.470  0.3893E-03  0.4628E+01
   0.480  0.5367E-03  0.4628E+01
   0.490  0.7331E-03  0.4628E+01
   0.500  0.9923E-03  0.4628E+01
   0.510  0.1331E-02  0.4629E+01
   0.520  0.1769E-02  0.4629E+01
   0.530  0.2331E-02  0.4629E+01
   0.540  0.3043E-02  0.4629E+01
   0.550  0.3939E-02  0.4629E+01
   0.560  0.5052E-02  0.4629E+01
   0.570  0.6425E-02  0.4629E+01
   0.580  0.8098E-02  0.4629E+01
   0.590  0.1012E-01  0.4629E+01
   0.600  0.1253E-01  0.4629E+01
   0.610  0.1539E-01  0.4629E+01
   0.620  0.1874E-01  0.4629E+01
   0.630  0.2262E-01  0.4630E+01
   0.640  0.2706E-01  0.4630E+01
   0.650  0.3210E-01  0.4630E+01
   0.660  0.3774E-01  0.4631E+01
   0.670  0.4400E-01  0.4631E+01
   0.680  0.5086E-01  0.4632E+01
   0.690  0.5828E-01  0.4632E+01
   0.700  0.6622E-01  0.4633E+01
   0.710  0.7460E-01  0.4634E+01
   0.720  0.8333E-01  0.4634E+01
   0.730  0.9232E-01  0.4635E+01
   0.740  0.1014E+00  0.4636E+01
   0.750  0.1106E+00  0.4637E+01
   0.760  0.1196E+00  0.4639E+01
   0.770  0.1284E+00  0.4640E+01
   0.780  0.1369E+00  0.4641E+01
   0.790  0.1449E+00  0.4643E+01
   0.800  0.1525E+00  0.4644E+01
   0.810  0.1596E+00  0.4646E+01
   0.820  0.1662E+00  0.4647E+01
   0.830  0.1724E+00  0.4649E+01
   0.840  0.1782E+00  0.4651E+01
   0.850  0.1838E+00  0.4653E+01
   0.860  0.1893E+00  0.4655E+01
   0.870  0.1950E+00  0.4657E+01
   0.880  0.2009E+00  0.4659E+01
   0.890  0.2074E+00  0.4661E+01
   0.900  0.2146E+00  0.4663E+01
   0.910  0.2228E+00  0.4665E+01
   0.920  0.2320E+00  0.4667E+01
   0.930  0.2426E+00  0.4670E+01
   0.940  0.2546E+00  0.4672E+01
   0.950  0.2682E+00  0.4675E+01
   0.960  0.2835E+00  0.4678E+01
   0.970  0.3005E+00  0.4681E+01
   0.980  0.3194E+00  0.4684E+01
   0.990  0.3403E+00  0.4688E+01
   1.000  0.3633E+00  0.4691E+01
   1.010  0.3884E+00  0.4695E+01
   1.020  0.4157E+00  0.4699E+01
   1.030  0.4455E+00  0.4704E+01
   1.040  0.4778E+00  0.4708E+01
   1.050  0.5128E+00  0.4714E+01
   1.060  0.5506E+00  0.4719E+01
   1.070  0.5914E+00  0.4725E+01
   1.080  0.6352E+00  0.4731E+01
   1.090  0.6820E+00  0.4738E+01
   1.100  0.7318E+00  0.4745E+01
   1.110  0.7844E+00  0.4753E+01
   1.120  0.8396E+00  0.4762E+01
   1.130  0.8967E+00  0.4771E+01
   1.140  0.9554E+00  0.4780E+01
   1.150  0.1015E+01  0.4790E+01
   1.160  0.1074E+01  0.4801E+01
   1.170  0.1133E+01  0.4812E+01
   1.180  0.1189E+01  0.4824E+01
   1.190  0.1243E+01  0.4837E+01
   1.200  0.1292E+01  0.4850E+01
   1.210  0.1336E+01  0.4863E+01
   1.220  0.1374E+01  0.4877E+01
   1.230  0.1405E+01  0.4891E+01
   1.240  0.1429E+01  0.4905E+01
   1.250  0.1445E+01  0.4920E+01
   1.260  0.1454E+01  0.4934E+01
   1.270  0.1455E+01  0.4949E+01
   1.280  0.1449E+01  0.4963E+01
   1.290  0.1437E+01  0.4978E+01
   1.300  0.1419E+01  0.4992E+01
   1.310  0.1397E+01  0.5006E+01
   1.320  0.1371E+01  0.5019E+01
   1.330  0.1344E+01  0.5033E+01
   1.340  0.1316E+01  0.5046E+01
   1.350  0.1288E+01  0.5059E+01
   1.360  0.1261E+01  0.5071E+01
   1.370  0.1235E+01  0.5084E+01
   1.380  0.1212E+01  0.5096E+01
   1.390  0.1191E+01  0.5108E+01
   1.400  0.1173E+01  0.5120E+01
   1.410  0.1157E+01  0.5131E+01
   1.420  0.1142E+01  0.5143E+01
   1.430  0.1129E+01  0.5154E+01
   1.440  0.1116E+01  0.5165E+01
   1.450  0.1102E+01  0.5176E+01
   1.460  0.1088E+01  0.5187E+01
   1.470  0.1072E+01  0.5198E+01
   1.480  0.1054E+01  0.5208E+01
   1.490  0.1033E+01  0.5218E+01
   1.500  0.1009E+01  0.5229E+01
   1.510  0.9832E+00  0.5238E+01
   1.520  0.9547E+00  0.5248E+01
   1.530  0.9242E+00  0.5257E+01
   1.540  0.8925E+00  0.5266E+01
   1.550  0.8602E+00  0.5275E+01
   1.560  0.8282E+00  0.5283E+01
   1.570  0.7975E+00  0.5291E+01
   1.580  0.7691E+00  0.5299E+01
   1.590  0.7439E+00  0.5306E+01
   1.600  0.7227E+00  0.5313E+01
   1.610  0.7063E+00  0.5320E+01
   1.620  0.6953E+00  0.5327E+01
   1.630  0.6899E+00  0.5334E+01
   1.640  0.6904E+00  0.5341E+01
   1.650  0.6967E+00  0.5348E+01
   1.660  0.7084E+00  0.5355E+01
   1.670  0.7251E+00  0.5362E+01
   1.680  0.7459E+00  0.5370E+01
   1.690  0.7699E+00  0.5378E+01
   1.700  0.7961E+00  0.5386E+01
   1.710  0.8232E+00  0.5394E+01
   1.720  0.8500E+00  0.5402E+01
   1.730  0.8754E+00  0.5411E+01
   1.740  0.8981E+00  0.5420E+01
   1.750  0.9171E+00  0.5429E+01
   1.760  0.9317E+00  0.5439E+01
   1.770  0.9412E+00  0.5448E+01
   1.780  0.9452E+00  0.5457E+01
   1.790  0.9438E+00  0.5467E+01
   1.800  0.9369E+00  0.5476E+01
   1.810  0.9251E+00  0.5485E+01
   1.820  0.9090E+00  0.5495E+01
   1.830  0.8894E+00  0.5503E+01
   1.840  0.8673E+00  0.5512E+01
   1.850  0.8439E+00  0.5521E+01
   1.860  0.8200E+00  0.5529E+01
   1.870  0.7970E+00  0.5537E+01
   1.880  0.7756E+00  0.5544E+01
   1.890  0.7568E+00  0.5552E+01
   1.900  0.7414E+00  0.5559E+01
   1.910  0.7298E+00  0.5567E+01
   1.920  0.7225E+00  0.5574E+01
   1.930  0.7195E+00  0.5581E+01
   1.940  0.7209E+00  0.5588E+01
   1.950  0.7265E+00  0.5596E+01
   1.960  0.7359E+00  0.5603E+01
   1.970  0.7488E+00  0.5611E+01
   1.980  0.7645E+00  0.5618E+01
   1.990  0.7827E+00  0.5626E+01
   2.000  0.8026E+00  0.5634E+01
   2.010  0.8236E+00  0.5642E+01
   2.020  0.8453E+00  0.5651E+01
   2.030  0.8670E+00  0.5659E+01
   2.040  0.8883E+00  0.5668E+01
   2.050  0.9086E+00  0.5677E+01
   2.060  0.9278E+00  0.5687E+01
   2.070  0.9452E+00  0.5696E+01
   2.080  0.9608E+00  0.5706E+01
   2.090  0.9742E+00  0.5715E+01
   2.100  0.9852E+00  0.5725E+01
   2.110  0.9937E+00  0.5735E+01
   2.120  0.9995E+00  0.5745E+01
   2.130  0.1003E+01  0.5755E+01
   2.140  0.1003E+01  0.5765E+01
   2.150  0.1000E+01  0.5775E+01
   2.160  0.9955E+00  0.5785E+01
   2.170  0.9881E+00  0.5795E+01
   2.180  0.9784E+00  0.5805E+01
   2.190  0.9669E+00  0.5815E+01
   2.200  0.9538E+00  0.5824E+01
   2.210  0.9395E+00  0.5833E+01
   2.220  0.9244E+00  0.5843E+01
   2.230  0.9090E+00  0.5852E+01
   2.240  0.8937E+00  0.5861E+01
   2.250  0.8789E+00  0.5870E+01
   2.260  0.8649E+00  0.5878E+01
   2.270  0.8521E+00  0.5887E+01
   2.280  0.8407E+00  0.5895E+01
   2.290  0.8307E+00  0.5903E+01
   2.300  0.8224E+00  0.5912E+01
   2.310  0.8157E+00  0.5920E+01
   2.320  0.8106E+00  0.5928E+01
   2.330  0.8068E+00  0.5936E+01
   2.340  0.8042E+00  0.5944E+01
   2.350  0.8027E+00  0.5952E+01
   2.360  0.8019E+00  0.5960E+01
   2.370  0.8017E+00  0.5968E+01
   2.380  0.8019E+00  0.5976E+01
   2.390  0.8023E+00  0.5984E+01
   2.400  0.8028E+00  0.5992E+01
   2.410  0.8033E+00  0.6000E+01
   2.420  0.8039E+00  0.6008E+01
   2.430  0.8044E+00  0.6016E+01
   2.440  0.8051E+00  0.6024E+01
   2.450  0.8060E+00  0.6032E+01
   2.460  0.8072E+00  0.6040E+01
   2.470  0.8088E+00  0.6049E+01
   2.480  0.8111E+00  0.6057E+01
   2.490  0.8142E+00  0.6065E+01
   2.500  0.8182E+00  0.6073E+01
   2.510  0.8233E+00  0.6081E+01
   2.520  0.8296E+00  0.6090E+01
   2.530  0.8373E+00  0.6098E+01
   2.540  0.8464E+00  0.6106E+01
   2.550  0.8571E+00  0.6115E+01
   2.560  0.8693E+00  0.6124E+01
   2.570  0.8831E+00  0.6132E+01
   2.580  0.8983E+00  0.6141E+01
   2.590  0.9149E+00  0.6151E+01
   2.600  0.9327E+00  0.6160E+01
   2.610  0.9515E+00  0.6169E+01
   2.620  0.9709E+00  0.6179E+01
   2.630  0.9908E+00  0.6189E+01
   2.640  0.1011E+01  0.6199E+01
   2.650  0.1030E+01  0.6209E+01
   2.660  0.1049E+01  0.6220E+01
   2.670  0.1066E+01  0.6231E+01
   2.680  0.1082E+01  0.6241E+01
   2.690  0.1096E+01  0.6252E+01
   2.700  0.1108E+01  0.6263E+01
   2.710  0.1118E+01  0.6275E+01
   2.720  0.1124E+01  0.6286E+01
   2.730  0.1128E+01  0.6297E+01
   2.740  0.1130E+01  0.6308E+01
   2.750  0.1128E+01  0.6320E+01
   2.760  0.1125E+01  0.6331E+01
   2.770  0.1119E+01  0.6342E+01
   2.780  0.1111E+01  0.6353E+01
   2.790  0.1102E+01  0.6364E+01
   2.800  0.1092E+01  0.6375E+01
   2.810  0.1081E+01  0.6386E+01
   2.820  0.1071E+01  0.6397E+01
   2.830  0.1060E+01  0.6407E+01
   2.840  0.1050E+01  0.6418E+01
   2.850  0.1041E+01  0.6428E+01
   2.860  0.1032E+01  0.6439E+01
   2.870  0.1026E+01  0.6449E+01
   2.880  0.1020E+01  0.6459E+01
   2.890  0.1016E+01  0.6469E+01
   2.900  0.1013E+01  0.6479E+01
   2.910  0.1011E+01  0.6489E+01
   2.920  0.1011E+01  0.6500E+01
   2.930  0.1012E+01  0.6510E+01
   2.940  0.1013E+01  0.6520E+01
   2.950  0.1016E+01  0.6530E+01
   2.960  0.1019E+01  0.6540E+01
   2.970  0.1023E+01  0.6550E+01
   2.980  0.1028E+01  0.6561E+01
   2.990  0.1033E+01  0.6571E+01
   3.000  0.1039E+01  0.6581E+01
   3.010  0.1045E+01  0.6592E+01
   3.020  0.1052E+01  0.6602E+01
   3.030  0.1060E+01  0.6613E+01
   3.040  0.1067E+01  0.6624E+01
   3.050  0.1076E+01  0.6634E+01
   3.060  0.1084E+01  0.6645E+01
   3.070  0.1093E+01  0.6656E+01
   3.080  0.1101E+01  0.6667E+01
   3.090  0.1109E+01  0.6678E+01
   3.100  0.1117E+01  0.6689E+01
   3.110  0.1124E+01  0.6701E+01
   3.120  0.1130E+01  0.6712E+01
   3.130  0.1135E+01  0.6723E+01
   3.140  0.1139E+01  0.6735E+01
   3.150  0.1141E+01  0.6746E+01
   3.160  0.1142E+01  0.6758E+01
   3.170  0.1141E+01  0.6769E+01
   3.180  0.1139E+01  0.6780E+01
   3.190  0.1135E+01  0.6792E+01
   3.200  0.1130E+01  0.6803E+01
   3.210  0.1124E+01  0.6814E+01
   3.220  0.1118E+01  0.6825E+01
   3.230  0.1110E+01  0.6837E+01
   3.240  0.1102E+01  0.6848E+01
   3.250  0.1093E+01  0.6858E+01
   3.260  0.1084E+01  0.6869E+01
   3.270  0.1074E+01  0.6880E+01
   3.280  0.1064E+01  0.6891E+01
   3.290  0.1054E+01  0.6901E+01
   3.300  0.1043E+01  0.6912E+01
   3.310  0.1032E+01  0.6922E+01
   3.320  0.1021E+01  0.6932E+01
   3.330  0.1011E+01  0.6942E+01
   3.340  0.1000E+01  0.6952E+01
   3.350  0.9906E+00  0.6962E+01
   3.360  0.9818E+00  0.6972E+01
   3.370  0.9743E+00  0.6982E+01
   3.380  0.9684E+00  0.6991E+01
   3.390  0.9645E+00  0.7001E+01
   3.400  0.9627E+00  0.7011E+01
   3.410  0.9634E+00  0.7020E+01
   3.420  0.9667E+00  0.7030E+01
   3.430  0.9728E+00  0.7040E+01
   3.440  0.9819E+00  0.7050E+01
   3.450  0.9938E+00  0.7059E+01
   3.460  0.1009E+01  0.7070E+01
   3.470  0.1026E+01  0.7080E+01
   3.480  0.1047E+01  0.7090E+01
   3.490  0.1070E+01  0.7101E+01
   3.500  0.1096E+01  0.7112E+01
   3.510  0.1124E+01  0.7123E+01
   3.520  0.1155E+01  0.7135E+01
   3.530  0.1188E+01  0.7147E+01
   3.540  0.1222E+01  0.7159E+01
   3.550  0.1259E+01  0.7171E+01
   3.560  0.1297E+01  0.7184E+01
   3.570  0.1336E+01  0.7198E+01
   3.580  0.1377E+01  0.7212E+01
   3.590  0.1417E+01  0.7226E+01
   3.600  0.1458E+01  0.7240E+01
   3.610  0.1498E+01  0.7255E+01
   3.620  0.1537E+01  0.7271E+01
   3.630  0.1575E+01  0.7286E+01
   3.640  0.1609E+01  0.7303E+01
   3.650  0.1641E+01  0.7319E+01
   3.660  0.1668E+01  0.7336E+01
   3.670  0.1690E+01  0.7353E+01
   3.680  0.1707E+01  0.7370E+01
   3.690  0.1718E+01  0.7387E+01
   3.700  0.1723E+01  0.7404E+01
   3.710  0.1720E+01  0.7421E+01
   3.720  0.1710E+01  0.7438E+01
   3.730  0.1692E+01  0.7455E+01
   3.740  0.1667E+01  0.7472E+01
   3.750  0.1634E+01  0.7488E+01
   3.760  0.1594E+01  0.7504E+01
   3.770  0.1547E+01  0.7520E+01
   3.780  0.1493E+01  0.7535E+01
   3.790  0.1435E+01  0.7549E+01
   3.800  0.1371E+01  0.7563E+01
   3.810  0.1304E+01  0.7576E+01
   3.820  0.1235E+01  0.7588E+01
   3.830  0.1164E+01  0.7600E+01
   3.840  0.1092E+01  0.7611E+01
   3.850  0.1022E+01  0.7621E+01
   3.860  0.9530E+00  0.7630E+01
   3.870  0.8874E+00  0.7639E+01
   3.880  0.8257E+00  0.7647E+01
   3.890  0.7688E+00  0.7655E+01
   3.900  0.7174E+00  0.7662E+01
   3.910  0.6720E+00  0.7669E+01
   3.920  0.6329E+00  0.7675E+01
   3.930  0.6002E+00  0.7681E+01
   3.940  0.5739E+00  0.7687E+01
   3.950  0.5537E+00  0.7693E+01
   3.960  0.5392E+00  0.7698E+01
   3.970  0.5298E+00  0.7703E+01
   3.980  0.5248E+00  0.7709E+01
   3.990  0.5234E+00  0.7714E+01
   4.000  0.5248E+00  0.7719E+01
   4.010  0.5281E+00  0.7724E+01
   4.020  0.5325E+00  0.7730E+01
   4.030  0.5372E+00  0.7735E+01
   4.040  0.5416E+00  0.7740E+01
   4.050  0.5450E+00  0.7746E+01
   4.060  0.5471E+00  0.7751E+01
   4.070  0.5475E+00  0.7757E+01
   4.080  0.5462E+00  0.7762E+01
   4.090  0.5431E+00  0.7768E+01
   4.100  0.5383E+00  0.7773E+01
   4.110  0.5320E+00  0.7778E+01
   4.120  0.5246E+00  0.7784E+01
   4.130  0.5164E+00  0.7789E+01
   4.140  0.5077E+00  0.7794E+01
   4.150  0.4988E+00  0.7799E+01
   4.160  0.4902E+00  0.7804E+01
   4.170  0.4821E+00  0.7809E+01
   4.180  0.4747E+00  0.7813E+01
   4.190  0.4682E+00  0.7818E+01
   4.200  0.4626E+00  0.7823E+01
   4.210  0.4580E+00  0.7827E+01
   4.220  0.4545E+00  0.7832E+01
   4.230  0.4521E+00  0.7836E+01
   4.240  0.4506E+00  0.7841E+01
   4.250  0.4501E+00  0.7845E+01
   4.260  0.4506E+00  0.7850E+01
   4.270  0.4522E+00  0.7854E+01
   4.280  0.4548E+00  0.7859E+01
   4.290  0.4587E+00  0.7863E+01
   4.300  0.4639E+00  0.7868E+01
   4.310  0.4706E+00  0.7873E+01
   4.320  0.4791E+00  0.7878E+01
   4.330  0.4893E+00  0.7883E+01
   4.340  0.5016E+00  0.7888E+01
   4.350  0.5161E+00  0.7893E+01
   4.360  0.5327E+00  0.7898E+01
   4.370  0.5516E+00  0.7904E+01
   4.380  0.5726E+00  0.7909E+01
   4.390  0.5956E+00  0.7915E+01
   4.400  0.6203E+00  0.7921E+01
   4.410  0.6465E+00  0.7928E+01
   4.420  0.6735E+00  0.7935E+01
   4.430  0.7011E+00  0.7942E+01
   4.440  0.7285E+00  0.7949E+01
   4.450  0.7552E+00  0.7956E+01
   4.460  0.7807E+00  0.7964E+01
   4.470  0.8042E+00  0.7972E+01
   4.480  0.8253E+00  0.7981E+01
   4.490  0.8435E+00  0.7989E+01
   4.500  0.8584E+00  0.7998E+01
   4.510  0.8699E+00  0.8006E+01
   4.520  0.8777E+00  0.8015E+01
   4.530  0.8820E+00  0.8024E+01
   4.540  0.8831E+00  0.8033E+01
   4.550  0.8813E+00  0.8042E+01
   4.560  0.8771E+00  0.8050E+01
   4.570  0.8712E+00  0.8059E+01
   4.580  0.8643E+00  0.8068E+01
   4.590  0.8572E+00  0.8076E+01
   4.600  0.8505E+00  0.8085E+01
   4.610  0.8450E+00  0.8093E+01
   4.620  0.8413E+00  0.8102E+01
   4.630  0.8398E+00  0.8110E+01
   4.640  0.8408E+00  0.8118E+01
   4.650  0.8443E+00  0.8127E+01
   4.660  0.8503E+00  0.8135E+01
   4.670  0.8585E+00  0.8144E+01
   4.680  0.8684E+00  0.8153E+01
   4.690  0.8795E+00  0.8161E+01
   4.700  0.8910E+00  0.8170E+01
   4.710  0.9021E+00  0.8179E+01
   4.720  0.9121E+00  0.8188E+01
   4.730  0.9202E+00  0.8198E+01
   4.740  0.9258E+00  0.8207E+01
   4.750  0.9283E+00  0.8216E+01
   4.760  0.9275E+00  0.8225E+01
   4.770  0.9230E+00  0.8235E+01
   4.780  0.9150E+00  0.8244E+01
   4.790  0.9037E+00  0.8253E+01
   4.800  0.8894E+00  0.8262E+01
   4.810  0.8726E+00  0.8271E+01
   4.820  0.8542E+00  0.8279E+01
   4.830  0.8347E+00  0.8287E+01
   4.840  0.8151E+00  0.8296E+01
   4.850  0.7960E+00  0.8304E+01
   4.860  0.7783E+00  0.8311E+01
   4.870  0.7625E+00  0.8319E+01
   4.880  0.7492E+00  0.8326E+01
   4.890  0.7388E+00  0.8334E+01
   4.900  0.7314E+00  0.8341E+01
   4.910  0.7271E+00  0.8348E+01
   4.920  0.7258E+00  0.8356E+01
   4.930  0.7272E+00  0.8363E+01
   4.940  0.7309E+00  0.8370E+01
   4.950  0.7364E+00  0.8378E+01
   4.960  0.7431E+00  0.8385E+01
   4.970  0.7503E+00  0.8393E+01
   4.980  0.7576E+00  0.8400E+01
   4.990  0.7642E+00  0.8408E+01
   5.000  0.7697E+00  0.8415E+01
   5.010  0.7736E+00  0.8423E+01
   5.020  0.7754E+00  0.8431E+01
   5.030  0.7750E+00  0.8439E+01
   5.040  0.7723E+00  0.8446E+01
   5.050  0.7671E+00  0.8454E+01
   5.060  0.7595E+00  0.8462E+01
   5.070  0.7498E+00  0.8469E+01
   5.080  0.7383E+00  0.8477E+01
   5.090  0.7254E+00  0.8484E+01
   5.100  0.7115E+00  0.8491E+01
   5.110  0.6974E+00  0.8498E+01
   5.120  0.6835E+00  0.8505E+01
   5.130  0.6707E+00  0.8511E+01
   5.140  0.6598E+00  0.8518E+01
   5.150  0.6517E+00  0.8525E+01
   5.160  0.6471E+00  0.8531E+01
   5.170  0.6472E+00  0.8538E+01
   5.180  0.6528E+00  0.8544E+01
   5.190  0.6648E+00  0.8551E+01
   5.200  0.6840E+00  0.8558E+01
   5.210  0.7115E+00  0.8565E+01
   5.220  0.7477E+00  0.8572E+01
   5.230  0.7933E+00  0.8580E+01
   5.240  0.8486E+00  0.8589E+01
   5.250  0.9139E+00  0.8598E+01
   5.260  0.9891E+00  0.8608E+01
   5.270  0.1074E+01  0.8618E+01
   5.280  0.1168E+01  0.8630E+01
   5.290  0.1270E+01  0.8643E+01
   5.300  0.1379E+01  0.8656E+01
   5.310  0.1493E+01  0.8671E+01
   5.320  0.1611E+01  0.8688E+01
   5.330  0.1732E+01  0.8705E+01
   5.340  0.1852E+01  0.8723E+01
   5.350  0.1969E+01  0.8743E+01
   5.360  0.2083E+01  0.8764E+01
   5.370  0.2189E+01  0.8786E+01
   5.380  0.2285E+01  0.8809E+01
   5.390  0.2371E+01  0.8832E+01
   5.400  0.2444E+01  0.8857E+01
   5.410  0.2502E+01  0.8882E+01
   5.420  0.2544E+01  0.8907E+01
   5.430  0.2570E+01  0.8933E+01
   5.440  0.2579E+01  0.8959E+01
   5.450  0.2572E+01  0.8984E+01
   5.460  0.2549E+01  0.9010E+01
   5.470  0.2510E+01  0.9035E+01
   5.480  0.2458E+01  0.9060E+01
   5.490  0.2395E+01  0.9084E+01
   5.500  0.2321E+01  0.9107E+01
   5.510  0.2239E+01  0.9129E+01
   5.520  0.2151E+01  0.9151E+01
   5.530  0.2059E+01  0.9171E+01
   5.540  0.1965E+01  0.9191E+01
   5.550  0.1870E+01  0.9210E+01
   5.560  0.1777E+01  0.9227E+01
   5.570  0.1685E+01  0.9244E+01
   5.580  0.1597E+01  0.9260E+01
   5.590  0.1513E+01  0.9275E+01
   5.600  0.1433E+01  0.9290E+01
   5.610  0.1359E+01  0.9303E+01
   5.620  0.1289E+01  0.9316E+01
   5.630  0.1224E+01  0.9328E+01
   5.640  0.1163E+01  0.9340E+01
   5.650  0.1108E+01  0.9351E+01
   5.660  0.1056E+01  0.9362E+01
   5.670  0.1009E+01  0.9372E+01
   5.680  0.9667E+00  0.9381E+01
   5.690  0.9282E+00  0.9391E+01
   5.700  0.8938E+00  0.9400E+01
   5.710  0.8638E+00  0.9408E+01
   5.720  0.8383E+00  0.9417E+01
   5.730  0.8175E+00  0.9425E+01
   5.740  0.8015E+00  0.9433E+01
   5.750  0.7908E+00  0.9441E+01
   5.760  0.7852E+00  0.9449E+01
   5.770  0.7851E+00  0.9456E+01
   5.780  0.7903E+00  0.9464E+01
   5.790  0.8006E+00  0.9472E+01
   5.800  0.8159E+00  0.9480E+01
   5.810  0.8356E+00  0.9489E+01
   5.820  0.8591E+00  0.9497E+01
   5.830  0.8857E+00  0.9506E+01
   5.840  0.9144E+00  0.9515E+01
   5.850  0.9442E+00  0.9525E+01
   5.860  0.9739E+00  0.9535E+01
   5.870  0.1002E+01  0.9545E+01
   5.880  0.1029E+01  0.9555E+01
   5.890  0.1051E+01  0.9565E+01
   5.900  0.1070E+01  0.9576E+01
   5.910  0.1083E+01  0.9587E+01
   5.920  0.1090E+01  0.9598E+01
   5.930  0.1090E+01  0.9609E+01
   5.940  0.1084E+01  0.9620E+01
   5.950  0.1071E+01  0.9630E+01
   5.960  0.1052E+01  0.9641E+01
   5.970  0.1027E+01  0.9651E+01
   5.980  0.9976E+00  0.9661E+01
   5.990  0.9637E+00  0.9671E+01
   6.000  0.9267E+00  0.9680E+01
   6.010  0.8878E+00  0.9689E+01
   6.020  0.8479E+00  0.9697E+01
   6.030  0.8083E+00  0.9705E+01
   6.040  0.7698E+00  0.9713E+01
   6.050  0.7335E+00  0.9720E+01
   6.060  0.6999E+00  0.9727E+01
   6.070  0.6696E+00  0.9734E+01
   6.080  0.6430E+00  0.9741E+01
   6.090  0.6203E+00  0.9747E+01
   6.100  0.6015E+00  0.9753E+01
   6.110  0.5865E+00  0.9759E+01
   6.120  0.5750E+00  0.9764E+01
   6.130  0.5669E+00  0.9770E+01
   6.140  0.5616E+00  0.9776E+01
   6.150  0.5589E+00  0.9781E+01
   6.160  0.5583E+00  0.9787E+01
   6.170  0.5595E+00  0.9792E+01
   6.180  0.5623E+00  0.9798E+01
   6.190  0.5662E+00  0.9804E+01
   6.200  0.5711E+00  0.9809E+01
   6.210  0.5769E+00  0.9815E+01
   6.220  0.5836E+00  0.9821E+01
   6.230  0.5909E+00  0.9827E+01
   6.240  0.5991E+00  0.9833E+01
   6.250  0.6081E+00  0.9839E+01
   6.260  0.6182E+00  0.9845E+01
   6.270  0.6294E+00  0.9852E+01
   6.280  0.6419E+00  0.9858E+01
   6.290  0.6560E+00  0.9865E+01
   6.300  0.6718E+00  0.9871E+01
   6.310  0.6896E+00  0.9878E+01
   6.320  0.7095E+00  0.9885E+01
   6.330  0.7318E+00  0.9893E+01
   6.340  0.7564E+00  0.9900E+01
   6.350  0.7836E+00  0.9908E+01
   6.360  0.8133E+00  0.9916E+01
   6.370  0.8454E+00  0.9925E+01
   6.380  0.8798E+00  0.9933E+01
   6.390  0.9162E+00  0.9942E+01
   6.400  0.9544E+00  0.9952E+01
   6.410  0.9938E+00  0.9962E+01
   6.420  0.1034E+01  0.9972E+01
   6.430  0.1074E+01  0.9983E+01
   6.440  0.1114E+01  0.9994E+01
   6.450  0.1153E+01  0.1001E+02
   6.460  0.1191E+01  0.1002E+02
   6.470  0.1226E+01  0.1003E+02
   6.480  0.1258E+01  0.1004E+02
   6.490  0.1286E+01  0.1006E+02
   6.500  0.1311E+01  0.1007E+02
   6.510  0.1331E+01  0.1008E+02
   6.520  0.1346E+01  0.1010E+02
   6.530  0.1357E+01  0.1011E+02
   6.540  0.1363E+01  0.1012E+02
   6.550  0.1363E+01  0.1014E+02
   6.560  0.1359E+01  0.1015E+02
   6.570  0.1351E+01  0.1016E+02
   6.580  0.1338E+01  0.1018E+02
   6.590  0.1320E+01  0.1019E+02
   6.600  0.1300E+01  0.1020E+02
   6.610  0.1276E+01  0.1022E+02
   6.620  0.1250E+01  0.1023E+02
   6.630  0.1222E+01  0.1024E+02
   6.640  0.1193E+01  0.1025E+02
   6.650  0.1163E+01  0.1026E+02
   6.660  0.1133E+01  0.1028E+02
   6.670  0.1104E+01  0.1029E+02
   6.680  0.1076E+01  0.1030E+02
   6.690  0.1050E+01  0.1031E+02
   6.700  0.1025E+01  0.1032E+02
   6.710  0.1004E+01  0.1033E+02
   6.720  0.9853E+00  0.1034E+02
   6.730  0.9695E+00  0.1035E+02
   6.740  0.9567E+00  0.1036E+02
   6.750  0.9467E+00  0.1037E+02
   6.760  0.9393E+00  0.1038E+02
   6.770  0.9341E+00  0.1038E+02
   6.780  0.9305E+00  0.1039E+02
   6.790  0.9280E+00  0.1040E+02
   6.800  0.9260E+00  0.1041E+02
   6.810  0.9238E+00  0.1042E+02
   6.820  0.9208E+00  0.1043E+02
   6.830  0.9161E+00  0.1044E+02
   6.840  0.9094E+00  0.1045E+02
   6.850  0.9000E+00  0.1046E+02
   6.860  0.8875E+00  0.1047E+02
   6.870  0.8717E+00  0.1048E+02
   6.880  0.8525E+00  0.1048E+02
   6.890  0.8298E+00  0.1049E+02
   6.900  0.8038E+00  0.1050E+02
   6.910  0.7747E+00  0.1051E+02
   6.920  0.7429E+00  0.1052E+02
   6.930  0.7089E+00  0.1052E+02
   6.940  0.6733E+00  0.1053E+02
   6.950  0.6367E+00  0.1054E+02
   6.960  0.5996E+00  0.1054E+02
   6.970  0.5628E+00  0.1055E+02
   6.980  0.5269E+00  0.1055E+02
   6.990  0.4925E+00  0.1056E+02
   7.000  0.4602E+00  0.1056E+02
   7.010  0.4304E+00  0.1057E+02
   7.020  0.4037E+00  0.1057E+02
   7.030  0.3802E+00  0.1057E+02
   7.040  0.3603E+00  0.1058E+02
   7.050  0.3442E+00  0.1058E+02
   7.060  0.3317E+00  0.1059E+02
   7.070  0.3231E+00  0.1059E+02
   7.080  0.3180E+00  0.1059E+02
   7.090  0.3163E+00  0.1059E+02
   7.100  0.3178E+00  0.1060E+02
   7.110  0.3222E+00  0.1060E+02
   7.120  0.3291E+00  0.1060E+02
   7.130  0.3381E+00  0.1061E+02
   7.140  0.3490E+00  0.1061E+02
   7.150  0.3613E+00  0.1062E+02
   7.160  0.3749E+00  0.1062E+02
   7.170  0.3894E+00  0.1062E+02
   7.180  0.4046E+00  0.1063E+02
   7.190  0.4205E+00  0.1063E+02
   7.200  0.4369E+00  0.1064E+02
   7.210  0.4538E+00  0.1064E+02
   7.220  0.4712E+00  0.1064E+02
   7.230  0.4893E+00  0.1065E+02
   7.240  0.5080E+00  0.1065E+02
   7.250  0.5275E+00  0.1066E+02
   7.260  0.5481E+00  0.1067E+02
   7.270  0.5697E+00  0.1067E+02
   7.280  0.5925E+00  0.1068E+02
   7.290  0.6167E+00  0.1068E+02
   7.300  0.6423E+00  0.1069E+02
   7.310  0.6694E+00  0.1070E+02
   7.320  0.6981E+00  0.1070E+02
   7.330  0.7283E+00  0.1071E+02
   7.340  0.7601E+00  0.1072E+02
   7.350  0.7934E+00  0.1073E+02
   7.360  0.8282E+00  0.1073E+02
   7.370  0.8642E+00  0.1074E+02
   7.380  0.9015E+00  0.1075E+02
   7.390  0.9397E+00  0.1076E+02
   7.400  0.9787E+00  0.1077E+02
   7.410  0.1018E+01  0.1078E+02
   7.420  0.1058E+01  0.1079E+02
   7.430  0.1098E+01  0.1080E+02
   7.440  0.1138E+01  0.1081E+02
   7.450  0.1177E+01  0.1083E+02
   7.460  0.1215E+01  0.1084E+02
   7.470  0.1253E+01  0.1085E+02
   7.480  0.1289E+01  0.1086E+02
   7.490  0.1323E+01  0.1088E+02
   7.500  0.1355E+01  0.1089E+02
   7.510  0.1385E+01  0.1090E+02
   7.520  0.1413E+01  0.1092E+02
   7.530  0.1437E+01  0.1093E+02
   7.540  0.1458E+01  0.1095E+02
   7.550  0.1475E+01  0.1096E+02
   7.560  0.1488E+01  0.1098E+02
   7.570  0.1496E+01  0.1099E+02
   7.580  0.1499E+01  0.1101E+02
   7.590  0.1496E+01  0.1102E+02
   7.600  0.1487E+01  0.1104E+02
   7.610  0.1471E+01  0.1105E+02
   7.620  0.1449E+01  0.1107E+02
   7.630  0.1420E+01  0.1108E+02
   7.640  0.1384E+01  0.1109E+02
   7.650  0.1342E+01  0.1111E+02
   7.660  0.1293E+01  0.1112E+02
   7.670  0.1239E+01  0.1113E+02
   7.680  0.1180E+01  0.1114E+02
   7.690  0.1117E+01  0.1116E+02
   7.700  0.1051E+01  0.1117E+02
   7.710  0.9828E+00  0.1118E+02
   7.720  0.9139E+00  0.1119E+02
   7.730  0.8454E+00  0.1119E+02
   7.740  0.7786E+00  0.1120E+02
   7.750  0.7145E+00  0.1121E+02
   7.760  0.6543E+00  0.1122E+02
   7.770  0.5989E+00  0.1122E+02
   7.780  0.5491E+00  0.1123E+02
   7.790  0.5057E+00  0.1123E+02
   7.800  0.4691E+00  0.1124E+02
   7.810  0.4395E+00  0.1124E+02
   7.820  0.4172E+00  0.1124E+02
   7.830  0.4019E+00  0.1125E+02
   7.840  0.3935E+00  0.1125E+02
   7.850  0.3913E+00  0.1126E+02
   7.860  0.3949E+00  0.1126E+02
   7.870  0.4033E+00  0.1126E+02
   7.880  0.4157E+00  0.1127E+02
   7.890  0.4312E+00  0.1127E+02
   7.900  0.4487E+00  0.1128E+02
   7.910  0.4672E+00  0.1128E+02
   7.920  0.4858E+00  0.1129E+02
   7.930  0.5035E+00  0.1129E+02
   7.940  0.5196E+00  0.1130E+02
   7.950  0.5335E+00  0.1130E+02
   7.960  0.5446E+00  0.1131E+02
   7.970  0.5528E+00  0.1131E+02
   7.980  0.5579E+00  0.1132E+02
   7.990  0.5601E+00  0.1132E+02
   8.000  0.5594E+00  0.1133E+02
   8.010  0.5564E+00  0.1134E+02
   8.020  0.5515E+00  0.1134E+02
   8.030  0.5452E+00  0.1135E+02
   8.040  0.5380E+00  0.1135E+02
   8.050  0.5306E+00  0.1136E+02
   8.060  0.5233E+00  0.1136E+02
   8.070  0.5167E+00  0.1137E+02
   8.080  0.5111E+00  0.1137E+02
   8.090  0.5067E+00  0.1138E+02
   8.100  0.5037E+00  0.1138E+02
   8.110  0.5021E+00  0.1139E+02
   8.120  0.5020E+00  0.1139E+02
   8.130  0.5033E+00  0.1140E+02
   8.140  0.5060E+00  0.1140E+02
   8.150  0.5101E+00  0.1141E+02
   8.160  0.5156E+00  0.1141E+02
   8.170  0.5224E+00  0.1142E+02
   8.180  0.5308E+00  0.1142E+02
   8.190  0.5409E+00  0.1143E+02
   8.200  0.5529E+00  0.1144E+02
   8.210  0.5670E+00  0.1144E+02
   8.220  0.5834E+00  0.1145E+02
   8.230  0.6024E+00  0.1145E+02
   8.240  0.6240E+00  0.1146E+02
   8.250  0.6483E+00  0.1147E+02
   8.260  0.6754E+00  0.1147E+02
   8.270  0.7049E+00  0.1148E+02
   8.280  0.7367E+00  0.1149E+02
   8.290  0.7701E+00  0.1149E+02
   8.300  0.8048E+00  0.1150E+02
   8.310  0.8401E+00  0.1151E+02
   8.320  0.8751E+00  0.1152E+02
   8.330  0.9093E+00  0.1153E+02
   8.340  0.9418E+00  0.1154E+02
   8.350  0.9719E+00  0.1155E+02
   8.360  0.9990E+00  0.1156E+02
   8.370  0.1023E+01  0.1157E+02
   8.380  0.1042E+01  0.1158E+02
   8.390  0.1058E+01  0.1159E+02
   8.400  0.1070E+01  0.1160E+02
   8.410  0.1078E+01  0.1161E+02
   8.420  0.1082E+01  0.1162E+02
   8.430  0.1082E+01  0.1163E+02
   8.440  0.1081E+01  0.1164E+02
   8.450  0.1077E+01  0.1165E+02
   8.460  0.1071E+01  0.1166E+02
   8.470  0.1065E+01  0.1167E+02
   8.480  0.1059E+01  0.1169E+02
   8.490  0.1054E+01  0.1170E+02
   8.500  0.1050E+01  0.1171E+02
   8.510  0.1049E+01  0.1172E+02
   8.520  0.1049E+01  0.1173E+02
   8.530  0.1053E+01  0.1174E+02
   8.540  0.1060E+01  0.1175E+02
   8.550  0.1071E+01  0.1176E+02
   8.560  0.1084E+01  0.1177E+02
   8.570  0.1101E+01  0.1178E+02
   8.580  0.1122E+01  0.1179E+02
   8.590  0.1145E+01  0.1180E+02
   8.600  0.1170E+01  0.1182E+02
   8.610  0.1197E+01  0.1183E+02
   8.620  0.1225E+01  0.1184E+02
   8.630  0.1254E+01  0.1185E+02
   8.640  0.1282E+01  0.1187E+02
   8.650  0.1309E+01  0.1188E+02
   8.660  0.1335E+01  0.1189E+02
   8.670  0.1357E+01  0.1191E+02
   8.680  0.1376E+01  0.1192E+02
   8.690  0.1391E+01  0.1193E+02
   8.700  0.1401E+01  0.1195E+02
   8.710  0.1406E+01  0.1196E+02
   8.720  0.1405E+01  0.1198E+02
   8.730  0.1399E+01  0.1199E+02
   8.740  0.1386E+01  0.1200E+02
   8.750  0.1367E+01  0.1202E+02
   8.760  0.1343E+01  0.1203E+02
   8.770  0.1312E+01  0.1204E+02
   8.780  0.1277E+01  0.1206E+02
   8.790  0.1237E+01  0.1207E+02
   8.800  0.1193E+01  0.1208E+02
   8.810  0.1146E+01  0.1209E+02
   8.820  0.1097E+01  0.1210E+02
   8.830  0.1046E+01  0.1211E+02
   8.840  0.9941E+00  0.1212E+02
   8.850  0.9429E+00  0.1213E+02
   8.860  0.8929E+00  0.1214E+02
   8.870  0.8448E+00  0.1215E+02
   8.880  0.7993E+00  0.1216E+02
   8.890  0.7571E+00  0.1217E+02
   8.900  0.7184E+00  0.1217E+02
   8.910  0.6837E+00  0.1218E+02
   8.920  0.6529E+00  0.1219E+02
   8.930  0.6261E+00  0.1219E+02
   8.940  0.6030E+00  0.1220E+02
   8.950  0.5833E+00  0.1220E+02
   8.960  0.5665E+00  0.1221E+02
   8.970  0.5520E+00  0.1222E+02
   8.980  0.5393E+00  0.1222E+02
   8.990  0.5278E+00  0.1223E+02
   9.000  0.5168E+00  0.1223E+02
   9.010  0.5058E+00  0.1224E+02
   9.020  0.4944E+00  0.1224E+02
   9.030  0.4821E+00  0.1225E+02
   9.040  0.4687E+00  0.1225E+02
   9.050  0.4542E+00  0.1226E+02
   9.060  0.4386E+00  0.1226E+02
   9.070  0.4220E+00  0.1226E+02
   9.080  0.4047E+00  0.1227E+02
   9.090  0.3873E+00  0.1227E+02
   9.100  0.3702E+00  0.1228E+02
   9.110  0.3539E+00  0.1228E+02
   9.120  0.3391E+00  0.1228E+02
   9.130  0.3264E+00  0.1229E+02
   9.140  0.3163E+00  0.1229E+02
   9.150  0.3094E+00  0.1229E+02
   9.160  0.3062E+00  0.1229E+02
   9.170  0.3069E+00  0.1230E+02
   9.180  0.3118E+00  0.1230E+02
   9.190  0.3209E+00  0.1230E+02
   9.200  0.3341E+00  0.1231E+02
   9.210  0.3512E+00  0.1231E+02
   9.220  0.3716E+00  0.1231E+02
   9.230  0.3950E+00  0.1232E+02
   9.240  0.4204E+00  0.1232E+02
   9.250  0.4472E+00  0.1233E+02
   9.260  0.4744E+00  0.1233E+02
   9.270  0.5011E+00  0.1234E+02
   9.280  0.5263E+00  0.1234E+02
   9.290  0.5491E+00  0.1235E+02
   9.300  0.5687E+00  0.1235E+02
   9.310  0.5843E+00  0.1236E+02
   9.320  0.5952E+00  0.1237E+02
   9.330  0.6009E+00  0.1237E+02
   9.340  0.6013E+00  0.1238E+02
   9.350  0.5962E+00  0.1238E+02
   9.360  0.5857E+00  0.1239E+02
   9.370  0.5701E+00  0.1240E+02
   9.380  0.5498E+00  0.1240E+02
   9.390  0.5254E+00  0.1241E+02
   9.400  0.4977E+00  0.1241E+02
   9.410  0.4674E+00  0.1242E+02
   9.420  0.4355E+00  0.1242E+02
   9.430  0.4027E+00  0.1242E+02
   9.440  0.3700E+00  0.1243E+02
   9.450  0.3381E+00  0.1243E+02
   9.460  0.3079E+00  0.1243E+02
   9.470  0.2799E+00  0.1244E+02
   9.480  0.2548E+00  0.1244E+02
   9.490  0.2329E+00  0.1244E+02
   9.500  0.2146E+00  0.1244E+02
   9.510  0.2000E+00  0.1245E+02
   9.520  0.1893E+00  0.1245E+02
   9.530  0.1823E+00  0.1245E+02
   9.540  0.1788E+00  0.1245E+02
   9.550  0.1786E+00  0.1245E+02
   9.560  0.1813E+00  0.1245E+02
   9.570  0.1864E+00  0.1246E+02
   9.580  0.1934E+00  0.1246E+02
   9.590  0.2017E+00  0.1246E+02
   9.600  0.2109E+00  0.1246E+02
   9.610  0.2203E+00  0.1247E+02
   9.620  0.2293E+00  0.1247E+02
   9.630  0.2375E+00  0.1247E+02
   9.640  0.2444E+00  0.1247E+02
   9.650  0.2496E+00  0.1247E+02
   9.660  0.2529E+00  0.1248E+02
   9.670  0.2540E+00  0.1248E+02
   9.680  0.2529E+00  0.1248E+02
   9.690  0.2497E+00  0.1248E+02
   9.700  0.2445E+00  0.1249E+02
   9.710  0.2375E+00  0.1249E+02
   9.720  0.2290E+00  0.1249E+02
   9.730  0.2196E+00  0.1249E+02
   9.740  0.2095E+00  0.1250E+02
   9.750  0.1993E+00  0.1250E+02
   9.760  0.1895E+00  0.1250E+02
   9.770  0.1805E+00  0.1250E+02
   9.780  0.1727E+00  0.1250E+02
   9.790  0.1665E+00  0.1251E+02
   9.800  0.1622E+00  0.1251E+02
   9.810  0.1600E+00  0.1251E+02
   9.820  0.1599E+00  0.1251E+02
   9.830  0.1621E+00  0.1251E+02
   9.840  0.1663E+00  0.1251E+02
   9.850  0.1723E+00  0.1252E+02
   9.860  0.1800E+00  0.1252E+02
   9.870  0.1890E+00  0.1252E+02
   9.880  0.1987E+00  0.1252E+02
   9.890  0.2088E+00  0.1252E+02
   9.900  0.2188E+00  0.1252E+02
   9.910  0.2282E+00  0.1253E+02
   9.920  0.2365E+00  0.1253E+02
   9.930  0.2433E+00  0.1253E+02
   9.940  0.2482E+00  0.1253E+02
   9.950  0.2510E+00  0.1254E+02
   9.960  0.2515E+00  0.1254E+02
   9.970  0.2495E+00  0.1254E+02
   9.980  0.2451E+00  0.1254E+02
   9.990  0.2383E+00  0.1255E+02
  10.000  0.2293E+00  0.1255E+02
