# E (eV)  dos(E)    pdos(E)
 -21.530  0.157E-06  0.154E-06
 -21.520  0.458E-06  0.452E-06
 -21.510  0.129E-05  0.127E-05
 -21.500  0.346E-05  0.341E-05
 -21.490  0.890E-05  0.877E-05
 -21.480  0.220E-04  0.216E-04
 -21.470  0.520E-04  0.512E-04
 -21.460  0.118E-03  0.116E-03
 -21.450  0.256E-03  0.252E-03
 -21.440  0.533E-03  0.525E-03
 -21.430  0.106E-02  0.105E-02
 -21.420  0.204E-02  0.201E-02
 -21.410  0.374E-02  0.369E-02
 -21.400  0.660E-02  0.650E-02
 -21.390  0.111E-01  0.110E-01
 -21.380  0.181E-01  0.178E-01
 -21.370  0.281E-01  0.277E-01
 -21.360  0.421E-01  0.415E-01
 -21.350  0.605E-01  0.596E-01
 -21.340  0.836E-01  0.824E-01
 -21.330  0.111E+00  0.110E+00
 -21.320  0.143E+00  0.140E+00
 -21.310  0.176E+00  0.173E+00
 -21.300  0.210E+00  0.207E+00
 -21.290  0.243E+00  0.239E+00
 -21.280  0.272E+00  0.268E+00
 -21.270  0.296E+00  0.291E+00
 -21.260  0.314E+00  0.309E+00
 -21.250  0.326E+00  0.321E+00
 -21.240  0.332E+00  0.327E+00
 -21.230  0.334E+00  0.329E+00
 -21.220  0.333E+00  0.328E+00
 -21.210  0.330E+00  0.325E+00
 -21.200  0.325E+00  0.320E+00
 -21.190  0.321E+00  0.316E+00
 -21.180  0.317E+00  0.313E+00
 -21.170  0.315E+00  0.310E+00
 -21.160  0.312E+00  0.308E+00
 -21.150  0.311E+00  0.306E+00
 -21.140  0.310E+00  0.306E+00
 -21.130  0.310E+00  0.305E+00
 -21.120  0.309E+00  0.304E+00
 -21.110  0.309E+00  0.304E+00
 -21.100  0.308E+00  0.303E+00
 -21.090  0.308E+00  0.303E+00
 -21.080  0.308E+00  0.303E+00
 -21.070  0.309E+00  0.304E+00
 -21.060  0.310E+00  0.305E+00
 -21.050  0.311E+00  0.306E+00
 -21.040  0.311E+00  0.306E+00
 -21.030  0.310E+00  0.305E+00
 -21.020  0.308E+00  0.304E+00
 -21.010  0.306E+00  0.302E+00
 -21.000  0.305E+00  0.300E+00
 -20.990  0.306E+00  0.301E+00
 -20.980  0.308E+00  0.303E+00
 -20.970  0.311E+00  0.306E+00
 -20.960  0.314E+00  0.309E+00
 -20.950  0.316E+00  0.311E+00
 -20.940  0.316E+00  0.311E+00
 -20.930  0.313E+00  0.308E+00
 -20.920  0.308E+00  0.303E+00
 -20.910  0.303E+00  0.298E+00
 -20.900  0.299E+00  0.294E+00
 -20.890  0.298E+00  0.293E+00
 -20.880  0.301E+00  0.296E+00
 -20.870  0.308E+00  0.303E+00
 -20.860  0.316E+00  0.310E+00
 -20.850  0.322E+00  0.317E+00
 -20.840  0.326E+00  0.321E+00
 -20.830  0.325E+00  0.320E+00
 -20.820  0.319E+00  0.314E+00
 -20.810  0.310E+00  0.305E+00
 -20.800  0.300E+00  0.295E+00
 -20.790  0.291E+00  0.286E+00
 -20.780  0.287E+00  0.282E+00
 -20.770  0.289E+00  0.284E+00
 -20.760  0.297E+00  0.292E+00
 -20.750  0.309E+00  0.304E+00
 -20.740  0.322E+00  0.316E+00
 -20.730  0.333E+00  0.327E+00
 -20.720  0.339E+00  0.334E+00
 -20.710  0.339E+00  0.333E+00
 -20.700  0.331E+00  0.326E+00
 -20.690  0.318E+00  0.313E+00
 -20.680  0.302E+00  0.297E+00
 -20.670  0.287E+00  0.283E+00
 -20.660  0.277E+00  0.272E+00
 -20.650  0.273E+00  0.269E+00
 -20.640  0.278E+00  0.273E+00
 -20.630  0.290E+00  0.285E+00
 -20.620  0.307E+00  0.302E+00
 -20.610  0.325E+00  0.320E+00
 -20.600  0.341E+00  0.336E+00
 -20.590  0.352E+00  0.346E+00
 -20.580  0.354E+00  0.348E+00
 -20.570  0.348E+00  0.342E+00
 -20.560  0.335E+00  0.329E+00
 -20.550  0.317E+00  0.311E+00
 -20.540  0.297E+00  0.292E+00
 -20.530  0.278E+00  0.274E+00
 -20.520  0.265E+00  0.261E+00
 -20.510  0.260E+00  0.256E+00
 -20.500  0.264E+00  0.259E+00
 -20.490  0.276E+00  0.271E+00
 -20.480  0.295E+00  0.290E+00
 -20.470  0.318E+00  0.313E+00
 -20.460  0.341E+00  0.335E+00
 -20.450  0.359E+00  0.353E+00
 -20.440  0.369E+00  0.363E+00
 -20.430  0.369E+00  0.363E+00
 -20.420  0.359E+00  0.353E+00
 -20.410  0.341E+00  0.336E+00
 -20.400  0.319E+00  0.313E+00
 -20.390  0.295E+00  0.290E+00
 -20.380  0.274E+00  0.269E+00
 -20.370  0.259E+00  0.254E+00
 -20.360  0.251E+00  0.246E+00
 -20.350  0.251E+00  0.247E+00
 -20.340  0.260E+00  0.256E+00
 -20.330  0.277E+00  0.272E+00
 -20.320  0.298E+00  0.293E+00
 -20.310  0.323E+00  0.317E+00
 -20.300  0.347E+00  0.341E+00
 -20.290  0.367E+00  0.361E+00
 -20.280  0.381E+00  0.374E+00
 -20.270  0.384E+00  0.378E+00
 -20.260  0.377E+00  0.371E+00
 -20.250  0.360E+00  0.354E+00
 -20.240  0.336E+00  0.330E+00
 -20.230  0.307E+00  0.302E+00
 -20.220  0.279E+00  0.274E+00
 -20.210  0.256E+00  0.252E+00
 -20.200  0.241E+00  0.237E+00
 -20.190  0.236E+00  0.232E+00
 -20.180  0.240E+00  0.236E+00
 -20.170  0.254E+00  0.250E+00
 -20.160  0.275E+00  0.270E+00
 -20.150  0.300E+00  0.294E+00
 -20.140  0.326E+00  0.320E+00
 -20.130  0.350E+00  0.343E+00
 -20.120  0.369E+00  0.363E+00
 -20.110  0.383E+00  0.376E+00
 -20.100  0.389E+00  0.382E+00
 -20.090  0.386E+00  0.379E+00
 -20.080  0.376E+00  0.369E+00
 -20.070  0.359E+00  0.352E+00
 -20.060  0.336E+00  0.330E+00
 -20.050  0.309E+00  0.303E+00
 -20.040  0.282E+00  0.277E+00
 -20.030  0.257E+00  0.252E+00
 -20.020  0.237E+00  0.233E+00
 -20.010  0.226E+00  0.222E+00
 -20.000  0.224E+00  0.220E+00
 -19.990  0.233E+00  0.229E+00
 -19.980  0.253E+00  0.248E+00
 -19.970  0.280E+00  0.275E+00
 -19.960  0.312E+00  0.306E+00
 -19.950  0.344E+00  0.338E+00
 -19.940  0.373E+00  0.366E+00
 -19.930  0.394E+00  0.387E+00
 -19.920  0.404E+00  0.397E+00
 -19.910  0.404E+00  0.397E+00
 -19.900  0.393E+00  0.386E+00
 -19.890  0.375E+00  0.368E+00
 -19.880  0.352E+00  0.345E+00
 -19.870  0.327E+00  0.322E+00
 -19.860  0.304E+00  0.299E+00
 -19.850  0.283E+00  0.278E+00
 -19.840  0.265E+00  0.260E+00
 -19.830  0.250E+00  0.246E+00
 -19.820  0.239E+00  0.235E+00
 -19.810  0.232E+00  0.228E+00
 -19.800  0.231E+00  0.226E+00
 -19.790  0.236E+00  0.232E+00
 -19.780  0.250E+00  0.245E+00
 -19.770  0.272E+00  0.267E+00
 -19.760  0.301E+00  0.296E+00
 -19.750  0.335E+00  0.329E+00
 -19.740  0.369E+00  0.362E+00
 -19.730  0.399E+00  0.391E+00
 -19.720  0.419E+00  0.412E+00
 -19.710  0.428E+00  0.420E+00
 -19.700  0.423E+00  0.415E+00
 -19.690  0.404E+00  0.397E+00
 -19.680  0.376E+00  0.369E+00
 -19.670  0.341E+00  0.335E+00
 -19.660  0.307E+00  0.301E+00
 -19.650  0.276E+00  0.271E+00
 -19.640  0.253E+00  0.249E+00
 -19.630  0.239E+00  0.234E+00
 -19.620  0.232E+00  0.228E+00
 -19.610  0.232E+00  0.227E+00
 -19.600  0.236E+00  0.232E+00
 -19.590  0.243E+00  0.239E+00
 -19.580  0.253E+00  0.248E+00
 -19.570  0.266E+00  0.261E+00
 -19.560  0.281E+00  0.276E+00
 -19.550  0.301E+00  0.296E+00
 -19.540  0.324E+00  0.318E+00
 -19.530  0.350E+00  0.343E+00
 -19.520  0.375E+00  0.368E+00
 -19.510  0.398E+00  0.391E+00
 -19.500  0.415E+00  0.407E+00
 -19.490  0.423E+00  0.415E+00
 -19.480  0.421E+00  0.414E+00
 -19.470  0.409E+00  0.402E+00
 -19.460  0.388E+00  0.381E+00
 -19.450  0.358E+00  0.352E+00
 -19.440  0.324E+00  0.318E+00
 -19.430  0.289E+00  0.284E+00
 -19.420  0.256E+00  0.252E+00
 -19.410  0.230E+00  0.226E+00
 -19.400  0.212E+00  0.208E+00
 -19.390  0.204E+00  0.201E+00
 -19.380  0.207E+00  0.203E+00
 -19.370  0.218E+00  0.214E+00
 -19.360  0.236E+00  0.232E+00
 -19.350  0.259E+00  0.255E+00
 -19.340  0.285E+00  0.280E+00
 -19.330  0.312E+00  0.306E+00
 -19.320  0.338E+00  0.332E+00
 -19.310  0.362E+00  0.356E+00
 -19.300  0.383E+00  0.376E+00
 -19.290  0.399E+00  0.392E+00
 -19.280  0.409E+00  0.401E+00
 -19.270  0.412E+00  0.404E+00
 -19.260  0.408E+00  0.400E+00
 -19.250  0.398E+00  0.390E+00
 -19.240  0.383E+00  0.376E+00
 -19.230  0.366E+00  0.360E+00
 -19.220  0.349E+00  0.342E+00
 -19.210  0.330E+00  0.324E+00
 -19.200  0.312E+00  0.306E+00
 -19.190  0.292E+00  0.287E+00
 -19.180  0.271E+00  0.266E+00
 -19.170  0.250E+00  0.245E+00
 -19.160  0.229E+00  0.225E+00
 -19.150  0.212E+00  0.209E+00
 -19.140  0.202E+00  0.198E+00
 -19.130  0.200E+00  0.197E+00
 -19.120  0.210E+00  0.206E+00
 -19.110  0.231E+00  0.226E+00
 -19.100  0.261E+00  0.256E+00
 -19.090  0.298E+00  0.293E+00
 -19.080  0.338E+00  0.332E+00
 -19.070  0.377E+00  0.370E+00
 -19.060  0.410E+00  0.403E+00
 -19.050  0.435E+00  0.427E+00
 -19.040  0.448E+00  0.440E+00
 -19.030  0.449E+00  0.441E+00
 -19.020  0.438E+00  0.430E+00
 -19.010  0.416E+00  0.409E+00
 -19.000  0.388E+00  0.381E+00
 -18.990  0.356E+00  0.350E+00
 -18.980  0.325E+00  0.320E+00
 -18.970  0.299E+00  0.294E+00
 -18.960  0.280E+00  0.275E+00
 -18.950  0.268E+00  0.263E+00
 -18.940  0.262E+00  0.258E+00
 -18.930  0.261E+00  0.257E+00
 -18.920  0.262E+00  0.257E+00
 -18.910  0.260E+00  0.255E+00
 -18.900  0.255E+00  0.251E+00
 -18.890  0.247E+00  0.243E+00
 -18.880  0.238E+00  0.234E+00
 -18.870  0.231E+00  0.227E+00
 -18.860  0.231E+00  0.227E+00
 -18.850  0.240E+00  0.236E+00
 -18.840  0.261E+00  0.256E+00
 -18.830  0.293E+00  0.287E+00
 -18.820  0.332E+00  0.326E+00
 -18.810  0.375E+00  0.368E+00
 -18.800  0.415E+00  0.408E+00
 -18.790  0.447E+00  0.439E+00
 -18.780  0.467E+00  0.458E+00
 -18.770  0.472E+00  0.464E+00
 -18.760  0.463E+00  0.455E+00
 -18.750  0.441E+00  0.433E+00
 -18.740  0.410E+00  0.403E+00
 -18.730  0.374E+00  0.367E+00
 -18.720  0.335E+00  0.329E+00
 -18.710  0.299E+00  0.293E+00
 -18.700  0.267E+00  0.262E+00
 -18.690  0.241E+00  0.237E+00
 -18.680  0.224E+00  0.220E+00
 -18.670  0.216E+00  0.212E+00
 -18.660  0.216E+00  0.212E+00
 -18.650  0.223E+00  0.219E+00
 -18.640  0.235E+00  0.231E+00
 -18.630  0.250E+00  0.246E+00
 -18.620  0.264E+00  0.260E+00
 -18.610  0.276E+00  0.271E+00
 -18.600  0.285E+00  0.280E+00
 -18.590  0.292E+00  0.286E+00
 -18.580  0.298E+00  0.293E+00
 -18.570  0.308E+00  0.302E+00
 -18.560  0.322E+00  0.316E+00
 -18.550  0.342E+00  0.336E+00
 -18.540  0.367E+00  0.361E+00
 -18.530  0.394E+00  0.387E+00
 -18.520  0.418E+00  0.411E+00
 -18.510  0.437E+00  0.429E+00
 -18.500  0.446E+00  0.438E+00
 -18.490  0.444E+00  0.436E+00
 -18.480  0.433E+00  0.425E+00
 -18.470  0.413E+00  0.406E+00
 -18.460  0.388E+00  0.382E+00
 -18.450  0.361E+00  0.355E+00
 -18.440  0.333E+00  0.327E+00
 -18.430  0.306E+00  0.301E+00
 -18.420  0.280E+00  0.275E+00
 -18.410  0.256E+00  0.252E+00
 -18.400  0.235E+00  0.231E+00
 -18.390  0.216E+00  0.213E+00
 -18.380  0.202E+00  0.198E+00
 -18.370  0.194E+00  0.190E+00
 -18.360  0.193E+00  0.190E+00
 -18.350  0.201E+00  0.198E+00
 -18.340  0.219E+00  0.215E+00
 -18.330  0.245E+00  0.241E+00
 -18.320  0.277E+00  0.272E+00
 -18.310  0.312E+00  0.306E+00
 -18.300  0.345E+00  0.339E+00
 -18.290  0.375E+00  0.369E+00
 -18.280  0.399E+00  0.392E+00
 -18.270  0.415E+00  0.408E+00
 -18.260  0.425E+00  0.418E+00
 -18.250  0.428E+00  0.421E+00
 -18.240  0.427E+00  0.419E+00
 -18.230  0.421E+00  0.414E+00
 -18.220  0.411E+00  0.404E+00
 -18.210  0.399E+00  0.392E+00
 -18.200  0.385E+00  0.378E+00
 -18.190  0.369E+00  0.363E+00
 -18.180  0.353E+00  0.347E+00
 -18.170  0.338E+00  0.332E+00
 -18.160  0.324E+00  0.319E+00
 -18.150  0.312E+00  0.307E+00
 -18.140  0.302E+00  0.297E+00
 -18.130  0.292E+00  0.288E+00
 -18.120  0.283E+00  0.278E+00
 -18.110  0.272E+00  0.268E+00
 -18.100  0.260E+00  0.256E+00
 -18.090  0.246E+00  0.242E+00
 -18.080  0.231E+00  0.227E+00
 -18.070  0.216E+00  0.212E+00
 -18.060  0.204E+00  0.201E+00
 -18.050  0.199E+00  0.196E+00
 -18.040  0.204E+00  0.200E+00
 -18.030  0.221E+00  0.217E+00
 -18.020  0.251E+00  0.247E+00
 -18.010  0.293E+00  0.289E+00
 -18.000  0.344E+00  0.339E+00
 -17.990  0.397E+00  0.391E+00
 -17.980  0.446E+00  0.439E+00
 -17.970  0.483E+00  0.475E+00
 -17.960  0.504E+00  0.496E+00
 -17.950  0.507E+00  0.498E+00
 -17.940  0.492E+00  0.484E+00
 -17.930  0.463E+00  0.456E+00
 -17.920  0.426E+00  0.419E+00
 -17.910  0.387E+00  0.381E+00
 -17.900  0.350E+00  0.345E+00
 -17.890  0.320E+00  0.314E+00
 -17.880  0.296E+00  0.291E+00
 -17.870  0.280E+00  0.276E+00
 -17.860  0.271E+00  0.266E+00
 -17.850  0.266E+00  0.262E+00
 -17.840  0.265E+00  0.261E+00
 -17.830  0.266E+00  0.262E+00
 -17.820  0.268E+00  0.264E+00
 -17.810  0.271E+00  0.266E+00
 -17.800  0.272E+00  0.268E+00
 -17.790  0.273E+00  0.269E+00
 -17.780  0.272E+00  0.268E+00
 -17.770  0.269E+00  0.265E+00
 -17.760  0.265E+00  0.261E+00
 -17.750  0.259E+00  0.255E+00
 -17.740  0.254E+00  0.250E+00
 -17.730  0.253E+00  0.249E+00
 -17.720  0.257E+00  0.253E+00
 -17.710  0.270E+00  0.265E+00
 -17.700  0.293E+00  0.289E+00
 -17.690  0.328E+00  0.323E+00
 -17.680  0.371E+00  0.365E+00
 -17.670  0.417E+00  0.411E+00
 -17.660  0.462E+00  0.454E+00
 -17.650  0.497E+00  0.489E+00
 -17.640  0.517E+00  0.509E+00
 -17.630  0.519E+00  0.511E+00
 -17.620  0.503E+00  0.495E+00
 -17.610  0.471E+00  0.463E+00
 -17.600  0.428E+00  0.421E+00
 -17.590  0.381E+00  0.375E+00
 -17.580  0.336E+00  0.331E+00
 -17.570  0.297E+00  0.292E+00
 -17.560  0.267E+00  0.263E+00
 -17.550  0.247E+00  0.244E+00
 -17.540  0.236E+00  0.232E+00
 -17.530  0.231E+00  0.227E+00
 -17.520  0.231E+00  0.227E+00
 -17.510  0.233E+00  0.229E+00
 -17.500  0.236E+00  0.233E+00
 -17.490  0.241E+00  0.237E+00
 -17.480  0.247E+00  0.243E+00
 -17.470  0.254E+00  0.250E+00
 -17.460  0.263E+00  0.259E+00
 -17.450  0.274E+00  0.270E+00
 -17.440  0.287E+00  0.283E+00
 -17.430  0.301E+00  0.297E+00
 -17.420  0.317E+00  0.312E+00
 -17.410  0.332E+00  0.327E+00
 -17.400  0.347E+00  0.342E+00
 -17.390  0.361E+00  0.356E+00
 -17.380  0.374E+00  0.368E+00
 -17.370  0.386E+00  0.380E+00
 -17.360  0.397E+00  0.391E+00
 -17.350  0.409E+00  0.402E+00
 -17.340  0.420E+00  0.414E+00
 -17.330  0.431E+00  0.424E+00
 -17.320  0.440E+00  0.434E+00
 -17.310  0.446E+00  0.439E+00
 -17.300  0.447E+00  0.440E+00
 -17.290  0.441E+00  0.435E+00
 -17.280  0.428E+00  0.422E+00
 -17.270  0.408E+00  0.402E+00
 -17.260  0.381E+00  0.376E+00
 -17.250  0.351E+00  0.346E+00
 -17.240  0.320E+00  0.315E+00
 -17.230  0.290E+00  0.286E+00
 -17.220  0.264E+00  0.261E+00
 -17.210  0.244E+00  0.241E+00
 -17.200  0.230E+00  0.227E+00
 -17.190  0.222E+00  0.219E+00
 -17.180  0.218E+00  0.215E+00
 -17.170  0.218E+00  0.215E+00
 -17.160  0.221E+00  0.218E+00
 -17.150  0.225E+00  0.222E+00
 -17.140  0.232E+00  0.229E+00
 -17.130  0.242E+00  0.239E+00
 -17.120  0.257E+00  0.253E+00
 -17.110  0.278E+00  0.274E+00
 -17.100  0.305E+00  0.301E+00
 -17.090  0.339E+00  0.334E+00
 -17.080  0.377E+00  0.372E+00
 -17.070  0.415E+00  0.409E+00
 -17.060  0.450E+00  0.443E+00
 -17.050  0.476E+00  0.470E+00
 -17.040  0.491E+00  0.484E+00
 -17.030  0.491E+00  0.484E+00
 -17.020  0.478E+00  0.472E+00
 -17.010  0.455E+00  0.449E+00
 -17.000  0.426E+00  0.420E+00
 -16.990  0.396E+00  0.391E+00
 -16.980  0.371E+00  0.366E+00
 -16.970  0.354E+00  0.350E+00
 -16.960  0.347E+00  0.342E+00
 -16.950  0.346E+00  0.341E+00
 -16.940  0.350E+00  0.346E+00
 -16.930  0.355E+00  0.350E+00
 -16.920  0.357E+00  0.352E+00
 -16.910  0.352E+00  0.348E+00
 -16.900  0.342E+00  0.337E+00
 -16.890  0.325E+00  0.320E+00
 -16.880  0.304E+00  0.300E+00
 -16.870  0.281E+00  0.277E+00
 -16.860  0.260E+00  0.256E+00
 -16.850  0.242E+00  0.239E+00
 -16.840  0.229E+00  0.226E+00
 -16.830  0.222E+00  0.219E+00
 -16.820  0.221E+00  0.218E+00
 -16.810  0.225E+00  0.222E+00
 -16.800  0.234E+00  0.231E+00
 -16.790  0.247E+00  0.244E+00
 -16.780  0.266E+00  0.263E+00
 -16.770  0.291E+00  0.287E+00
 -16.760  0.323E+00  0.319E+00
 -16.750  0.361E+00  0.357E+00
 -16.740  0.406E+00  0.400E+00
 -16.730  0.452E+00  0.446E+00
 -16.720  0.496E+00  0.489E+00
 -16.710  0.531E+00  0.524E+00
 -16.700  0.552E+00  0.545E+00
 -16.690  0.556E+00  0.549E+00
 -16.680  0.540E+00  0.533E+00
 -16.670  0.508E+00  0.501E+00
 -16.660  0.463E+00  0.457E+00
 -16.650  0.413E+00  0.408E+00
 -16.640  0.366E+00  0.361E+00
 -16.630  0.327E+00  0.323E+00
 -16.620  0.302E+00  0.299E+00
 -16.610  0.292E+00  0.288E+00
 -16.600  0.295E+00  0.291E+00
 -16.590  0.307E+00  0.303E+00
 -16.580  0.323E+00  0.319E+00
 -16.570  0.338E+00  0.334E+00
 -16.560  0.347E+00  0.343E+00
 -16.550  0.348E+00  0.344E+00
 -16.540  0.340E+00  0.336E+00
 -16.530  0.325E+00  0.321E+00
 -16.520  0.305E+00  0.302E+00
 -16.510  0.284E+00  0.281E+00
 -16.500  0.265E+00  0.262E+00
 -16.490  0.251E+00  0.248E+00
 -16.480  0.244E+00  0.241E+00
 -16.470  0.244E+00  0.242E+00
 -16.460  0.254E+00  0.251E+00
 -16.450  0.272E+00  0.269E+00
 -16.440  0.298E+00  0.294E+00
 -16.430  0.330E+00  0.326E+00
 -16.420  0.368E+00  0.364E+00
 -16.410  0.410E+00  0.405E+00
 -16.400  0.453E+00  0.448E+00
 -16.390  0.495E+00  0.489E+00
 -16.380  0.532E+00  0.526E+00
 -16.370  0.561E+00  0.554E+00
 -16.360  0.577E+00  0.570E+00
 -16.350  0.578E+00  0.571E+00
 -16.340  0.563E+00  0.557E+00
 -16.330  0.535E+00  0.529E+00
 -16.320  0.498E+00  0.492E+00
 -16.310  0.456E+00  0.451E+00
 -16.300  0.416E+00  0.411E+00
 -16.290  0.384E+00  0.380E+00
 -16.280  0.363E+00  0.359E+00
 -16.270  0.355E+00  0.351E+00
 -16.260  0.358E+00  0.354E+00
 -16.250  0.368E+00  0.364E+00
 -16.240  0.380E+00  0.376E+00
 -16.230  0.389E+00  0.385E+00
 -16.220  0.392E+00  0.388E+00
 -16.210  0.389E+00  0.385E+00
 -16.200  0.381E+00  0.377E+00
 -16.190  0.371E+00  0.367E+00
 -16.180  0.363E+00  0.360E+00
 -16.170  0.361E+00  0.358E+00
 -16.160  0.366E+00  0.363E+00
 -16.150  0.378E+00  0.375E+00
 -16.140  0.396E+00  0.393E+00
 -16.130  0.418E+00  0.414E+00
 -16.120  0.441E+00  0.437E+00
 -16.110  0.464E+00  0.460E+00
 -16.100  0.486E+00  0.482E+00
 -16.090  0.507E+00  0.503E+00
 -16.080  0.528E+00  0.523E+00
 -16.070  0.548E+00  0.543E+00
 -16.060  0.566E+00  0.561E+00
 -16.050  0.582E+00  0.576E+00
 -16.040  0.593E+00  0.587E+00
 -16.030  0.598E+00  0.592E+00
 -16.020  0.594E+00  0.588E+00
 -16.010  0.579E+00  0.574E+00
 -16.000  0.554E+00  0.549E+00
 -15.990  0.518E+00  0.513E+00
 -15.980  0.475E+00  0.470E+00
 -15.970  0.426E+00  0.422E+00
 -15.960  0.376E+00  0.372E+00
 -15.950  0.330E+00  0.327E+00
 -15.940  0.291E+00  0.289E+00
 -15.930  0.264E+00  0.261E+00
 -15.920  0.248E+00  0.246E+00
 -15.910  0.244E+00  0.241E+00
 -15.900  0.249E+00  0.246E+00
 -15.890  0.259E+00  0.257E+00
 -15.880  0.271E+00  0.268E+00
 -15.870  0.279E+00  0.276E+00
 -15.860  0.279E+00  0.277E+00
 -15.850  0.269E+00  0.267E+00
 -15.840  0.249E+00  0.247E+00
 -15.830  0.218E+00  0.217E+00
 -15.820  0.182E+00  0.180E+00
 -15.810  0.143E+00  0.142E+00
 -15.800  0.107E+00  0.107E+00
 -15.790  0.809E-01  0.802E-01
 -15.780  0.678E-01  0.672E-01
 -15.770  0.714E-01  0.708E-01
 -15.760  0.933E-01  0.924E-01
 -15.750  0.133E+00  0.132E+00
 -15.740  0.188E+00  0.186E+00
 -15.730  0.255E+00  0.253E+00
 -15.720  0.328E+00  0.325E+00
 -15.710  0.400E+00  0.396E+00
 -15.700  0.465E+00  0.461E+00
 -15.690  0.517E+00  0.512E+00
 -15.680  0.550E+00  0.545E+00
 -15.670  0.561E+00  0.556E+00
 -15.660  0.549E+00  0.544E+00
 -15.650  0.513E+00  0.509E+00
 -15.640  0.458E+00  0.454E+00
 -15.630  0.387E+00  0.384E+00
 -15.620  0.307E+00  0.305E+00
 -15.610  0.226E+00  0.224E+00
 -15.600  0.148E+00  0.147E+00
 -15.590  0.813E-01  0.808E-01
 -15.580  0.283E-01  0.282E-01
 -15.570 -0.852E-02 -0.837E-02
 -15.560 -0.292E-01 -0.289E-01
 -15.550 -0.356E-01 -0.352E-01
 -15.540 -0.305E-01 -0.302E-01
 -15.530 -0.175E-01 -0.173E-01
 -15.520  0.257E-04  0.104E-03
 -15.510  0.193E-01  0.192E-01
 -15.500  0.385E-01  0.382E-01
 -15.490  0.568E-01  0.565E-01
 -15.480  0.748E-01  0.743E-01
 -15.470  0.939E-01  0.933E-01
 -15.460  0.116E+00  0.115E+00
 -15.450  0.144E+00  0.143E+00
 -15.440  0.179E+00  0.178E+00
 -15.430  0.222E+00  0.220E+00
 -15.420  0.271E+00  0.269E+00
 -15.410  0.323E+00  0.320E+00
 -15.400  0.372E+00  0.369E+00
 -15.390  0.413E+00  0.410E+00
 -15.380  0.438E+00  0.434E+00
 -15.370  0.442E+00  0.438E+00
 -15.360  0.423E+00  0.419E+00
 -15.350  0.380E+00  0.377E+00
 -15.340  0.320E+00  0.317E+00
 -15.330  0.248E+00  0.246E+00
 -15.320  0.174E+00  0.172E+00
 -15.310  0.105E+00  0.104E+00
 -15.300  0.485E-01  0.481E-01
 -15.290  0.831E-02  0.824E-02
 -15.280 -0.147E-01 -0.146E-01
 -15.270 -0.223E-01 -0.221E-01
 -15.260 -0.180E-01 -0.178E-01
 -15.250 -0.618E-02 -0.604E-02
 -15.240  0.891E-02  0.894E-02
 -15.230  0.238E-01  0.237E-01
 -15.220  0.363E-01  0.361E-01
 -15.210  0.454E-01  0.452E-01
 -15.200  0.518E-01  0.514E-01
 -15.190  0.565E-01  0.562E-01
 -15.180  0.617E-01  0.613E-01
 -15.170  0.692E-01  0.687E-01
 -15.160  0.808E-01  0.802E-01
 -15.150  0.973E-01  0.966E-01
 -15.140  0.119E+00  0.118E+00
 -15.130  0.145E+00  0.144E+00
 -15.120  0.175E+00  0.173E+00
 -15.110  0.206E+00  0.204E+00
 -15.100  0.237E+00  0.235E+00
 -15.090  0.267E+00  0.264E+00
 -15.080  0.293E+00  0.290E+00
 -15.070  0.314E+00  0.311E+00
 -15.060  0.330E+00  0.326E+00
 -15.050  0.338E+00  0.334E+00
 -15.040  0.340E+00  0.336E+00
 -15.030  0.335E+00  0.331E+00
 -15.020  0.326E+00  0.321E+00
 -15.010  0.313E+00  0.308E+00
 -15.000  0.298E+00  0.293E+00
 -14.990  0.285E+00  0.280E+00
 -14.980  0.274E+00  0.269E+00
 -14.970  0.266E+00  0.260E+00
 -14.960  0.260E+00  0.255E+00
 -14.950  0.258E+00  0.253E+00
 -14.940  0.257E+00  0.252E+00
 -14.930  0.259E+00  0.254E+00
 -14.920  0.262E+00  0.258E+00
 -14.910  0.269E+00  0.264E+00
 -14.900  0.279E+00  0.274E+00
 -14.890  0.292E+00  0.287E+00
 -14.880  0.309E+00  0.303E+00
 -14.870  0.326E+00  0.321E+00
 -14.860  0.344E+00  0.338E+00
 -14.850  0.358E+00  0.352E+00
 -14.840  0.367E+00  0.360E+00
 -14.830  0.370E+00  0.364E+00
 -14.820  0.367E+00  0.361E+00
 -14.810  0.360E+00  0.355E+00
 -14.800  0.351E+00  0.346E+00
 -14.790  0.342E+00  0.337E+00
 -14.780  0.335E+00  0.330E+00
 -14.770  0.331E+00  0.327E+00
 -14.760  0.331E+00  0.327E+00
 -14.750  0.336E+00  0.332E+00
 -14.740  0.346E+00  0.341E+00
 -14.730  0.358E+00  0.353E+00
 -14.720  0.373E+00  0.367E+00
 -14.710  0.387E+00  0.381E+00
 -14.700  0.397E+00  0.391E+00
 -14.690  0.400E+00  0.393E+00
 -14.680  0.392E+00  0.386E+00
 -14.670  0.374E+00  0.367E+00
 -14.660  0.344E+00  0.338E+00
 -14.650  0.306E+00  0.301E+00
 -14.640  0.266E+00  0.261E+00
 -14.630  0.228E+00  0.224E+00
 -14.620  0.199E+00  0.196E+00
 -14.610  0.185E+00  0.182E+00
 -14.600  0.188E+00  0.185E+00
 -14.590  0.210E+00  0.207E+00
 -14.580  0.247E+00  0.243E+00
 -14.570  0.294E+00  0.290E+00
 -14.560  0.347E+00  0.342E+00
 -14.550  0.396E+00  0.391E+00
 -14.540  0.437E+00  0.431E+00
 -14.530  0.465E+00  0.458E+00
 -14.520  0.476E+00  0.468E+00
 -14.510  0.470E+00  0.463E+00
 -14.500  0.451E+00  0.444E+00
 -14.490  0.421E+00  0.415E+00
 -14.480  0.386E+00  0.380E+00
 -14.470  0.349E+00  0.343E+00
 -14.460  0.314E+00  0.309E+00
 -14.450  0.284E+00  0.280E+00
 -14.440  0.261E+00  0.257E+00
 -14.430  0.245E+00  0.241E+00
 -14.420  0.235E+00  0.232E+00
 -14.410  0.233E+00  0.230E+00
 -14.400  0.238E+00  0.235E+00
 -14.390  0.253E+00  0.249E+00
 -14.380  0.277E+00  0.273E+00
 -14.370  0.311E+00  0.307E+00
 -14.360  0.355E+00  0.350E+00
 -14.350  0.404E+00  0.398E+00
 -14.340  0.454E+00  0.448E+00
 -14.330  0.499E+00  0.492E+00
 -14.320  0.533E+00  0.526E+00
 -14.310  0.552E+00  0.544E+00
 -14.300  0.553E+00  0.545E+00
 -14.290  0.536E+00  0.529E+00
 -14.280  0.506E+00  0.499E+00
 -14.270  0.467E+00  0.460E+00
 -14.260  0.426E+00  0.420E+00
 -14.250  0.391E+00  0.386E+00
 -14.240  0.369E+00  0.364E+00
 -14.230  0.364E+00  0.359E+00
 -14.220  0.379E+00  0.374E+00
 -14.210  0.411E+00  0.406E+00
 -14.200  0.456E+00  0.451E+00
 -14.190  0.506E+00  0.500E+00
 -14.180  0.551E+00  0.545E+00
 -14.170  0.584E+00  0.577E+00
 -14.160  0.597E+00  0.590E+00
 -14.150  0.589E+00  0.582E+00
 -14.140  0.562E+00  0.556E+00
 -14.130  0.524E+00  0.518E+00
 -14.120  0.482E+00  0.477E+00
 -14.110  0.446E+00  0.441E+00
 -14.100  0.421E+00  0.416E+00
 -14.090  0.410E+00  0.405E+00
 -14.080  0.413E+00  0.408E+00
 -14.070  0.426E+00  0.420E+00
 -14.060  0.441E+00  0.436E+00
 -14.050  0.454E+00  0.448E+00
 -14.040  0.459E+00  0.454E+00
 -14.030  0.455E+00  0.450E+00
 -14.020  0.442E+00  0.436E+00
 -14.010  0.421E+00  0.416E+00
 -14.000  0.396E+00  0.391E+00
 -13.990  0.372E+00  0.368E+00
 -13.980  0.352E+00  0.348E+00
 -13.970  0.339E+00  0.336E+00
 -13.960  0.335E+00  0.332E+00
 -13.950  0.340E+00  0.336E+00
 -13.940  0.351E+00  0.347E+00
 -13.930  0.366E+00  0.362E+00
 -13.920  0.383E+00  0.379E+00
 -13.910  0.398E+00  0.393E+00
 -13.900  0.408E+00  0.404E+00
 -13.890  0.414E+00  0.409E+00
 -13.880  0.414E+00  0.409E+00
 -13.870  0.410E+00  0.405E+00
 -13.860  0.402E+00  0.397E+00
 -13.850  0.391E+00  0.387E+00
 -13.840  0.381E+00  0.376E+00
 -13.830  0.371E+00  0.366E+00
 -13.820  0.363E+00  0.359E+00
 -13.810  0.359E+00  0.355E+00
 -13.800  0.359E+00  0.355E+00
 -13.790  0.364E+00  0.360E+00
 -13.780  0.373E+00  0.369E+00
 -13.770  0.384E+00  0.379E+00
 -13.760  0.393E+00  0.389E+00
 -13.750  0.398E+00  0.394E+00
 -13.740  0.396E+00  0.392E+00
 -13.730  0.384E+00  0.380E+00
 -13.720  0.362E+00  0.358E+00
 -13.710  0.333E+00  0.330E+00
 -13.700  0.303E+00  0.299E+00
 -13.690  0.275E+00  0.273E+00
 -13.680  0.258E+00  0.256E+00
 -13.670  0.257E+00  0.254E+00
 -13.660  0.272E+00  0.269E+00
 -13.650  0.304E+00  0.301E+00
 -13.640  0.348E+00  0.344E+00
 -13.630  0.396E+00  0.392E+00
 -13.620  0.439E+00  0.434E+00
 -13.610  0.469E+00  0.464E+00
 -13.600  0.479E+00  0.474E+00
 -13.590  0.467E+00  0.461E+00
 -13.580  0.434E+00  0.429E+00
 -13.570  0.386E+00  0.382E+00
 -13.560  0.332E+00  0.329E+00
 -13.550  0.282E+00  0.279E+00
 -13.540  0.243E+00  0.240E+00
 -13.530  0.222E+00  0.220E+00
 -13.520  0.222E+00  0.219E+00
 -13.510  0.240E+00  0.238E+00
 -13.500  0.274E+00  0.272E+00
 -13.490  0.316E+00  0.313E+00
 -13.480  0.358E+00  0.355E+00
 -13.470  0.392E+00  0.388E+00
 -13.460  0.411E+00  0.407E+00
 -13.450  0.413E+00  0.409E+00
 -13.440  0.398E+00  0.394E+00
 -13.430  0.370E+00  0.366E+00
 -13.420  0.335E+00  0.331E+00
 -13.410  0.301E+00  0.298E+00
 -13.400  0.275E+00  0.272E+00
 -13.390  0.263E+00  0.260E+00
 -13.380  0.266E+00  0.262E+00
 -13.370  0.282E+00  0.278E+00
 -13.360  0.307E+00  0.303E+00
 -13.350  0.336E+00  0.332E+00
 -13.340  0.363E+00  0.359E+00
 -13.330  0.382E+00  0.378E+00
 -13.320  0.392E+00  0.388E+00
 -13.310  0.390E+00  0.387E+00
 -13.300  0.378E+00  0.375E+00
 -13.290  0.358E+00  0.354E+00
 -13.280  0.332E+00  0.329E+00
 -13.270  0.304E+00  0.301E+00
 -13.260  0.276E+00  0.274E+00
 -13.250  0.253E+00  0.251E+00
 -13.240  0.236E+00  0.234E+00
 -13.230  0.228E+00  0.226E+00
 -13.220  0.230E+00  0.228E+00
 -13.210  0.242E+00  0.240E+00
 -13.200  0.263E+00  0.261E+00
 -13.190  0.290E+00  0.288E+00
 -13.180  0.320E+00  0.317E+00
 -13.170  0.348E+00  0.345E+00
 -13.160  0.371E+00  0.367E+00
 -13.150  0.385E+00  0.381E+00
 -13.140  0.390E+00  0.386E+00
 -13.130  0.387E+00  0.383E+00
 -13.120  0.377E+00  0.373E+00
 -13.110  0.362E+00  0.358E+00
 -13.100  0.344E+00  0.341E+00
 -13.090  0.326E+00  0.323E+00
 -13.080  0.308E+00  0.304E+00
 -13.070  0.290E+00  0.287E+00
 -13.060  0.273E+00  0.270E+00
 -13.050  0.257E+00  0.255E+00
 -13.040  0.243E+00  0.241E+00
 -13.030  0.232E+00  0.230E+00
 -13.020  0.225E+00  0.223E+00
 -13.010  0.223E+00  0.221E+00
 -13.000  0.227E+00  0.225E+00
 -12.990  0.237E+00  0.235E+00
 -12.980  0.252E+00  0.250E+00
 -12.970  0.273E+00  0.270E+00
 -12.960  0.296E+00  0.293E+00
 -12.950  0.319E+00  0.317E+00
 -12.940  0.342E+00  0.339E+00
 -12.930  0.361E+00  0.357E+00
 -12.920  0.375E+00  0.371E+00
 -12.910  0.383E+00  0.379E+00
 -12.900  0.384E+00  0.380E+00
 -12.890  0.378E+00  0.374E+00
 -12.880  0.364E+00  0.361E+00
 -12.870  0.344E+00  0.340E+00
 -12.860  0.318E+00  0.315E+00
 -12.850  0.290E+00  0.286E+00
 -12.840  0.261E+00  0.258E+00
 -12.830  0.235E+00  0.232E+00
 -12.820  0.215E+00  0.213E+00
 -12.810  0.205E+00  0.202E+00
 -12.800  0.203E+00  0.201E+00
 -12.790  0.210E+00  0.208E+00
 -12.780  0.224E+00  0.222E+00
 -12.770  0.241E+00  0.239E+00
 -12.760  0.259E+00  0.257E+00
 -12.750  0.274E+00  0.272E+00
 -12.740  0.286E+00  0.283E+00
 -12.730  0.293E+00  0.290E+00
 -12.720  0.295E+00  0.293E+00
 -12.710  0.295E+00  0.293E+00
 -12.700  0.294E+00  0.292E+00
 -12.690  0.294E+00  0.291E+00
 -12.680  0.295E+00  0.293E+00
 -12.670  0.298E+00  0.296E+00
 -12.660  0.304E+00  0.301E+00
 -12.650  0.310E+00  0.307E+00
 -12.640  0.317E+00  0.314E+00
 -12.630  0.322E+00  0.319E+00
 -12.620  0.325E+00  0.322E+00
 -12.610  0.326E+00  0.323E+00
 -12.600  0.323E+00  0.319E+00
 -12.590  0.316E+00  0.313E+00
 -12.580  0.306E+00  0.303E+00
 -12.570  0.294E+00  0.292E+00
 -12.560  0.281E+00  0.278E+00
 -12.550  0.266E+00  0.264E+00
 -12.540  0.252E+00  0.250E+00
 -12.530  0.237E+00  0.235E+00
 -12.520  0.222E+00  0.220E+00
 -12.510  0.207E+00  0.205E+00
 -12.500  0.191E+00  0.190E+00
 -12.490  0.176E+00  0.175E+00
 -12.480  0.164E+00  0.163E+00
 -12.470  0.158E+00  0.156E+00
 -12.460  0.160E+00  0.159E+00
 -12.450  0.174E+00  0.173E+00
 -12.440  0.201E+00  0.200E+00
 -12.430  0.241E+00  0.239E+00
 -12.420  0.290E+00  0.287E+00
 -12.410  0.343E+00  0.340E+00
 -12.400  0.396E+00  0.392E+00
 -12.390  0.441E+00  0.437E+00
 -12.380  0.474E+00  0.469E+00
 -12.370  0.491E+00  0.486E+00
 -12.360  0.492E+00  0.488E+00
 -12.350  0.479E+00  0.474E+00
 -12.340  0.453E+00  0.448E+00
 -12.330  0.418E+00  0.414E+00
 -12.320  0.379E+00  0.375E+00
 -12.310  0.338E+00  0.334E+00
 -12.300  0.298E+00  0.294E+00
 -12.290  0.262E+00  0.259E+00
 -12.280  0.232E+00  0.229E+00
 -12.270  0.210E+00  0.207E+00
 -12.260  0.198E+00  0.195E+00
 -12.250  0.196E+00  0.193E+00
 -12.240  0.204E+00  0.201E+00
 -12.230  0.222E+00  0.219E+00
 -12.220  0.248E+00  0.245E+00
 -12.210  0.280E+00  0.277E+00
 -12.200  0.317E+00  0.314E+00
 -12.190  0.358E+00  0.354E+00
 -12.180  0.400E+00  0.395E+00
 -12.170  0.441E+00  0.437E+00
 -12.160  0.480E+00  0.475E+00
 -12.150  0.512E+00  0.507E+00
 -12.140  0.534E+00  0.528E+00
 -12.130  0.540E+00  0.534E+00
 -12.120  0.529E+00  0.523E+00
 -12.110  0.500E+00  0.495E+00
 -12.100  0.457E+00  0.452E+00
 -12.090  0.405E+00  0.401E+00
 -12.080  0.350E+00  0.347E+00
 -12.070  0.301E+00  0.298E+00
 -12.060  0.262E+00  0.259E+00
 -12.050  0.238E+00  0.236E+00
 -12.040  0.230E+00  0.227E+00
 -12.030  0.236E+00  0.234E+00
 -12.020  0.254E+00  0.251E+00
 -12.010  0.279E+00  0.276E+00
 -12.000  0.308E+00  0.304E+00
 -11.990  0.336E+00  0.331E+00
 -11.980  0.361E+00  0.356E+00
 -11.970  0.381E+00  0.376E+00
 -11.960  0.396E+00  0.392E+00
 -11.950  0.408E+00  0.403E+00
 -11.940  0.416E+00  0.411E+00
 -11.930  0.421E+00  0.417E+00
 -11.920  0.425E+00  0.420E+00
 -11.910  0.425E+00  0.421E+00
 -11.900  0.421E+00  0.417E+00
 -11.890  0.412E+00  0.408E+00
 -11.880  0.397E+00  0.393E+00
 -11.870  0.375E+00  0.371E+00
 -11.860  0.349E+00  0.346E+00
 -11.850  0.322E+00  0.319E+00
 -11.840  0.298E+00  0.295E+00
 -11.830  0.280E+00  0.278E+00
 -11.820  0.272E+00  0.270E+00
 -11.810  0.276E+00  0.273E+00
 -11.800  0.290E+00  0.287E+00
 -11.790  0.313E+00  0.311E+00
 -11.780  0.343E+00  0.340E+00
 -11.770  0.374E+00  0.371E+00
 -11.760  0.403E+00  0.399E+00
 -11.750  0.427E+00  0.423E+00
 -11.740  0.444E+00  0.439E+00
 -11.730  0.451E+00  0.447E+00
 -11.720  0.450E+00  0.445E+00
 -11.710  0.441E+00  0.436E+00
 -11.700  0.426E+00  0.421E+00
 -11.690  0.406E+00  0.401E+00
 -11.680  0.384E+00  0.380E+00
 -11.670  0.363E+00  0.359E+00
 -11.660  0.346E+00  0.342E+00
 -11.650  0.334E+00  0.330E+00
 -11.640  0.329E+00  0.325E+00
 -11.630  0.330E+00  0.327E+00
 -11.620  0.337E+00  0.334E+00
 -11.610  0.349E+00  0.345E+00
 -11.600  0.361E+00  0.357E+00
 -11.590  0.373E+00  0.368E+00
 -11.580  0.381E+00  0.377E+00
 -11.570  0.386E+00  0.382E+00
 -11.560  0.388E+00  0.384E+00
 -11.550  0.387E+00  0.383E+00
 -11.540  0.385E+00  0.381E+00
 -11.530  0.382E+00  0.379E+00
 -11.520  0.380E+00  0.377E+00
 -11.510  0.377E+00  0.374E+00
 -11.500  0.373E+00  0.370E+00
 -11.490  0.365E+00  0.362E+00
 -11.480  0.354E+00  0.351E+00
 -11.470  0.339E+00  0.336E+00
 -11.460  0.321E+00  0.318E+00
 -11.450  0.302E+00  0.299E+00
 -11.440  0.285E+00  0.282E+00
 -11.430  0.273E+00  0.270E+00
 -11.420  0.270E+00  0.267E+00
 -11.410  0.278E+00  0.275E+00
 -11.400  0.299E+00  0.295E+00
 -11.390  0.330E+00  0.326E+00
 -11.380  0.368E+00  0.364E+00
 -11.370  0.410E+00  0.406E+00
 -11.360  0.451E+00  0.446E+00
 -11.350  0.486E+00  0.481E+00
 -11.340  0.513E+00  0.508E+00
 -11.330  0.531E+00  0.526E+00
 -11.320  0.541E+00  0.535E+00
 -11.310  0.543E+00  0.538E+00
 -11.300  0.540E+00  0.535E+00
 -11.290  0.532E+00  0.526E+00
 -11.280  0.517E+00  0.512E+00
 -11.270  0.495E+00  0.490E+00
 -11.260  0.463E+00  0.459E+00
 -11.250  0.422E+00  0.418E+00
 -11.240  0.370E+00  0.367E+00
 -11.230  0.312E+00  0.309E+00
 -11.220  0.251E+00  0.249E+00
 -11.210  0.195E+00  0.193E+00
 -11.200  0.149E+00  0.148E+00
 -11.190  0.120E+00  0.119E+00
 -11.180  0.112E+00  0.111E+00
 -11.170  0.126E+00  0.124E+00
 -11.160  0.160E+00  0.158E+00
 -11.150  0.210E+00  0.208E+00
 -11.140  0.270E+00  0.268E+00
 -11.130  0.333E+00  0.330E+00
 -11.120  0.393E+00  0.389E+00
 -11.110  0.444E+00  0.440E+00
 -11.100  0.484E+00  0.480E+00
 -11.090  0.512E+00  0.508E+00
 -11.080  0.531E+00  0.526E+00
 -11.070  0.543E+00  0.538E+00
 -11.060  0.550E+00  0.545E+00
 -11.050  0.555E+00  0.549E+00
 -11.040  0.556E+00  0.551E+00
 -11.030  0.553E+00  0.548E+00
 -11.020  0.543E+00  0.538E+00
 -11.010  0.524E+00  0.519E+00
 -11.000  0.495E+00  0.490E+00
 -10.990  0.458E+00  0.453E+00
 -10.980  0.414E+00  0.409E+00
 -10.970  0.366E+00  0.362E+00
 -10.960  0.319E+00  0.315E+00
 -10.950  0.275E+00  0.272E+00
 -10.940  0.239E+00  0.236E+00
 -10.930  0.212E+00  0.209E+00
 -10.920  0.197E+00  0.194E+00
 -10.910  0.195E+00  0.193E+00
 -10.900  0.209E+00  0.207E+00
 -10.890  0.238E+00  0.236E+00
 -10.880  0.280E+00  0.278E+00
 -10.870  0.333E+00  0.330E+00
 -10.860  0.390E+00  0.387E+00
 -10.850  0.447E+00  0.443E+00
 -10.840  0.497E+00  0.493E+00
 -10.830  0.536E+00  0.531E+00
 -10.820  0.560E+00  0.556E+00
 -10.810  0.570E+00  0.565E+00
 -10.800  0.565E+00  0.561E+00
 -10.790  0.548E+00  0.543E+00
 -10.780  0.520E+00  0.516E+00
 -10.770  0.483E+00  0.479E+00
 -10.760  0.440E+00  0.436E+00
 -10.750  0.391E+00  0.387E+00
 -10.740  0.339E+00  0.336E+00
 -10.730  0.288E+00  0.285E+00
 -10.720  0.240E+00  0.238E+00
 -10.710  0.202E+00  0.200E+00
 -10.700  0.177E+00  0.175E+00
 -10.690  0.169E+00  0.167E+00
 -10.680  0.178E+00  0.176E+00
 -10.670  0.205E+00  0.203E+00
 -10.660  0.246E+00  0.244E+00
 -10.650  0.299E+00  0.297E+00
 -10.640  0.360E+00  0.357E+00
 -10.630  0.425E+00  0.421E+00
 -10.620  0.489E+00  0.485E+00
 -10.610  0.550E+00  0.545E+00
 -10.600  0.604E+00  0.598E+00
 -10.590  0.646E+00  0.640E+00
 -10.580  0.672E+00  0.667E+00
 -10.570  0.680E+00  0.674E+00
 -10.560  0.666E+00  0.661E+00
 -10.550  0.632E+00  0.627E+00
 -10.540  0.580E+00  0.575E+00
 -10.530  0.516E+00  0.511E+00
 -10.520  0.447E+00  0.443E+00
 -10.510  0.381E+00  0.378E+00
 -10.500  0.326E+00  0.323E+00
 -10.490  0.284E+00  0.282E+00
 -10.480  0.258E+00  0.256E+00
 -10.470  0.245E+00  0.243E+00
 -10.460  0.242E+00  0.240E+00
 -10.450  0.244E+00  0.242E+00
 -10.440  0.247E+00  0.244E+00
 -10.430  0.247E+00  0.245E+00
 -10.420  0.246E+00  0.244E+00
 -10.410  0.244E+00  0.242E+00
 -10.400  0.245E+00  0.243E+00
 -10.390  0.252E+00  0.250E+00
 -10.380  0.269E+00  0.267E+00
 -10.370  0.299E+00  0.296E+00
 -10.360  0.341E+00  0.338E+00
 -10.350  0.396E+00  0.393E+00
 -10.340  0.459E+00  0.455E+00
 -10.330  0.524E+00  0.519E+00
 -10.320  0.583E+00  0.579E+00
 -10.310  0.630E+00  0.625E+00
 -10.300  0.658E+00  0.653E+00
 -10.290  0.662E+00  0.657E+00
 -10.280  0.643E+00  0.638E+00
 -10.270  0.604E+00  0.599E+00
 -10.260  0.551E+00  0.546E+00
 -10.250  0.493E+00  0.488E+00
 -10.240  0.437E+00  0.433E+00
 -10.230  0.392E+00  0.388E+00
 -10.220  0.359E+00  0.356E+00
 -10.210  0.340E+00  0.337E+00
 -10.200  0.332E+00  0.329E+00
 -10.190  0.332E+00  0.329E+00
 -10.180  0.335E+00  0.331E+00
 -10.170  0.336E+00  0.333E+00
 -10.160  0.336E+00  0.333E+00
 -10.150  0.332E+00  0.329E+00
 -10.140  0.328E+00  0.325E+00
 -10.130  0.327E+00  0.325E+00
 -10.120  0.334E+00  0.331E+00
 -10.110  0.352E+00  0.349E+00
 -10.100  0.382E+00  0.380E+00
 -10.090  0.425E+00  0.422E+00
 -10.080  0.474E+00  0.470E+00
 -10.070  0.522E+00  0.518E+00
 -10.060  0.560E+00  0.556E+00
 -10.050  0.581E+00  0.576E+00
 -10.040  0.577E+00  0.572E+00
 -10.030  0.548E+00  0.544E+00
 -10.020  0.499E+00  0.495E+00
 -10.010  0.437E+00  0.433E+00
 -10.000  0.372E+00  0.369E+00
  -9.990  0.316E+00  0.313E+00
  -9.980  0.276E+00  0.274E+00
  -9.970  0.258E+00  0.255E+00
  -9.960  0.259E+00  0.257E+00
  -9.950  0.278E+00  0.275E+00
  -9.940  0.307E+00  0.304E+00
  -9.930  0.340E+00  0.337E+00
  -9.920  0.372E+00  0.369E+00
  -9.910  0.400E+00  0.397E+00
  -9.900  0.425E+00  0.421E+00
  -9.890  0.447E+00  0.443E+00
  -9.880  0.469E+00  0.465E+00
  -9.870  0.494E+00  0.490E+00
  -9.860  0.522E+00  0.518E+00
  -9.850  0.554E+00  0.549E+00
  -9.840  0.587E+00  0.582E+00
  -9.830  0.617E+00  0.612E+00
  -9.820  0.641E+00  0.636E+00
  -9.810  0.655E+00  0.650E+00
  -9.800  0.654E+00  0.649E+00
  -9.790  0.637E+00  0.632E+00
  -9.780  0.603E+00  0.598E+00
  -9.770  0.553E+00  0.549E+00
  -9.760  0.491E+00  0.488E+00
  -9.750  0.423E+00  0.420E+00
  -9.740  0.354E+00  0.352E+00
  -9.730  0.291E+00  0.289E+00
  -9.720  0.239E+00  0.238E+00
  -9.710  0.202E+00  0.201E+00
  -9.700  0.182E+00  0.181E+00
  -9.690  0.178E+00  0.177E+00
  -9.680  0.188E+00  0.186E+00
  -9.670  0.209E+00  0.207E+00
  -9.660  0.238E+00  0.236E+00
  -9.650  0.275E+00  0.273E+00
  -9.640  0.319E+00  0.316E+00
  -9.630  0.369E+00  0.366E+00
  -9.620  0.426E+00  0.423E+00
  -9.610  0.489E+00  0.485E+00
  -9.600  0.555E+00  0.551E+00
  -9.590  0.620E+00  0.615E+00
  -9.580  0.677E+00  0.672E+00
  -9.570  0.720E+00  0.715E+00
  -9.560  0.745E+00  0.739E+00
  -9.550  0.747E+00  0.741E+00
  -9.540  0.726E+00  0.721E+00
  -9.530  0.687E+00  0.682E+00
  -9.520  0.634E+00  0.629E+00
  -9.510  0.575E+00  0.571E+00
  -9.500  0.519E+00  0.515E+00
  -9.490  0.473E+00  0.469E+00
  -9.480  0.443E+00  0.438E+00
  -9.470  0.430E+00  0.425E+00
  -9.460  0.436E+00  0.429E+00
  -9.450  0.456E+00  0.448E+00
  -9.440  0.485E+00  0.476E+00
  -9.430  0.518E+00  0.508E+00
  -9.420  0.547E+00  0.535E+00
  -9.410  0.567E+00  0.555E+00
  -9.400  0.577E+00  0.563E+00
  -9.390  0.576E+00  0.562E+00
  -9.380  0.568E+00  0.553E+00
  -9.370  0.559E+00  0.544E+00
  -9.360  0.556E+00  0.541E+00
  -9.350  0.565E+00  0.550E+00
  -9.340  0.594E+00  0.579E+00
  -9.330  0.643E+00  0.628E+00
  -9.320  0.712E+00  0.696E+00
  -9.310  0.796E+00  0.780E+00
  -9.300  0.885E+00  0.868E+00
  -9.290  0.970E+00  0.952E+00
  -9.280  0.104E+01  0.102E+01
  -9.270  0.108E+01  0.106E+01
  -9.260  0.109E+01  0.108E+01
  -9.250  0.107E+01  0.106E+01
  -9.240  0.103E+01  0.101E+01
  -9.230  0.955E+00  0.938E+00
  -9.220  0.871E+00  0.855E+00
  -9.210  0.784E+00  0.768E+00
  -9.200  0.702E+00  0.687E+00
  -9.190  0.631E+00  0.617E+00
  -9.180  0.577E+00  0.563E+00
  -9.170  0.540E+00  0.527E+00
  -9.160  0.520E+00  0.507E+00
  -9.150  0.515E+00  0.502E+00
  -9.140  0.522E+00  0.510E+00
  -9.130  0.538E+00  0.525E+00
  -9.120  0.558E+00  0.545E+00
  -9.110  0.582E+00  0.569E+00
  -9.100  0.608E+00  0.595E+00
  -9.090  0.638E+00  0.625E+00
  -9.080  0.674E+00  0.660E+00
  -9.070  0.717E+00  0.704E+00
  -9.060  0.771E+00  0.757E+00
  -9.050  0.832E+00  0.818E+00
  -9.040  0.899E+00  0.884E+00
  -9.030  0.964E+00  0.949E+00
  -9.020  0.102E+01  0.100E+01
  -9.010  0.106E+01  0.104E+01
  -9.000  0.107E+01  0.105E+01
  -8.990  0.106E+01  0.104E+01
  -8.980  0.102E+01  0.101E+01
  -8.970  0.964E+00  0.949E+00
  -8.960  0.895E+00  0.881E+00
  -8.950  0.822E+00  0.809E+00
  -8.940  0.756E+00  0.743E+00
  -8.930  0.702E+00  0.690E+00
  -8.920  0.665E+00  0.653E+00
  -8.910  0.647E+00  0.635E+00
  -8.900  0.647E+00  0.634E+00
  -8.890  0.659E+00  0.646E+00
  -8.880  0.680E+00  0.666E+00
  -8.870  0.702E+00  0.688E+00
  -8.860  0.721E+00  0.707E+00
  -8.850  0.732E+00  0.719E+00
  -8.840  0.736E+00  0.723E+00
  -8.830  0.734E+00  0.721E+00
  -8.820  0.728E+00  0.717E+00
  -8.810  0.724E+00  0.713E+00
  -8.800  0.727E+00  0.716E+00
  -8.790  0.738E+00  0.727E+00
  -8.780  0.761E+00  0.750E+00
  -8.770  0.795E+00  0.783E+00
  -8.760  0.837E+00  0.824E+00
  -8.750  0.883E+00  0.870E+00
  -8.740  0.930E+00  0.915E+00
  -8.730  0.971E+00  0.956E+00
  -8.720  0.100E+01  0.987E+00
  -8.710  0.102E+01  0.100E+01
  -8.700  0.102E+01  0.101E+01
  -8.690  0.101E+01  0.993E+00
  -8.680  0.980E+00  0.967E+00
  -8.670  0.943E+00  0.931E+00
  -8.660  0.901E+00  0.890E+00
  -8.650  0.859E+00  0.848E+00
  -8.640  0.822E+00  0.812E+00
  -8.630  0.794E+00  0.784E+00
  -8.620  0.778E+00  0.767E+00
  -8.610  0.772E+00  0.761E+00
  -8.600  0.778E+00  0.766E+00
  -8.590  0.792E+00  0.779E+00
  -8.580  0.811E+00  0.798E+00
  -8.570  0.835E+00  0.822E+00
  -8.560  0.863E+00  0.850E+00
  -8.550  0.893E+00  0.880E+00
  -8.540  0.926E+00  0.913E+00
  -8.530  0.959E+00  0.947E+00
  -8.520  0.990E+00  0.978E+00
  -8.510  0.101E+01  0.100E+01
  -8.500  0.103E+01  0.102E+01
  -8.490  0.103E+01  0.101E+01
  -8.480  0.101E+01  0.998E+00
  -8.470  0.978E+00  0.968E+00
  -8.460  0.940E+00  0.930E+00
  -8.450  0.901E+00  0.891E+00
  -8.440  0.869E+00  0.858E+00
  -8.430  0.850E+00  0.839E+00
  -8.420  0.848E+00  0.836E+00
  -8.410  0.862E+00  0.850E+00
  -8.400  0.890E+00  0.877E+00
  -8.390  0.927E+00  0.914E+00
  -8.380  0.969E+00  0.956E+00
  -8.370  0.101E+01  0.998E+00
  -8.360  0.105E+01  0.104E+01
  -8.350  0.109E+01  0.108E+01
  -8.340  0.113E+01  0.112E+01
  -8.330  0.117E+01  0.116E+01
  -8.320  0.122E+01  0.121E+01
  -8.310  0.127E+01  0.126E+01
  -8.300  0.132E+01  0.131E+01
  -8.290  0.137E+01  0.136E+01
  -8.280  0.141E+01  0.140E+01
  -8.270  0.144E+01  0.143E+01
  -8.260  0.145E+01  0.144E+01
  -8.250  0.143E+01  0.142E+01
  -8.240  0.139E+01  0.138E+01
  -8.230  0.133E+01  0.131E+01
  -8.220  0.125E+01  0.123E+01
  -8.210  0.116E+01  0.115E+01
  -8.200  0.108E+01  0.107E+01
  -8.190  0.100E+01  0.993E+00
  -8.180  0.947E+00  0.935E+00
  -8.170  0.906E+00  0.895E+00
  -8.160  0.881E+00  0.871E+00
  -8.150  0.868E+00  0.858E+00
  -8.140  0.861E+00  0.852E+00
  -8.130  0.854E+00  0.846E+00
  -8.120  0.844E+00  0.836E+00
  -8.110  0.831E+00  0.823E+00
  -8.100  0.815E+00  0.807E+00
  -8.090  0.801E+00  0.794E+00
  -8.080  0.796E+00  0.788E+00
  -8.070  0.802E+00  0.794E+00
  -8.060  0.824E+00  0.815E+00
  -8.050  0.861E+00  0.852E+00
  -8.040  0.911E+00  0.901E+00
  -8.030  0.968E+00  0.957E+00
  -8.020  0.102E+01  0.101E+01
  -8.010  0.107E+01  0.106E+01
  -8.000  0.111E+01  0.109E+01
  -7.990  0.112E+01  0.111E+01
  -7.980  0.112E+01  0.111E+01
  -7.970  0.109E+01  0.108E+01
  -7.960  0.105E+01  0.104E+01
  -7.950  0.100E+01  0.991E+00
  -7.940  0.944E+00  0.935E+00
  -7.930  0.885E+00  0.876E+00
  -7.920  0.827E+00  0.820E+00
  -7.910  0.774E+00  0.767E+00
  -7.900  0.726E+00  0.720E+00
  -7.890  0.686E+00  0.680E+00
  -7.880  0.653E+00  0.648E+00
  -7.870  0.631E+00  0.626E+00
  -7.860  0.622E+00  0.616E+00
  -7.850  0.629E+00  0.622E+00
  -7.840  0.652E+00  0.645E+00
  -7.830  0.691E+00  0.684E+00
  -7.820  0.743E+00  0.735E+00
  -7.810  0.802E+00  0.793E+00
  -7.800  0.859E+00  0.850E+00
  -7.790  0.907E+00  0.897E+00
  -7.780  0.939E+00  0.929E+00
  -7.770  0.950E+00  0.940E+00
  -7.760  0.942E+00  0.932E+00
  -7.750  0.916E+00  0.906E+00
  -7.740  0.879E+00  0.870E+00
  -7.730  0.837E+00  0.828E+00
  -7.720  0.796E+00  0.788E+00
  -7.710  0.761E+00  0.753E+00
  -7.700  0.734E+00  0.726E+00
  -7.690  0.716E+00  0.709E+00
  -7.680  0.707E+00  0.700E+00
  -7.670  0.705E+00  0.699E+00
  -7.660  0.708E+00  0.702E+00
  -7.650  0.712E+00  0.706E+00
  -7.640  0.714E+00  0.708E+00
  -7.630  0.711E+00  0.705E+00
  -7.620  0.703E+00  0.697E+00
  -7.610  0.691E+00  0.685E+00
  -7.600  0.681E+00  0.675E+00
  -7.590  0.678E+00  0.672E+00
  -7.580  0.688E+00  0.682E+00
  -7.570  0.715E+00  0.708E+00
  -7.560  0.758E+00  0.750E+00
  -7.550  0.812E+00  0.804E+00
  -7.540  0.868E+00  0.859E+00
  -7.530  0.915E+00  0.906E+00
  -7.520  0.943E+00  0.934E+00
  -7.510  0.947E+00  0.939E+00
  -7.500  0.925E+00  0.917E+00
  -7.490  0.880E+00  0.873E+00
  -7.480  0.820E+00  0.813E+00
  -7.470  0.752E+00  0.746E+00
  -7.460  0.686E+00  0.681E+00
  -7.450  0.628E+00  0.623E+00
  -7.440  0.582E+00  0.577E+00
  -7.430  0.549E+00  0.544E+00
  -7.420  0.529E+00  0.523E+00
  -7.410  0.520E+00  0.514E+00
  -7.400  0.521E+00  0.516E+00
  -7.390  0.533E+00  0.527E+00
  -7.380  0.555E+00  0.550E+00
  -7.370  0.589E+00  0.583E+00
  -7.360  0.633E+00  0.628E+00
  -7.350  0.686E+00  0.681E+00
  -7.340  0.744E+00  0.738E+00
  -7.330  0.800E+00  0.794E+00
  -7.320  0.848E+00  0.841E+00
  -7.310  0.882E+00  0.875E+00
  -7.300  0.898E+00  0.890E+00
  -7.290  0.893E+00  0.885E+00
  -7.280  0.868E+00  0.860E+00
  -7.270  0.828E+00  0.820E+00
  -7.260  0.777E+00  0.770E+00
  -7.250  0.722E+00  0.715E+00
  -7.240  0.668E+00  0.662E+00
  -7.230  0.621E+00  0.615E+00
  -7.220  0.583E+00  0.578E+00
  -7.210  0.556E+00  0.552E+00
  -7.200  0.542E+00  0.538E+00
  -7.190  0.541E+00  0.537E+00
  -7.180  0.552E+00  0.548E+00
  -7.170  0.574E+00  0.571E+00
  -7.160  0.606E+00  0.602E+00
  -7.150  0.643E+00  0.639E+00
  -7.140  0.681E+00  0.677E+00
  -7.130  0.715E+00  0.710E+00
  -7.120  0.741E+00  0.736E+00
  -7.110  0.756E+00  0.750E+00
  -7.100  0.760E+00  0.754E+00
  -7.090  0.754E+00  0.748E+00
  -7.080  0.742E+00  0.736E+00
  -7.070  0.727E+00  0.721E+00
  -7.060  0.712E+00  0.706E+00
  -7.050  0.698E+00  0.692E+00
  -7.040  0.685E+00  0.679E+00
  -7.030  0.673E+00  0.667E+00
  -7.020  0.660E+00  0.654E+00
  -7.010  0.647E+00  0.642E+00
  -7.000  0.636E+00  0.630E+00
  -6.990  0.626E+00  0.621E+00
  -6.980  0.620E+00  0.615E+00
  -6.970  0.620E+00  0.615E+00
  -6.960  0.623E+00  0.619E+00
  -6.950  0.630E+00  0.625E+00
  -6.940  0.635E+00  0.631E+00
  -6.930  0.637E+00  0.633E+00
  -6.920  0.631E+00  0.627E+00
  -6.910  0.615E+00  0.612E+00
  -6.900  0.591E+00  0.588E+00
  -6.890  0.562E+00  0.559E+00
  -6.880  0.535E+00  0.531E+00
  -6.870  0.515E+00  0.512E+00
  -6.860  0.509E+00  0.506E+00
  -6.850  0.523E+00  0.520E+00
  -6.840  0.556E+00  0.552E+00
  -6.830  0.605E+00  0.601E+00
  -6.820  0.665E+00  0.660E+00
  -6.810  0.726E+00  0.720E+00
  -6.800  0.780E+00  0.775E+00
  -6.790  0.822E+00  0.816E+00
  -6.780  0.846E+00  0.840E+00
  -6.770  0.853E+00  0.847E+00
  -6.760  0.844E+00  0.838E+00
  -6.750  0.821E+00  0.815E+00
  -6.740  0.788E+00  0.782E+00
  -6.730  0.748E+00  0.743E+00
  -6.720  0.703E+00  0.699E+00
  -6.710  0.656E+00  0.652E+00
  -6.700  0.608E+00  0.604E+00
  -6.690  0.561E+00  0.558E+00
  -6.680  0.518E+00  0.514E+00
  -6.670  0.481E+00  0.478E+00
  -6.660  0.452E+00  0.449E+00
  -6.650  0.433E+00  0.431E+00
  -6.640  0.425E+00  0.422E+00
  -6.630  0.426E+00  0.423E+00
  -6.620  0.433E+00  0.430E+00
  -6.610  0.444E+00  0.441E+00
  -6.600  0.458E+00  0.455E+00
  -6.590  0.475E+00  0.472E+00
  -6.580  0.495E+00  0.492E+00
  -6.570  0.523E+00  0.520E+00
  -6.560  0.559E+00  0.556E+00
  -6.550  0.607E+00  0.604E+00
  -6.540  0.666E+00  0.662E+00
  -6.530  0.731E+00  0.727E+00
  -6.520  0.798E+00  0.794E+00
  -6.510  0.858E+00  0.854E+00
  -6.500  0.904E+00  0.899E+00
  -6.490  0.927E+00  0.921E+00
  -6.480  0.922E+00  0.917E+00
  -6.470  0.890E+00  0.885E+00
  -6.460  0.833E+00  0.828E+00
  -6.450  0.758E+00  0.753E+00
  -6.440  0.673E+00  0.669E+00
  -6.430  0.588E+00  0.585E+00
  -6.420  0.512E+00  0.509E+00
  -6.410  0.450E+00  0.448E+00
  -6.400  0.406E+00  0.403E+00
  -6.390  0.378E+00  0.376E+00
  -6.380  0.367E+00  0.365E+00
  -6.370  0.369E+00  0.367E+00
  -6.360  0.384E+00  0.381E+00
  -6.350  0.408E+00  0.406E+00
  -6.340  0.444E+00  0.441E+00
  -6.330  0.488E+00  0.485E+00
  -6.320  0.540E+00  0.537E+00
  -6.310  0.595E+00  0.592E+00
  -6.300  0.648E+00  0.644E+00
  -6.290  0.691E+00  0.688E+00
  -6.280  0.719E+00  0.715E+00
  -6.270  0.727E+00  0.723E+00
  -6.260  0.713E+00  0.710E+00
  -6.250  0.683E+00  0.679E+00
  -6.240  0.642E+00  0.639E+00
  -6.230  0.599E+00  0.597E+00
  -6.220  0.565E+00  0.562E+00
  -6.210  0.545E+00  0.543E+00
  -6.200  0.543E+00  0.540E+00
  -6.190  0.557E+00  0.554E+00
  -6.180  0.582E+00  0.579E+00
  -6.170  0.611E+00  0.608E+00
  -6.160  0.637E+00  0.634E+00
  -6.150  0.654E+00  0.650E+00
  -6.140  0.658E+00  0.655E+00
  -6.130  0.652E+00  0.649E+00
  -6.120  0.637E+00  0.634E+00
  -6.110  0.621E+00  0.618E+00
  -6.100  0.607E+00  0.604E+00
  -6.090  0.601E+00  0.598E+00
  -6.080  0.602E+00  0.599E+00
  -6.070  0.610E+00  0.607E+00
  -6.060  0.619E+00  0.616E+00
  -6.050  0.626E+00  0.623E+00
  -6.040  0.624E+00  0.621E+00
  -6.030  0.610E+00  0.607E+00
  -6.020  0.586E+00  0.583E+00
  -6.010  0.552E+00  0.549E+00
  -6.000  0.513E+00  0.511E+00
  -5.990  0.474E+00  0.472E+00
  -5.980  0.439E+00  0.437E+00
  -5.970  0.412E+00  0.410E+00
  -5.960  0.392E+00  0.391E+00
  -5.950  0.383E+00  0.381E+00
  -5.940  0.382E+00  0.380E+00
  -5.930  0.392E+00  0.391E+00
  -5.920  0.415E+00  0.413E+00
  -5.910  0.451E+00  0.449E+00
  -5.900  0.503E+00  0.501E+00
  -5.890  0.569E+00  0.567E+00
  -5.880  0.646E+00  0.644E+00
  -5.870  0.727E+00  0.724E+00
  -5.860  0.804E+00  0.801E+00
  -5.850  0.867E+00  0.863E+00
  -5.840  0.906E+00  0.902E+00
  -5.830  0.917E+00  0.913E+00
  -5.820  0.896E+00  0.892E+00
  -5.810  0.847E+00  0.843E+00
  -5.800  0.774E+00  0.771E+00
  -5.790  0.687E+00  0.684E+00
  -5.780  0.595E+00  0.592E+00
  -5.770  0.507E+00  0.505E+00
  -5.760  0.430E+00  0.428E+00
  -5.750  0.370E+00  0.368E+00
  -5.740  0.329E+00  0.327E+00
  -5.730  0.306E+00  0.305E+00
  -5.720  0.301E+00  0.299E+00
  -5.710  0.311E+00  0.310E+00
  -5.700  0.334E+00  0.333E+00
  -5.690  0.369E+00  0.367E+00
  -5.680  0.412E+00  0.410E+00
  -5.670  0.462E+00  0.460E+00
  -5.660  0.515E+00  0.514E+00
  -5.650  0.569E+00  0.567E+00
  -5.640  0.618E+00  0.615E+00
  -5.630  0.658E+00  0.655E+00
  -5.620  0.685E+00  0.683E+00
  -5.610  0.698E+00  0.696E+00
  -5.600  0.696E+00  0.694E+00
  -5.590  0.681E+00  0.678E+00
  -5.580  0.656E+00  0.654E+00
  -5.570  0.627E+00  0.625E+00
  -5.560  0.599E+00  0.596E+00
  -5.550  0.576E+00  0.573E+00
  -5.540  0.561E+00  0.559E+00
  -5.530  0.555E+00  0.553E+00
  -5.520  0.558E+00  0.556E+00
  -5.510  0.568E+00  0.566E+00
  -5.500  0.582E+00  0.580E+00
  -5.490  0.597E+00  0.595E+00
  -5.480  0.610E+00  0.608E+00
  -5.470  0.620E+00  0.617E+00
  -5.460  0.623E+00  0.621E+00
  -5.450  0.621E+00  0.619E+00
  -5.440  0.612E+00  0.609E+00
  -5.430  0.596E+00  0.594E+00
  -5.420  0.575E+00  0.573E+00
  -5.410  0.551E+00  0.549E+00
  -5.400  0.526E+00  0.524E+00
  -5.390  0.501E+00  0.500E+00
  -5.380  0.478E+00  0.477E+00
  -5.370  0.459E+00  0.457E+00
  -5.360  0.442E+00  0.441E+00
  -5.350  0.431E+00  0.429E+00
  -5.340  0.424E+00  0.422E+00
  -5.330  0.423E+00  0.422E+00
  -5.320  0.430E+00  0.429E+00
  -5.310  0.445E+00  0.444E+00
  -5.300  0.468E+00  0.466E+00
  -5.290  0.497E+00  0.495E+00
  -5.280  0.529E+00  0.528E+00
  -5.270  0.562E+00  0.560E+00
  -5.260  0.591E+00  0.589E+00
  -5.250  0.614E+00  0.612E+00
  -5.240  0.629E+00  0.627E+00
  -5.230  0.638E+00  0.636E+00
  -5.220  0.642E+00  0.640E+00
  -5.210  0.645E+00  0.643E+00
  -5.200  0.648E+00  0.646E+00
  -5.190  0.654E+00  0.652E+00
  -5.180  0.662E+00  0.660E+00
  -5.170  0.670E+00  0.667E+00
  -5.160  0.674E+00  0.672E+00
  -5.150  0.672E+00  0.670E+00
  -5.140  0.661E+00  0.659E+00
  -5.130  0.639E+00  0.637E+00
  -5.120  0.608E+00  0.606E+00
  -5.110  0.572E+00  0.570E+00
  -5.100  0.534E+00  0.532E+00
  -5.090  0.501E+00  0.499E+00
  -5.080  0.475E+00  0.473E+00
  -5.070  0.459E+00  0.457E+00
  -5.060  0.452E+00  0.450E+00
  -5.050  0.452E+00  0.450E+00
  -5.040  0.455E+00  0.453E+00
  -5.030  0.458E+00  0.456E+00
  -5.020  0.457E+00  0.456E+00
  -5.010  0.454E+00  0.452E+00
  -5.000  0.447E+00  0.446E+00
  -4.990  0.441E+00  0.440E+00
  -4.980  0.438E+00  0.437E+00
  -4.970  0.442E+00  0.441E+00
  -4.960  0.454E+00  0.452E+00
  -4.950  0.473E+00  0.471E+00
  -4.940  0.497E+00  0.496E+00
  -4.930  0.524E+00  0.522E+00
  -4.920  0.548E+00  0.546E+00
  -4.910  0.566E+00  0.564E+00
  -4.900  0.575E+00  0.574E+00
  -4.890  0.575E+00  0.574E+00
  -4.880  0.566E+00  0.564E+00
  -4.870  0.550E+00  0.549E+00
  -4.860  0.530E+00  0.528E+00
  -4.850  0.508E+00  0.506E+00
  -4.840  0.486E+00  0.484E+00
  -4.830  0.465E+00  0.464E+00
  -4.820  0.446E+00  0.444E+00
  -4.810  0.427E+00  0.425E+00
  -4.800  0.408E+00  0.406E+00
  -4.790  0.388E+00  0.387E+00
  -4.780  0.368E+00  0.366E+00
  -4.770  0.347E+00  0.346E+00
  -4.760  0.328E+00  0.327E+00
  -4.750  0.310E+00  0.309E+00
  -4.740  0.294E+00  0.293E+00
  -4.730  0.281E+00  0.280E+00
  -4.720  0.270E+00  0.269E+00
  -4.710  0.262E+00  0.261E+00
  -4.700  0.256E+00  0.255E+00
  -4.690  0.253E+00  0.252E+00
  -4.680  0.252E+00  0.251E+00
  -4.670  0.254E+00  0.254E+00
  -4.660  0.260E+00  0.259E+00
  -4.650  0.268E+00  0.267E+00
  -4.640  0.277E+00  0.276E+00
  -4.630  0.288E+00  0.287E+00
  -4.620  0.300E+00  0.299E+00
  -4.610  0.313E+00  0.312E+00
  -4.600  0.328E+00  0.327E+00
  -4.590  0.347E+00  0.346E+00
  -4.580  0.372E+00  0.370E+00
  -4.570  0.403E+00  0.402E+00
  -4.560  0.442E+00  0.441E+00
  -4.550  0.485E+00  0.484E+00
  -4.540  0.530E+00  0.528E+00
  -4.530  0.569E+00  0.567E+00
  -4.520  0.599E+00  0.597E+00
  -4.510  0.613E+00  0.611E+00
  -4.500  0.611E+00  0.609E+00
  -4.490  0.593E+00  0.591E+00
  -4.480  0.561E+00  0.559E+00
  -4.470  0.522E+00  0.520E+00
  -4.460  0.481E+00  0.479E+00
  -4.450  0.443E+00  0.441E+00
  -4.440  0.412E+00  0.410E+00
  -4.430  0.389E+00  0.388E+00
  -4.420  0.375E+00  0.374E+00
  -4.410  0.367E+00  0.366E+00
  -4.400  0.363E+00  0.362E+00
  -4.390  0.362E+00  0.361E+00
  -4.380  0.361E+00  0.360E+00
  -4.370  0.359E+00  0.358E+00
  -4.360  0.355E+00  0.354E+00
  -4.350  0.351E+00  0.350E+00
  -4.340  0.346E+00  0.345E+00
  -4.330  0.342E+00  0.341E+00
  -4.320  0.339E+00  0.339E+00
  -4.310  0.340E+00  0.340E+00
  -4.300  0.346E+00  0.345E+00
  -4.290  0.356E+00  0.355E+00
  -4.280  0.372E+00  0.371E+00
  -4.270  0.395E+00  0.394E+00
  -4.260  0.427E+00  0.426E+00
  -4.250  0.468E+00  0.467E+00
  -4.240  0.519E+00  0.518E+00
  -4.230  0.579E+00  0.578E+00
  -4.220  0.646E+00  0.644E+00
  -4.210  0.716E+00  0.714E+00
  -4.200  0.782E+00  0.780E+00
  -4.190  0.840E+00  0.838E+00
  -4.180  0.884E+00  0.881E+00
  -4.170  0.910E+00  0.907E+00
  -4.160  0.917E+00  0.915E+00
  -4.150  0.907E+00  0.905E+00
  -4.140  0.882E+00  0.880E+00
  -4.130  0.846E+00  0.843E+00
  -4.120  0.799E+00  0.797E+00
  -4.110  0.744E+00  0.742E+00
  -4.100  0.681E+00  0.679E+00
  -4.090  0.608E+00  0.606E+00
  -4.080  0.527E+00  0.526E+00
  -4.070  0.439E+00  0.438E+00
  -4.060  0.349E+00  0.348E+00
  -4.050  0.262E+00  0.262E+00
  -4.040  0.186E+00  0.185E+00
  -4.030  0.124E+00  0.124E+00
  -4.020  0.816E-01  0.815E-01
  -4.010  0.595E-01  0.595E-01
  -4.000  0.567E-01  0.566E-01
  -3.990  0.703E-01  0.701E-01
  -3.980  0.965E-01  0.963E-01
  -3.970  0.132E+00  0.132E+00
  -3.960  0.174E+00  0.173E+00
  -3.950  0.221E+00  0.221E+00
  -3.940  0.274E+00  0.273E+00
  -3.930  0.333E+00  0.332E+00
  -3.920  0.399E+00  0.398E+00
  -3.910  0.472E+00  0.471E+00
  -3.900  0.550E+00  0.548E+00
  -3.890  0.628E+00  0.626E+00
  -3.880  0.698E+00  0.696E+00
  -3.870  0.752E+00  0.750E+00
  -3.860  0.781E+00  0.778E+00
  -3.850  0.776E+00  0.774E+00
  -3.840  0.736E+00  0.734E+00
  -3.830  0.663E+00  0.660E+00
  -3.820  0.563E+00  0.561E+00
  -3.810  0.448E+00  0.447E+00
  -3.800  0.332E+00  0.331E+00
  -3.790  0.228E+00  0.228E+00
  -3.780  0.145E+00  0.144E+00
  -3.770  0.864E-01  0.862E-01
  -3.760  0.530E-01  0.529E-01
  -3.750  0.407E-01  0.407E-01
  -3.740  0.437E-01  0.437E-01
  -3.730  0.560E-01  0.560E-01
  -3.720  0.730E-01  0.729E-01
  -3.710  0.914E-01  0.912E-01
  -3.700  0.110E+00  0.110E+00
  -3.690  0.128E+00  0.127E+00
  -3.680  0.145E+00  0.145E+00
  -3.670  0.163E+00  0.163E+00
  -3.660  0.181E+00  0.181E+00
  -3.650  0.200E+00  0.200E+00
  -3.640  0.219E+00  0.218E+00
  -3.630  0.238E+00  0.238E+00
  -3.620  0.258E+00  0.257E+00
  -3.610  0.278E+00  0.277E+00
  -3.600  0.298E+00  0.297E+00
  -3.590  0.319E+00  0.318E+00
  -3.580  0.340E+00  0.339E+00
  -3.570  0.363E+00  0.362E+00
  -3.560  0.386E+00  0.385E+00
  -3.550  0.408E+00  0.407E+00
  -3.540  0.427E+00  0.426E+00
  -3.530  0.441E+00  0.439E+00
  -3.520  0.445E+00  0.443E+00
  -3.510  0.436E+00  0.434E+00
  -3.500  0.412E+00  0.411E+00
  -3.490  0.375E+00  0.373E+00
  -3.480  0.324E+00  0.323E+00
  -3.470  0.266E+00  0.265E+00
  -3.460  0.205E+00  0.205E+00
  -3.450  0.148E+00  0.148E+00
  -3.440  0.101E+00  0.100E+00
  -3.430  0.659E-01  0.657E-01
  -3.420  0.461E-01  0.460E-01
  -3.410  0.407E-01  0.406E-01
  -3.400  0.472E-01  0.471E-01
  -3.390  0.618E-01  0.616E-01
  -3.380  0.806E-01  0.804E-01
  -3.370  0.100E+00  0.999E-01
  -3.360  0.118E+00  0.118E+00
  -3.350  0.133E+00  0.133E+00
  -3.340  0.146E+00  0.146E+00
  -3.330  0.157E+00  0.156E+00
  -3.320  0.166E+00  0.166E+00
  -3.310  0.175E+00  0.175E+00
  -3.300  0.183E+00  0.183E+00
  -3.290  0.191E+00  0.190E+00
  -3.280  0.197E+00  0.196E+00
  -3.270  0.202E+00  0.201E+00
  -3.260  0.206E+00  0.206E+00
  -3.250  0.212E+00  0.211E+00
  -3.240  0.219E+00  0.218E+00
  -3.230  0.230E+00  0.229E+00
  -3.220  0.244E+00  0.243E+00
  -3.210  0.261E+00  0.260E+00
  -3.200  0.279E+00  0.278E+00
  -3.190  0.294E+00  0.293E+00
  -3.180  0.305E+00  0.304E+00
  -3.170  0.307E+00  0.306E+00
  -3.160  0.299E+00  0.298E+00
  -3.150  0.280E+00  0.278E+00
  -3.140  0.249E+00  0.248E+00
  -3.130  0.210E+00  0.210E+00
  -3.120  0.167E+00  0.166E+00
  -3.110  0.122E+00  0.122E+00
  -3.100  0.823E-01  0.820E-01
  -3.090  0.501E-01  0.499E-01
  -3.080  0.284E-01  0.283E-01
  -3.070  0.184E-01  0.184E-01
  -3.060  0.195E-01  0.195E-01
  -3.050  0.298E-01  0.297E-01
  -3.040  0.464E-01  0.462E-01
  -3.030  0.659E-01  0.657E-01
  -3.020  0.852E-01  0.849E-01
  -3.010  0.102E+00  0.101E+00
  -3.000  0.114E+00  0.114E+00
  -2.990  0.123E+00  0.122E+00
  -2.980  0.128E+00  0.127E+00
  -2.970  0.132E+00  0.131E+00
  -2.960  0.136E+00  0.135E+00
  -2.950  0.142E+00  0.141E+00
  -2.940  0.151E+00  0.150E+00
  -2.930  0.161E+00  0.161E+00
  -2.920  0.173E+00  0.172E+00
  -2.910  0.183E+00  0.183E+00
  -2.900  0.191E+00  0.191E+00
  -2.890  0.196E+00  0.195E+00
  -2.880  0.197E+00  0.196E+00
  -2.870  0.195E+00  0.194E+00
  -2.860  0.189E+00  0.188E+00
  -2.850  0.181E+00  0.180E+00
  -2.840  0.171E+00  0.170E+00
  -2.830  0.158E+00  0.157E+00
  -2.820  0.144E+00  0.144E+00
  -2.810  0.130E+00  0.129E+00
  -2.800  0.115E+00  0.115E+00
  -2.790  0.103E+00  0.103E+00
  -2.780  0.942E-01  0.938E-01
  -2.770  0.889E-01  0.885E-01
  -2.760  0.870E-01  0.867E-01
  -2.750  0.873E-01  0.870E-01
  -2.740  0.878E-01  0.874E-01
  -2.730  0.865E-01  0.861E-01
  -2.720  0.819E-01  0.816E-01
  -2.710  0.737E-01  0.735E-01
  -2.700  0.626E-01  0.624E-01
  -2.690  0.503E-01  0.501E-01
  -2.680  0.390E-01  0.389E-01
  -2.670  0.313E-01  0.311E-01
  -2.660  0.287E-01  0.286E-01
  -2.650  0.322E-01  0.320E-01
  -2.640  0.416E-01  0.414E-01
  -2.630  0.557E-01  0.555E-01
  -2.620  0.728E-01  0.724E-01
  -2.610  0.904E-01  0.900E-01
  -2.600  0.107E+00  0.106E+00
  -2.590  0.120E+00  0.119E+00
  -2.580  0.130E+00  0.129E+00
  -2.570  0.136E+00  0.135E+00
  -2.560  0.139E+00  0.139E+00
  -2.550  0.142E+00  0.141E+00
  -2.540  0.144E+00  0.143E+00
  -2.530  0.146E+00  0.145E+00
  -2.520  0.148E+00  0.147E+00
  -2.510  0.148E+00  0.147E+00
  -2.500  0.145E+00  0.144E+00
  -2.490  0.137E+00  0.136E+00
  -2.480  0.123E+00  0.123E+00
  -2.470  0.105E+00  0.104E+00
  -2.460  0.824E-01  0.820E-01
  -2.450  0.585E-01  0.582E-01
  -2.440  0.355E-01  0.354E-01
  -2.430  0.157E-01  0.156E-01
  -2.420  0.473E-03  0.476E-03
  -2.410 -0.948E-02 -0.944E-02
  -2.400 -0.143E-01 -0.142E-01
  -2.390 -0.145E-01 -0.144E-01
  -2.380 -0.109E-01 -0.109E-01
  -2.370 -0.439E-02 -0.437E-02
  -2.360  0.466E-02  0.463E-02
  -2.350  0.159E-01  0.158E-01
  -2.340  0.291E-01  0.290E-01
  -2.330  0.440E-01  0.438E-01
  -2.320  0.601E-01  0.598E-01
  -2.310  0.761E-01  0.758E-01
  -2.300  0.909E-01  0.905E-01
  -2.290  0.103E+00  0.102E+00
  -2.280  0.111E+00  0.110E+00
  -2.270  0.113E+00  0.112E+00
  -2.260  0.110E+00  0.110E+00
  -2.250  0.103E+00  0.102E+00
  -2.240  0.921E-01  0.916E-01
  -2.230  0.803E-01  0.799E-01
  -2.220  0.690E-01  0.686E-01
  -2.210  0.594E-01  0.590E-01
  -2.200  0.518E-01  0.516E-01
  -2.190  0.461E-01  0.458E-01
  -2.180  0.413E-01  0.411E-01
  -2.170  0.366E-01  0.364E-01
  -2.160  0.312E-01  0.310E-01
  -2.150  0.248E-01  0.247E-01
  -2.140  0.179E-01  0.178E-01
  -2.130  0.109E-01  0.108E-01
  -2.120  0.459E-02  0.457E-02
  -2.110 -0.303E-03 -0.303E-03
  -2.100 -0.337E-02 -0.336E-02
  -2.090 -0.445E-02 -0.443E-02
  -2.080 -0.358E-02 -0.357E-02
  -2.070 -0.938E-03 -0.935E-03
  -2.060  0.328E-02  0.326E-02
  -2.050  0.887E-02  0.882E-02
  -2.040  0.156E-01  0.155E-01
  -2.030  0.232E-01  0.231E-01
  -2.020  0.313E-01  0.311E-01
  -2.010  0.391E-01  0.389E-01
  -2.000  0.459E-01  0.456E-01
  -1.990  0.508E-01  0.505E-01
  -1.980  0.530E-01  0.527E-01
  -1.970  0.521E-01  0.518E-01
  -1.960  0.480E-01  0.477E-01
  -1.950  0.411E-01  0.409E-01
  -1.940  0.324E-01  0.322E-01
  -1.930  0.229E-01  0.227E-01
  -1.920  0.137E-01  0.137E-01
  -1.910  0.587E-02  0.583E-02
  -1.900 -0.129E-03 -0.129E-03
  -1.890 -0.407E-02 -0.404E-02
  -1.880 -0.611E-02 -0.607E-02
  -1.870 -0.664E-02 -0.661E-02
  -1.860 -0.617E-02 -0.613E-02
  -1.850 -0.514E-02 -0.511E-02
  -1.840 -0.394E-02 -0.392E-02
  -1.830 -0.282E-02 -0.280E-02
  -1.820 -0.189E-02 -0.188E-02
  -1.810 -0.119E-02 -0.118E-02
  -1.800 -0.703E-03 -0.699E-03
  -1.790 -0.379E-03 -0.377E-03
  -1.780 -0.161E-03 -0.160E-03
  -1.770  0.123E-04  0.121E-04
  -1.760  0.203E-03  0.201E-03
  -1.750  0.486E-03  0.482E-03
  -1.740  0.958E-03  0.952E-03
  -1.730  0.175E-02  0.174E-02
  -1.720  0.304E-02  0.302E-02
  -1.710  0.503E-02  0.500E-02
  -1.700  0.795E-02  0.789E-02
  -1.690  0.120E-01  0.119E-01
  -1.680  0.172E-01  0.171E-01
  -1.670  0.235E-01  0.233E-01
  -1.660  0.306E-01  0.304E-01
  -1.650  0.380E-01  0.377E-01
  -1.640  0.447E-01  0.444E-01
  -1.630  0.500E-01  0.496E-01
  -1.620  0.529E-01  0.525E-01
  -1.610  0.528E-01  0.524E-01
  -1.600  0.495E-01  0.491E-01
  -1.590  0.433E-01  0.430E-01
  -1.580  0.350E-01  0.348E-01
  -1.570  0.256E-01  0.255E-01
  -1.560  0.164E-01  0.163E-01
  -1.550  0.827E-02  0.822E-02
  -1.540  0.209E-02  0.207E-02
  -1.530 -0.178E-02 -0.177E-02
  -1.520 -0.325E-02 -0.323E-02
  -1.510 -0.246E-02 -0.245E-02
  -1.500  0.332E-03  0.325E-03
  -1.490  0.487E-02  0.483E-02
  -1.480  0.109E-01  0.108E-01
  -1.470  0.183E-01  0.181E-01
  -1.460  0.267E-01  0.265E-01
  -1.450  0.357E-01  0.355E-01
  -1.440  0.450E-01  0.447E-01
  -1.430  0.540E-01  0.536E-01
  -1.420  0.623E-01  0.618E-01
  -1.410  0.696E-01  0.691E-01
  -1.400  0.759E-01  0.753E-01
  -1.390  0.815E-01  0.809E-01
  -1.380  0.868E-01  0.861E-01
  -1.370  0.920E-01  0.913E-01
  -1.360  0.972E-01  0.964E-01
  -1.350  0.102E+00  0.101E+00
  -1.340  0.104E+00  0.104E+00
  -1.330  0.104E+00  0.103E+00
  -1.320  0.100E+00  0.994E-01
  -1.310  0.916E-01  0.908E-01
  -1.300  0.787E-01  0.780E-01
  -1.290  0.625E-01  0.619E-01
  -1.280  0.448E-01  0.445E-01
  -1.270  0.278E-01  0.275E-01
  -1.260  0.131E-01  0.130E-01
  -1.250  0.224E-02  0.222E-02
  -1.240 -0.407E-02 -0.404E-02
  -1.230 -0.568E-02 -0.564E-02
  -1.220 -0.287E-02 -0.286E-02
  -1.210  0.389E-02  0.383E-02
  -1.200  0.141E-01  0.139E-01
  -1.190  0.273E-01  0.270E-01
  -1.180  0.430E-01  0.426E-01
  -1.170  0.609E-01  0.603E-01
  -1.160  0.803E-01  0.795E-01
  -1.150  0.100E+00  0.992E-01
  -1.140  0.120E+00  0.118E+00
  -1.130  0.137E+00  0.136E+00
  -1.120  0.151E+00  0.150E+00
  -1.110  0.162E+00  0.160E+00
  -1.100  0.167E+00  0.166E+00
  -1.090  0.168E+00  0.167E+00
  -1.080  0.165E+00  0.164E+00
  -1.070  0.159E+00  0.158E+00
  -1.060  0.151E+00  0.149E+00
  -1.050  0.141E+00  0.139E+00
  -1.040  0.129E+00  0.128E+00
  -1.030  0.117E+00  0.116E+00
  -1.020  0.104E+00  0.103E+00
  -1.010  0.910E-01  0.900E-01
  -1.000  0.785E-01  0.776E-01
  -0.990  0.678E-01  0.670E-01
  -0.980  0.603E-01  0.595E-01
  -0.970  0.571E-01  0.563E-01
  -0.960  0.587E-01  0.579E-01
  -0.950  0.648E-01  0.639E-01
  -0.940  0.737E-01  0.726E-01
  -0.930  0.833E-01  0.821E-01
  -0.920  0.911E-01  0.898E-01
  -0.910  0.952E-01  0.939E-01
  -0.900  0.944E-01  0.931E-01
  -0.890  0.890E-01  0.878E-01
  -0.880  0.806E-01  0.795E-01
  -0.870  0.720E-01  0.711E-01
  -0.860  0.665E-01  0.657E-01
  -0.850  0.672E-01  0.664E-01
  -0.840  0.765E-01  0.756E-01
  -0.830  0.956E-01  0.944E-01
  -0.820  0.124E+00  0.122E+00
  -0.810  0.159E+00  0.157E+00
  -0.800  0.198E+00  0.195E+00
  -0.790  0.236E+00  0.233E+00
  -0.780  0.268E+00  0.265E+00
  -0.770  0.291E+00  0.288E+00
  -0.760  0.303E+00  0.299E+00
  -0.750  0.301E+00  0.297E+00
  -0.740  0.288E+00  0.284E+00
  -0.730  0.265E+00  0.262E+00
  -0.720  0.237E+00  0.234E+00
  -0.710  0.207E+00  0.204E+00
  -0.700  0.179E+00  0.176E+00
  -0.690  0.155E+00  0.152E+00
  -0.680  0.135E+00  0.133E+00
  -0.670  0.121E+00  0.119E+00
  -0.660  0.111E+00  0.109E+00
  -0.650  0.105E+00  0.103E+00
  -0.640  0.102E+00  0.999E-01
  -0.630  0.101E+00  0.988E-01
  -0.620  0.101E+00  0.986E-01
  -0.610  0.100E+00  0.983E-01
  -0.600  0.991E-01  0.970E-01
  -0.590  0.963E-01  0.942E-01
  -0.580  0.922E-01  0.902E-01
  -0.570  0.878E-01  0.859E-01
  -0.560  0.854E-01  0.835E-01
  -0.550  0.876E-01  0.858E-01
  -0.540  0.976E-01  0.957E-01
  -0.530  0.118E+00  0.116E+00
  -0.520  0.151E+00  0.149E+00
  -0.510  0.198E+00  0.194E+00
  -0.500  0.256E+00  0.251E+00
  -0.490  0.322E+00  0.316E+00
  -0.480  0.391E+00  0.385E+00
  -0.470  0.457E+00  0.449E+00
  -0.460  0.512E+00  0.503E+00
  -0.450  0.550E+00  0.540E+00
  -0.440  0.564E+00  0.554E+00
  -0.430  0.553E+00  0.542E+00
  -0.420  0.517E+00  0.507E+00
  -0.410  0.462E+00  0.452E+00
  -0.400  0.393E+00  0.384E+00
  -0.390  0.319E+00  0.311E+00
  -0.380  0.247E+00  0.240E+00
  -0.370  0.183E+00  0.178E+00
  -0.360  0.133E+00  0.128E+00
  -0.350  0.978E-01  0.940E-01
  -0.340  0.784E-01  0.750E-01
  -0.330  0.743E-01  0.709E-01
  -0.320  0.843E-01  0.806E-01
  -0.310  0.108E+00  0.103E+00
  -0.300  0.143E+00  0.138E+00
  -0.290  0.189E+00  0.182E+00
  -0.280  0.245E+00  0.236E+00
  -0.270  0.306E+00  0.295E+00
  -0.260  0.370E+00  0.357E+00
  -0.250  0.433E+00  0.419E+00
  -0.240  0.492E+00  0.476E+00
  -0.230  0.545E+00  0.527E+00
  -0.220  0.591E+00  0.571E+00
  -0.210  0.632E+00  0.610E+00
  -0.200  0.670E+00  0.647E+00
  -0.190  0.710E+00  0.685E+00
  -0.180  0.753E+00  0.727E+00
  -0.170  0.800E+00  0.772E+00
  -0.160  0.849E+00  0.819E+00
  -0.150  0.895E+00  0.863E+00
  -0.140  0.932E+00  0.898E+00
  -0.130  0.954E+00  0.918E+00
  -0.120  0.955E+00  0.919E+00
  -0.110  0.933E+00  0.897E+00
  -0.100  0.888E+00  0.854E+00
  -0.090  0.825E+00  0.792E+00
  -0.080  0.749E+00  0.719E+00
  -0.070  0.669E+00  0.641E+00
  -0.060  0.591E+00  0.566E+00
  -0.050  0.522E+00  0.499E+00
  -0.040  0.466E+00  0.445E+00
  -0.030  0.425E+00  0.405E+00
  -0.020  0.399E+00  0.380E+00
  -0.010  0.386E+00  0.368E+00
  -0.000  0.383E+00  0.366E+00
   0.010  0.387E+00  0.370E+00
   0.020  0.395E+00  0.377E+00
   0.030  0.402E+00  0.384E+00
   0.040  0.406E+00  0.389E+00
   0.050  0.407E+00  0.390E+00
   0.060  0.403E+00  0.386E+00
   0.070  0.397E+00  0.381E+00
   0.080  0.390E+00  0.375E+00
   0.090  0.387E+00  0.371E+00
   0.100  0.389E+00  0.374E+00
   0.110  0.398E+00  0.383E+00
   0.120  0.415E+00  0.399E+00
   0.130  0.436E+00  0.419E+00
   0.140  0.458E+00  0.441E+00
   0.150  0.478E+00  0.460E+00
   0.160  0.491E+00  0.473E+00
   0.170  0.496E+00  0.477E+00
   0.180  0.491E+00  0.474E+00
   0.190  0.480E+00  0.464E+00
   0.200  0.465E+00  0.450E+00
   0.210  0.451E+00  0.437E+00
   0.220  0.440E+00  0.427E+00
   0.230  0.436E+00  0.424E+00
   0.240  0.439E+00  0.426E+00
   0.250  0.446E+00  0.432E+00
   0.260  0.453E+00  0.439E+00
   0.270  0.457E+00  0.442E+00
   0.280  0.453E+00  0.437E+00
   0.290  0.438E+00  0.421E+00
   0.300  0.412E+00  0.395E+00
   0.310  0.376E+00  0.360E+00
   0.320  0.334E+00  0.319E+00
   0.330  0.291E+00  0.278E+00
   0.340  0.252E+00  0.241E+00
   0.350  0.223E+00  0.212E+00
   0.360  0.205E+00  0.196E+00
   0.370  0.200E+00  0.192E+00
   0.380  0.206E+00  0.198E+00
   0.390  0.221E+00  0.213E+00
   0.400  0.242E+00  0.233E+00
   0.410  0.264E+00  0.254E+00
   0.420  0.286E+00  0.275E+00
   0.430  0.307E+00  0.295E+00
   0.440  0.327E+00  0.314E+00
   0.450  0.346E+00  0.331E+00
   0.460  0.363E+00  0.348E+00
   0.470  0.378E+00  0.362E+00
   0.480  0.388E+00  0.372E+00
   0.490  0.392E+00  0.376E+00
   0.500  0.388E+00  0.373E+00
   0.510  0.378E+00  0.363E+00
   0.520  0.362E+00  0.348E+00
   0.530  0.343E+00  0.331E+00
   0.540  0.324E+00  0.314E+00
   0.550  0.311E+00  0.301E+00
   0.560  0.304E+00  0.295E+00
   0.570  0.305E+00  0.297E+00
   0.580  0.315E+00  0.307E+00
   0.590  0.333E+00  0.324E+00
   0.600  0.357E+00  0.346E+00
   0.610  0.383E+00  0.371E+00
   0.620  0.408E+00  0.394E+00
   0.630  0.428E+00  0.413E+00
   0.640  0.441E+00  0.425E+00
   0.650  0.443E+00  0.426E+00
   0.660  0.432E+00  0.415E+00
   0.670  0.408E+00  0.391E+00
   0.680  0.372E+00  0.355E+00
   0.690  0.325E+00  0.311E+00
   0.700  0.274E+00  0.261E+00
   0.710  0.222E+00  0.211E+00
   0.720  0.175E+00  0.167E+00
   0.730  0.139E+00  0.133E+00
   0.740  0.118E+00  0.113E+00
   0.750  0.114E+00  0.109E+00
   0.760  0.124E+00  0.119E+00
   0.770  0.147E+00  0.142E+00
   0.780  0.177E+00  0.171E+00
   0.790  0.210E+00  0.202E+00
   0.800  0.240E+00  0.231E+00
   0.810  0.265E+00  0.255E+00
   0.820  0.285E+00  0.274E+00
   0.830  0.300E+00  0.288E+00
   0.840  0.312E+00  0.299E+00
   0.850  0.323E+00  0.309E+00
   0.860  0.335E+00  0.320E+00
   0.870  0.346E+00  0.331E+00
   0.880  0.356E+00  0.340E+00
   0.890  0.362E+00  0.347E+00
   0.900  0.364E+00  0.349E+00
   0.910  0.359E+00  0.345E+00
   0.920  0.350E+00  0.336E+00
   0.930  0.336E+00  0.324E+00
   0.940  0.322E+00  0.311E+00
   0.950  0.307E+00  0.298E+00
   0.960  0.296E+00  0.287E+00
   0.970  0.287E+00  0.279E+00
   0.980  0.281E+00  0.274E+00
   0.990  0.277E+00  0.270E+00
   1.000  0.275E+00  0.267E+00
   1.010  0.274E+00  0.266E+00
   1.020  0.274E+00  0.265E+00
   1.030  0.277E+00  0.266E+00
   1.040  0.283E+00  0.269E+00
   1.050  0.292E+00  0.275E+00
   1.060  0.306E+00  0.283E+00
   1.070  0.324E+00  0.293E+00
   1.080  0.343E+00  0.303E+00
   1.090  0.361E+00  0.309E+00
   1.100  0.376E+00  0.308E+00
   1.110  0.384E+00  0.298E+00
   1.120  0.385E+00  0.279E+00
   1.130  0.378E+00  0.249E+00
   1.140  0.365E+00  0.214E+00
   1.150  0.350E+00  0.176E+00
   1.160  0.337E+00  0.143E+00
   1.170  0.331E+00  0.119E+00
   1.180  0.333E+00  0.107E+00
   1.190  0.346E+00  0.109E+00
   1.200  0.367E+00  0.123E+00
   1.210  0.394E+00  0.146E+00
   1.220  0.422E+00  0.174E+00
   1.230  0.447E+00  0.200E+00
   1.240  0.468E+00  0.223E+00
   1.250  0.482E+00  0.239E+00
   1.260  0.491E+00  0.250E+00
   1.270  0.497E+00  0.258E+00
   1.280  0.505E+00  0.267E+00
   1.290  0.516E+00  0.279E+00
   1.300  0.533E+00  0.295E+00
   1.310  0.554E+00  0.317E+00
   1.320  0.577E+00  0.341E+00
   1.330  0.601E+00  0.365E+00
   1.340  0.620E+00  0.384E+00
   1.350  0.633E+00  0.397E+00
   1.360  0.638E+00  0.400E+00
   1.370  0.634E+00  0.395E+00
   1.380  0.619E+00  0.379E+00
   1.390  0.595E+00  0.356E+00
   1.400  0.562E+00  0.325E+00
   1.410  0.521E+00  0.289E+00
   1.420  0.475E+00  0.249E+00
   1.430  0.428E+00  0.208E+00
   1.440  0.385E+00  0.169E+00
   1.450  0.350E+00  0.135E+00
   1.460  0.328E+00  0.110E+00
   1.470  0.320E+00  0.958E-01
   1.480  0.326E+00  0.946E-01
   1.490  0.344E+00  0.106E+00
   1.500  0.371E+00  0.129E+00
   1.510  0.403E+00  0.160E+00
   1.520  0.434E+00  0.195E+00
   1.530  0.463E+00  0.231E+00
   1.540  0.487E+00  0.264E+00
   1.550  0.506E+00  0.290E+00
   1.560  0.519E+00  0.307E+00
   1.570  0.526E+00  0.314E+00
   1.580  0.527E+00  0.308E+00
   1.590  0.521E+00  0.292E+00
   1.600  0.508E+00  0.268E+00
   1.610  0.489E+00  0.238E+00
   1.620  0.465E+00  0.207E+00
   1.630  0.439E+00  0.179E+00
   1.640  0.413E+00  0.159E+00
   1.650  0.391E+00  0.148E+00
   1.660  0.376E+00  0.148E+00
   1.670  0.369E+00  0.156E+00
   1.680  0.370E+00  0.171E+00
   1.690  0.378E+00  0.189E+00
   1.700  0.392E+00  0.206E+00
   1.710  0.411E+00  0.221E+00
   1.720  0.433E+00  0.232E+00
   1.730  0.458E+00  0.242E+00
   1.740  0.486E+00  0.251E+00
   1.750  0.516E+00  0.263E+00
   1.760  0.546E+00  0.277E+00
   1.770  0.574E+00  0.296E+00
   1.780  0.596E+00  0.318E+00
   1.790  0.611E+00  0.340E+00
   1.800  0.616E+00  0.359E+00
   1.810  0.610E+00  0.372E+00
   1.820  0.594E+00  0.376E+00
   1.830  0.571E+00  0.371E+00
   1.840  0.543E+00  0.356E+00
   1.850  0.512E+00  0.332E+00
   1.860  0.481E+00  0.300E+00
   1.870  0.451E+00  0.263E+00
   1.880  0.423E+00  0.222E+00
   1.890  0.398E+00  0.181E+00
   1.900  0.377E+00  0.142E+00
   1.910  0.359E+00  0.107E+00
   1.920  0.345E+00  0.782E-01
   1.930  0.334E+00  0.581E-01
   1.940  0.327E+00  0.481E-01
   1.950  0.325E+00  0.489E-01
   1.960  0.326E+00  0.604E-01
   1.970  0.331E+00  0.814E-01
   1.980  0.339E+00  0.110E+00
   1.990  0.350E+00  0.143E+00
   2.000  0.364E+00  0.177E+00
   2.010  0.380E+00  0.210E+00
   2.020  0.398E+00  0.237E+00
   2.030  0.418E+00  0.258E+00
   2.040  0.440E+00  0.272E+00
   2.050  0.463E+00  0.280E+00
   2.060  0.489E+00  0.282E+00
   2.070  0.517E+00  0.281E+00
   2.080  0.544E+00  0.278E+00
   2.090  0.571E+00  0.274E+00
   2.100  0.594E+00  0.270E+00
   2.110  0.613E+00  0.266E+00
   2.120  0.627E+00  0.261E+00
   2.130  0.636E+00  0.257E+00
   2.140  0.641E+00  0.252E+00
   2.150  0.645E+00  0.249E+00
   2.160  0.648E+00  0.247E+00
   2.170  0.652E+00  0.247E+00
   2.180  0.656E+00  0.250E+00
   2.190  0.658E+00  0.254E+00
   2.200  0.659E+00  0.258E+00
   2.210  0.655E+00  0.259E+00
   2.220  0.647E+00  0.256E+00
   2.230  0.635E+00  0.246E+00
   2.240  0.623E+00  0.231E+00
   2.250  0.613E+00  0.213E+00
   2.260  0.610E+00  0.193E+00
   2.270  0.616E+00  0.177E+00
   2.280  0.634E+00  0.167E+00
   2.290  0.661E+00  0.165E+00
   2.300  0.693E+00  0.172E+00
   2.310  0.725E+00  0.187E+00
   2.320  0.751E+00  0.208E+00
   2.330  0.769E+00  0.231E+00
   2.340  0.775E+00  0.252E+00
   2.350  0.769E+00  0.269E+00
   2.360  0.751E+00  0.277E+00
   2.370  0.725E+00  0.275E+00
   2.380  0.690E+00  0.262E+00
   2.390  0.649E+00  0.237E+00
   2.400  0.604E+00  0.204E+00
   2.410  0.557E+00  0.167E+00
   2.420  0.512E+00  0.129E+00
   2.430  0.474E+00  0.973E-01
   2.440  0.448E+00  0.751E-01
   2.450  0.439E+00  0.658E-01
   2.460  0.448E+00  0.703E-01
   2.470  0.477E+00  0.877E-01
   2.480  0.524E+00  0.115E+00
   2.490  0.582E+00  0.147E+00
   2.500  0.644E+00  0.181E+00
   2.510  0.704E+00  0.210E+00
   2.520  0.753E+00  0.233E+00
   2.530  0.786E+00  0.248E+00
   2.540  0.802E+00  0.255E+00
   2.550  0.802E+00  0.258E+00
   2.560  0.791E+00  0.259E+00
   2.570  0.775E+00  0.264E+00
   2.580  0.760E+00  0.273E+00
   2.590  0.751E+00  0.288E+00
   2.600  0.749E+00  0.307E+00
   2.610  0.753E+00  0.326E+00
   2.620  0.759E+00  0.343E+00
   2.630  0.761E+00  0.352E+00
   2.640  0.754E+00  0.351E+00
   2.650  0.736E+00  0.339E+00
   2.660  0.707E+00  0.317E+00
   2.670  0.669E+00  0.287E+00
   2.680  0.628E+00  0.252E+00
   2.690  0.588E+00  0.216E+00
   2.700  0.556E+00  0.180E+00
   2.710  0.534E+00  0.148E+00
   2.720  0.524E+00  0.120E+00
   2.730  0.526E+00  0.972E-01
   2.740  0.538E+00  0.787E-01
   2.750  0.556E+00  0.655E-01
   2.760  0.579E+00  0.581E-01
   2.770  0.603E+00  0.571E-01
   2.780  0.626E+00  0.633E-01
   2.790  0.645E+00  0.770E-01
   2.800  0.660E+00  0.976E-01
   2.810  0.670E+00  0.124E+00
   2.820  0.675E+00  0.155E+00
   2.830  0.676E+00  0.187E+00
   2.840  0.673E+00  0.218E+00
   2.850  0.668E+00  0.246E+00
   2.860  0.661E+00  0.267E+00
   2.870  0.654E+00  0.280E+00
   2.880  0.647E+00  0.284E+00
   2.890  0.641E+00  0.279E+00
   2.900  0.638E+00  0.265E+00
   2.910  0.639E+00  0.244E+00
   2.920  0.643E+00  0.219E+00
   2.930  0.653E+00  0.192E+00
   2.940  0.670E+00  0.168E+00
   2.950  0.694E+00  0.149E+00
   2.960  0.726E+00  0.137E+00
   2.970  0.764E+00  0.135E+00
   2.980  0.808E+00  0.142E+00
   2.990  0.853E+00  0.157E+00
   3.000  0.896E+00  0.176E+00
   3.010  0.932E+00  0.199E+00
   3.020  0.960E+00  0.221E+00
   3.030  0.976E+00  0.240E+00
   3.040  0.982E+00  0.256E+00
   3.050  0.979E+00  0.266E+00
   3.060  0.971E+00  0.270E+00
   3.070  0.961E+00  0.269E+00
   3.080  0.952E+00  0.263E+00
   3.090  0.946E+00  0.253E+00
   3.100  0.944E+00  0.241E+00
   3.110  0.943E+00  0.229E+00
   3.120  0.941E+00  0.218E+00
   3.130  0.937E+00  0.210E+00
   3.140  0.926E+00  0.205E+00
   3.150  0.908E+00  0.202E+00
   3.160  0.884E+00  0.202E+00
   3.170  0.855E+00  0.203E+00
   3.180  0.823E+00  0.202E+00
   3.190  0.790E+00  0.200E+00
   3.200  0.758E+00  0.194E+00
   3.210  0.728E+00  0.184E+00
   3.220  0.700E+00  0.169E+00
   3.230  0.676E+00  0.150E+00
   3.240  0.658E+00  0.129E+00
   3.250  0.651E+00  0.106E+00
   3.260  0.658E+00  0.844E-01
   3.270  0.685E+00  0.667E-01
   3.280  0.731E+00  0.551E-01
   3.290  0.794E+00  0.516E-01
   3.300  0.868E+00  0.573E-01
   3.310  0.942E+00  0.724E-01
   3.320  0.101E+01  0.956E-01
   3.330  0.105E+01  0.125E+00
   3.340  0.107E+01  0.157E+00
   3.350  0.106E+01  0.189E+00
   3.360  0.102E+01  0.218E+00
   3.370  0.970E+00  0.239E+00
   3.380  0.911E+00  0.253E+00
   3.390  0.856E+00  0.260E+00
   3.400  0.814E+00  0.260E+00
   3.410  0.790E+00  0.257E+00
   3.420  0.786E+00  0.254E+00
   3.430  0.799E+00  0.252E+00
   3.440  0.823E+00  0.253E+00
   3.450  0.849E+00  0.256E+00
   3.460  0.870E+00  0.259E+00
   3.470  0.880E+00  0.260E+00
   3.480  0.876E+00  0.259E+00
   3.490  0.863E+00  0.254E+00
   3.500  0.845E+00  0.245E+00
   3.510  0.831E+00  0.234E+00
   3.520  0.826E+00  0.222E+00
   3.530  0.834E+00  0.209E+00
   3.540  0.854E+00  0.197E+00
   3.550  0.884E+00  0.184E+00
   3.560  0.915E+00  0.170E+00
   3.570  0.942E+00  0.155E+00
   3.580  0.957E+00  0.138E+00
   3.590  0.958E+00  0.120E+00
   3.600  0.945E+00  0.103E+00
   3.610  0.918E+00  0.884E-01
   3.620  0.884E+00  0.791E-01
   3.630  0.848E+00  0.769E-01
   3.640  0.815E+00  0.829E-01
   3.650  0.790E+00  0.970E-01
   3.660  0.774E+00  0.118E+00
   3.670  0.768E+00  0.144E+00
   3.680  0.771E+00  0.173E+00
   3.690  0.781E+00  0.200E+00
   3.700  0.795E+00  0.224E+00
   3.710  0.810E+00  0.240E+00
   3.720  0.825E+00  0.248E+00
   3.730  0.836E+00  0.246E+00
   3.740  0.843E+00  0.234E+00
   3.750  0.846E+00  0.212E+00
   3.760  0.844E+00  0.183E+00
   3.770  0.840E+00  0.150E+00
   3.780  0.832E+00  0.118E+00
   3.790  0.822E+00  0.896E-01
   3.800  0.811E+00  0.698E-01
   3.810  0.799E+00  0.607E-01
   3.820  0.787E+00  0.634E-01
   3.830  0.777E+00  0.772E-01
   3.840  0.771E+00  0.100E+00
   3.850  0.771E+00  0.129E+00
   3.860  0.778E+00  0.161E+00
   3.870  0.795E+00  0.191E+00
   3.880  0.821E+00  0.219E+00
   3.890  0.856E+00  0.241E+00
   3.900  0.896E+00  0.257E+00
   3.910  0.937E+00  0.269E+00
   3.920  0.976E+00  0.277E+00
   3.930  0.101E+01  0.283E+00
   3.940  0.103E+01  0.287E+00
   3.950  0.104E+01  0.289E+00
   3.960  0.104E+01  0.288E+00
   3.970  0.104E+01  0.283E+00
   3.980  0.102E+01  0.272E+00
   3.990  0.101E+01  0.254E+00
   4.000  0.988E+00  0.230E+00
   4.010  0.966E+00  0.200E+00
   4.020  0.939E+00  0.169E+00
   4.030  0.907E+00  0.139E+00
   4.040  0.870E+00  0.114E+00
   4.050  0.826E+00  0.959E-01
   4.060  0.779E+00  0.848E-01
   4.070  0.731E+00  0.801E-01
   4.080  0.686E+00  0.797E-01
   4.090  0.650E+00  0.810E-01
   4.100  0.626E+00  0.820E-01
   4.110  0.618E+00  0.814E-01
   4.120  0.626E+00  0.792E-01
   4.130  0.648E+00  0.768E-01
   4.140  0.681E+00  0.764E-01
   4.150  0.719E+00  0.802E-01
   4.160  0.758E+00  0.903E-01
   4.170  0.793E+00  0.107E+00
   4.180  0.824E+00  0.131E+00
   4.190  0.852E+00  0.160E+00
   4.200  0.877E+00  0.191E+00
   4.210  0.900E+00  0.220E+00
   4.220  0.923E+00  0.243E+00
   4.230  0.944E+00  0.258E+00
   4.240  0.962E+00  0.261E+00
   4.250  0.975E+00  0.253E+00
   4.260  0.980E+00  0.234E+00
   4.270  0.978E+00  0.208E+00
   4.280  0.970E+00  0.178E+00
   4.290  0.957E+00  0.150E+00
   4.300  0.943E+00  0.127E+00
   4.310  0.930E+00  0.115E+00
   4.320  0.921E+00  0.114E+00
   4.330  0.921E+00  0.126E+00
   4.340  0.931E+00  0.148E+00
   4.350  0.955E+00  0.179E+00
   4.360  0.991E+00  0.215E+00
   4.370  0.104E+01  0.251E+00
   4.380  0.109E+01  0.284E+00
   4.390  0.114E+01  0.310E+00
   4.400  0.118E+01  0.326E+00
   4.410  0.119E+01  0.330E+00
   4.420  0.118E+01  0.320E+00
   4.430  0.113E+01  0.298E+00
   4.440  0.105E+01  0.265E+00
   4.450  0.936E+00  0.224E+00
   4.460  0.810E+00  0.180E+00
   4.470  0.680E+00  0.138E+00
   4.480  0.560E+00  0.101E+00
   4.490  0.461E+00  0.725E-01
   4.500  0.394E+00  0.538E-01
   4.510  0.361E+00  0.445E-01
   4.520  0.365E+00  0.428E-01
   4.530  0.401E+00  0.461E-01
   4.540  0.463E+00  0.516E-01
   4.550  0.544E+00  0.568E-01
   4.560  0.634E+00  0.599E-01
   4.570  0.724E+00  0.603E-01
   4.580  0.805E+00  0.578E-01
   4.590  0.869E+00  0.529E-01
   4.600  0.909E+00  0.463E-01
   4.610  0.923E+00  0.390E-01
   4.620  0.908E+00  0.314E-01
   4.630  0.870E+00  0.242E-01
   4.640  0.813E+00  0.177E-01
   4.650  0.747E+00  0.121E-01
   4.660  0.678E+00  0.773E-02
   4.670  0.614E+00  0.463E-02
   4.680  0.559E+00  0.294E-02
   4.690  0.516E+00  0.274E-02
   4.700  0.484E+00  0.418E-02
   4.710  0.463E+00  0.752E-02
   4.720  0.452E+00  0.132E-01
   4.730  0.453E+00  0.218E-01
   4.740  0.466E+00  0.341E-01
   4.750  0.494E+00  0.510E-01
   4.760  0.540E+00  0.732E-01
   4.770  0.604E+00  0.101E+00
   4.780  0.686E+00  0.135E+00
   4.790  0.783E+00  0.172E+00
   4.800  0.892E+00  0.213E+00
   4.810  0.101E+01  0.254E+00
   4.820  0.112E+01  0.291E+00
   4.830  0.123E+01  0.322E+00
   4.840  0.132E+01  0.344E+00
   4.850  0.139E+01  0.354E+00
   4.860  0.143E+01  0.352E+00
   4.870  0.144E+01  0.338E+00
   4.880  0.143E+01  0.314E+00
   4.890  0.140E+01  0.282E+00
   4.900  0.136E+01  0.248E+00
   4.910  0.131E+01  0.214E+00
   4.920  0.126E+01  0.183E+00
   4.930  0.123E+01  0.158E+00
   4.940  0.121E+01  0.140E+00
   4.950  0.120E+01  0.129E+00
   4.960  0.120E+01  0.124E+00
   4.970  0.121E+01  0.123E+00
   4.980  0.121E+01  0.124E+00
   4.990  0.120E+01  0.125E+00
   5.000  0.118E+01  0.125E+00
   5.010  0.115E+01  0.124E+00
   5.020  0.110E+01  0.120E+00
   5.030  0.104E+01  0.114E+00
   5.040  0.980E+00  0.106E+00
   5.050  0.927E+00  0.971E-01
   5.060  0.887E+00  0.880E-01
   5.070  0.866E+00  0.808E-01
   5.080  0.863E+00  0.778E-01
   5.090  0.877E+00  0.806E-01
   5.100  0.903E+00  0.908E-01
   5.110  0.935E+00  0.108E+00
   5.120  0.969E+00  0.133E+00
   5.130  0.100E+01  0.161E+00
   5.140  0.103E+01  0.190E+00
   5.150  0.105E+01  0.215E+00
   5.160  0.107E+01  0.234E+00
   5.170  0.108E+01  0.244E+00
   5.180  0.109E+01  0.244E+00
   5.190  0.111E+01  0.235E+00
   5.200  0.112E+01  0.220E+00
   5.210  0.113E+01  0.202E+00
   5.220  0.114E+01  0.186E+00
   5.230  0.115E+01  0.172E+00
   5.240  0.116E+01  0.165E+00
   5.250  0.117E+01  0.163E+00
   5.260  0.118E+01  0.167E+00
   5.270  0.118E+01  0.174E+00
   5.280  0.117E+01  0.181E+00
   5.290  0.116E+01  0.188E+00
   5.300  0.114E+01  0.193E+00
   5.310  0.113E+01  0.194E+00
   5.320  0.111E+01  0.192E+00
   5.330  0.109E+01  0.186E+00
   5.340  0.108E+01  0.176E+00
   5.350  0.106E+01  0.163E+00
   5.360  0.105E+01  0.149E+00
   5.370  0.103E+01  0.134E+00
   5.380  0.102E+01  0.119E+00
   5.390  0.998E+00  0.108E+00
   5.400  0.982E+00  0.998E-01
   5.410  0.971E+00  0.964E-01
   5.420  0.968E+00  0.976E-01
   5.430  0.974E+00  0.103E+00
   5.440  0.991E+00  0.110E+00
   5.450  0.101E+01  0.118E+00
   5.460  0.104E+01  0.125E+00
   5.470  0.107E+01  0.130E+00
   5.480  0.110E+01  0.132E+00
   5.490  0.111E+01  0.132E+00
   5.500  0.112E+01  0.130E+00
   5.510  0.111E+01  0.125E+00
   5.520  0.110E+01  0.118E+00
   5.530  0.109E+01  0.110E+00
   5.540  0.107E+01  0.102E+00
   5.550  0.106E+01  0.947E-01
   5.560  0.106E+01  0.917E-01
   5.570  0.106E+01  0.957E-01
   5.580  0.106E+01  0.110E+00
   5.590  0.108E+01  0.138E+00
   5.600  0.109E+01  0.180E+00
   5.610  0.112E+01  0.239E+00
   5.620  0.116E+01  0.311E+00
   5.630  0.122E+01  0.393E+00
   5.640  0.130E+01  0.481E+00
   5.650  0.140E+01  0.568E+00
   5.660  0.152E+01  0.649E+00
   5.670  0.164E+01  0.718E+00
   5.680  0.177E+01  0.770E+00
   5.690  0.189E+01  0.803E+00
   5.700  0.199E+01  0.815E+00
   5.710  0.206E+01  0.809E+00
   5.720  0.210E+01  0.785E+00
   5.730  0.211E+01  0.748E+00
   5.740  0.209E+01  0.702E+00
   5.750  0.205E+01  0.651E+00
   5.760  0.199E+01  0.601E+00
   5.770  0.191E+01  0.554E+00
   5.780  0.184E+01  0.516E+00
   5.790  0.177E+01  0.488E+00
   5.800  0.171E+01  0.472E+00
   5.810  0.166E+01  0.468E+00
   5.820  0.163E+01  0.472E+00
   5.830  0.161E+01  0.483E+00
   5.840  0.162E+01  0.498E+00
   5.850  0.164E+01  0.512E+00
   5.860  0.168E+01  0.524E+00
   5.870  0.172E+01  0.532E+00
   5.880  0.176E+01  0.535E+00
   5.890  0.180E+01  0.532E+00
   5.900  0.183E+01  0.525E+00
   5.910  0.184E+01  0.516E+00
   5.920  0.184E+01  0.506E+00
   5.930  0.182E+01  0.498E+00
   5.940  0.180E+01  0.496E+00
   5.950  0.177E+01  0.502E+00
   5.960  0.175E+01  0.518E+00
   5.970  0.173E+01  0.546E+00
   5.980  0.174E+01  0.587E+00
   5.990  0.177E+01  0.638E+00
   6.000  0.181E+01  0.694E+00
   6.010  0.186E+01  0.749E+00
   6.020  0.190E+01  0.796E+00
   6.030  0.194E+01  0.829E+00
   6.040  0.195E+01  0.842E+00
   6.050  0.193E+01  0.834E+00
   6.060  0.189E+01  0.806E+00
   6.070  0.183E+01  0.765E+00
   6.080  0.177E+01  0.716E+00
   6.090  0.172E+01  0.668E+00
   6.100  0.170E+01  0.628E+00
   6.110  0.171E+01  0.599E+00
   6.120  0.175E+01  0.582E+00
   6.130  0.183E+01  0.577E+00
   6.140  0.192E+01  0.579E+00
   6.150  0.201E+01  0.584E+00
   6.160  0.207E+01  0.589E+00
   6.170  0.211E+01  0.590E+00
   6.180  0.209E+01  0.585E+00
   6.190  0.203E+01  0.576E+00
   6.200  0.194E+01  0.564E+00
   6.210  0.182E+01  0.553E+00
   6.220  0.171E+01  0.546E+00
   6.230  0.161E+01  0.547E+00
   6.240  0.156E+01  0.560E+00
   6.250  0.154E+01  0.585E+00
   6.260  0.158E+01  0.622E+00
   6.270  0.166E+01  0.667E+00
   6.280  0.177E+01  0.717E+00
   6.290  0.189E+01  0.764E+00
   6.300  0.200E+01  0.806E+00
   6.310  0.209E+01  0.836E+00
   6.320  0.215E+01  0.853E+00
   6.330  0.218E+01  0.853E+00
   6.340  0.216E+01  0.838E+00
   6.350  0.211E+01  0.810E+00
   6.360  0.203E+01  0.771E+00
   6.370  0.194E+01  0.726E+00
   6.380  0.185E+01  0.681E+00
   6.390  0.177E+01  0.640E+00
   6.400  0.172E+01  0.608E+00
   6.410  0.169E+01  0.590E+00
   6.420  0.170E+01  0.587E+00
   6.430  0.173E+01  0.599E+00
   6.440  0.178E+01  0.626E+00
   6.450  0.186E+01  0.667E+00
   6.460  0.193E+01  0.717E+00
   6.470  0.201E+01  0.774E+00
   6.480  0.208E+01  0.831E+00
   6.490  0.214E+01  0.882E+00
   6.500  0.217E+01  0.922E+00
   6.510  0.218E+01  0.947E+00
   6.520  0.216E+01  0.954E+00
   6.530  0.213E+01  0.947E+00
   6.540  0.210E+01  0.929E+00
   6.550  0.207E+01  0.910E+00
   6.560  0.206E+01  0.897E+00
   6.570  0.209E+01  0.900E+00
   6.580  0.216E+01  0.922E+00
   6.590  0.226E+01  0.965E+00
   6.600  0.239E+01  0.103E+01
   6.610  0.253E+01  0.110E+01
   6.620  0.265E+01  0.119E+01
   6.630  0.276E+01  0.127E+01
   6.640  0.283E+01  0.135E+01
   6.650  0.286E+01  0.143E+01
   6.660  0.285E+01  0.149E+01
   6.670  0.281E+01  0.154E+01
   6.680  0.276E+01  0.156E+01
   6.690  0.269E+01  0.157E+01
   6.700  0.263E+01  0.154E+01
   6.710  0.257E+01  0.149E+01
   6.720  0.252E+01  0.142E+01
   6.730  0.248E+01  0.133E+01
   6.740  0.245E+01  0.124E+01
   6.750  0.243E+01  0.114E+01
   6.760  0.240E+01  0.105E+01
   6.770  0.236E+01  0.980E+00
   6.780  0.231E+01  0.920E+00
   6.790  0.225E+01  0.873E+00
   6.800  0.217E+01  0.837E+00
   6.810  0.207E+01  0.808E+00
   6.820  0.197E+01  0.784E+00
   6.830  0.188E+01  0.763E+00
   6.840  0.179E+01  0.742E+00
   6.850  0.173E+01  0.723E+00
   6.860  0.170E+01  0.706E+00
   6.870  0.169E+01  0.692E+00
   6.880  0.172E+01  0.682E+00
   6.890  0.177E+01  0.676E+00
   6.900  0.184E+01  0.674E+00
   6.910  0.190E+01  0.676E+00
   6.920  0.195E+01  0.681E+00
   6.930  0.198E+01  0.685E+00
   6.940  0.198E+01  0.687E+00
   6.950  0.194E+01  0.685E+00
   6.960  0.189E+01  0.678E+00
   6.970  0.182E+01  0.667E+00
   6.980  0.174E+01  0.654E+00
   6.990  0.168E+01  0.640E+00
   7.000  0.163E+01  0.630E+00
   7.010  0.161E+01  0.623E+00
   7.020  0.162E+01  0.621E+00
   7.030  0.164E+01  0.621E+00
   7.040  0.167E+01  0.622E+00
   7.050  0.171E+01  0.619E+00
   7.060  0.173E+01  0.609E+00
   7.070  0.174E+01  0.589E+00
   7.080  0.172E+01  0.558E+00
   7.090  0.167E+01  0.518E+00
   7.100  0.159E+01  0.471E+00
   7.110  0.150E+01  0.423E+00
   7.120  0.140E+01  0.380E+00
   7.130  0.130E+01  0.347E+00
   7.140  0.123E+01  0.328E+00
   7.150  0.120E+01  0.326E+00
   7.160  0.120E+01  0.340E+00
   7.170  0.125E+01  0.366E+00
   7.180  0.134E+01  0.400E+00
   7.190  0.144E+01  0.435E+00
   7.200  0.155E+01  0.464E+00
   7.210  0.165E+01  0.483E+00
   7.220  0.172E+01  0.487E+00
   7.230  0.175E+01  0.475E+00
   7.240  0.175E+01  0.448E+00
   7.250  0.171E+01  0.407E+00
   7.260  0.165E+01  0.357E+00
   7.270  0.157E+01  0.302E+00
   7.280  0.147E+01  0.245E+00
   7.290  0.137E+01  0.193E+00
   7.300  0.127E+01  0.147E+00
   7.310  0.118E+01  0.112E+00
   7.320  0.109E+01  0.874E-01
   7.330  0.102E+01  0.754E-01
   7.340  0.957E+00  0.745E-01
   7.350  0.911E+00  0.832E-01
   7.360  0.881E+00  0.991E-01
   7.370  0.870E+00  0.120E+00
   7.380  0.877E+00  0.143E+00
   7.390  0.901E+00  0.166E+00
   7.400  0.939E+00  0.189E+00
   7.410  0.986E+00  0.211E+00
   7.420  0.104E+01  0.232E+00
   7.430  0.109E+01  0.254E+00
   7.440  0.115E+01  0.278E+00
   7.450  0.120E+01  0.304E+00
   7.460  0.126E+01  0.334E+00
   7.470  0.132E+01  0.367E+00
   7.480  0.139E+01  0.403E+00
   7.490  0.146E+01  0.438E+00
   7.500  0.155E+01  0.470E+00
   7.510  0.163E+01  0.495E+00
   7.520  0.170E+01  0.509E+00
   7.530  0.174E+01  0.511E+00
   7.540  0.176E+01  0.498E+00
   7.550  0.175E+01  0.473E+00
   7.560  0.170E+01  0.438E+00
   7.570  0.163E+01  0.397E+00
   7.580  0.154E+01  0.356E+00
   7.590  0.144E+01  0.318E+00
   7.600  0.135E+01  0.286E+00
   7.610  0.128E+01  0.263E+00
   7.620  0.123E+01  0.246E+00
   7.630  0.120E+01  0.236E+00
   7.640  0.120E+01  0.229E+00
   7.650  0.121E+01  0.223E+00
   7.660  0.123E+01  0.217E+00
   7.670  0.124E+01  0.209E+00
   7.680  0.125E+01  0.200E+00
   7.690  0.125E+01  0.188E+00
   7.700  0.123E+01  0.175E+00
   7.710  0.120E+01  0.161E+00
   7.720  0.115E+01  0.149E+00
   7.730  0.110E+01  0.137E+00
   7.740  0.105E+01  0.129E+00
   7.750  0.100E+01  0.124E+00
   7.760  0.976E+00  0.122E+00
   7.770  0.968E+00  0.126E+00
   7.780  0.982E+00  0.133E+00
   7.790  0.102E+01  0.144E+00
   7.800  0.107E+01  0.157E+00
   7.810  0.114E+01  0.172E+00
   7.820  0.122E+01  0.188E+00
   7.830  0.129E+01  0.204E+00
   7.840  0.136E+01  0.220E+00
   7.850  0.141E+01  0.236E+00
   7.860  0.145E+01  0.252E+00
   7.870  0.147E+01  0.268E+00
   7.880  0.146E+01  0.282E+00
   7.890  0.144E+01  0.295E+00
   7.900  0.139E+01  0.305E+00
   7.910  0.133E+01  0.312E+00
   7.920  0.126E+01  0.315E+00
   7.930  0.119E+01  0.316E+00
   7.940  0.112E+01  0.314E+00
   7.950  0.106E+01  0.311E+00
   7.960  0.103E+01  0.307E+00
   7.970  0.102E+01  0.302E+00
   7.980  0.104E+01  0.297E+00
   7.990  0.108E+01  0.291E+00
   8.000  0.113E+01  0.282E+00
   8.010  0.120E+01  0.271E+00
   8.020  0.127E+01  0.258E+00
   8.030  0.132E+01  0.243E+00
   8.040  0.135E+01  0.229E+00
   8.050  0.136E+01  0.218E+00
   8.060  0.133E+01  0.212E+00
   8.070  0.129E+01  0.211E+00
   8.080  0.124E+01  0.215E+00
   8.090  0.118E+01  0.222E+00
   8.100  0.114E+01  0.229E+00
   8.110  0.111E+01  0.234E+00
   8.120  0.111E+01  0.235E+00
   8.130  0.115E+01  0.230E+00
   8.140  0.121E+01  0.222E+00
   8.150  0.130E+01  0.210E+00
   8.160  0.140E+01  0.197E+00
   8.170  0.150E+01  0.184E+00
   8.180  0.159E+01  0.174E+00
   8.190  0.165E+01  0.168E+00
   8.200  0.168E+01  0.165E+00
   8.210  0.167E+01  0.167E+00
   8.220  0.162E+01  0.172E+00
   8.230  0.153E+01  0.180E+00
   8.240  0.143E+01  0.189E+00
   8.250  0.131E+01  0.200E+00
   8.260  0.121E+01  0.212E+00
   8.270  0.111E+01  0.225E+00
   8.280  0.105E+01  0.239E+00
   8.290  0.102E+01  0.254E+00
   8.300  0.102E+01  0.268E+00
   8.310  0.104E+01  0.281E+00
   8.320  0.107E+01  0.290E+00
   8.330  0.110E+01  0.292E+00
   8.340  0.112E+01  0.285E+00
   8.350  0.112E+01  0.268E+00
   8.360  0.109E+01  0.240E+00
   8.370  0.103E+01  0.204E+00
   8.380  0.968E+00  0.162E+00
   8.390  0.899E+00  0.120E+00
   8.400  0.839E+00  0.810E-01
   8.410  0.799E+00  0.497E-01
   8.420  0.784E+00  0.289E-01
   8.430  0.796E+00  0.206E-01
   8.440  0.833E+00  0.250E-01
   8.450  0.892E+00  0.413E-01
   8.460  0.965E+00  0.674E-01
   8.470  0.105E+01  0.101E+00
   8.480  0.114E+01  0.138E+00
   8.490  0.123E+01  0.176E+00
   8.500  0.133E+01  0.210E+00
   8.510  0.142E+01  0.239E+00
   8.520  0.150E+01  0.261E+00
   8.530  0.158E+01  0.274E+00
   8.540  0.163E+01  0.280E+00
   8.550  0.167E+01  0.281E+00
   8.560  0.170E+01  0.278E+00
   8.570  0.170E+01  0.274E+00
   8.580  0.168E+01  0.271E+00
   8.590  0.165E+01  0.267E+00
   8.600  0.161E+01  0.263E+00
   8.610  0.157E+01  0.256E+00
   8.620  0.152E+01  0.246E+00
   8.630  0.149E+01  0.232E+00
   8.640  0.146E+01  0.215E+00
   8.650  0.144E+01  0.196E+00
   8.660  0.144E+01  0.179E+00
   8.670  0.146E+01  0.167E+00
   8.680  0.150E+01  0.161E+00
   8.690  0.156E+01  0.163E+00
   8.700  0.164E+01  0.175E+00
   8.710  0.173E+01  0.194E+00
   8.720  0.182E+01  0.217E+00
   8.730  0.191E+01  0.243E+00
   8.740  0.198E+01  0.267E+00
   8.750  0.201E+01  0.287E+00
   8.760  0.200E+01  0.300E+00
   8.770  0.195E+01  0.306E+00
   8.780  0.186E+01  0.303E+00
   8.790  0.173E+01  0.292E+00
   8.800  0.159E+01  0.272E+00
   8.810  0.145E+01  0.245E+00
   8.820  0.133E+01  0.211E+00
   8.830  0.123E+01  0.172E+00
   8.840  0.118E+01  0.132E+00
   8.850  0.116E+01  0.923E-01
   8.860  0.118E+01  0.563E-01
   8.870  0.122E+01  0.264E-01
   8.880  0.126E+01  0.389E-02
   8.890  0.130E+01 -0.108E-01
   8.900  0.132E+01 -0.182E-01
   8.910  0.132E+01 -0.196E-01
   8.920  0.128E+01 -0.165E-01
   8.930  0.122E+01 -0.100E-01
   8.940  0.116E+01 -0.997E-03
   8.950  0.109E+01  0.103E-01
   8.960  0.103E+01  0.242E-01
   8.970  0.995E+00  0.411E-01
   8.980  0.988E+00  0.616E-01
   8.990  0.101E+01  0.859E-01
   9.000  0.106E+01  0.114E+00
   9.010  0.114E+01  0.144E+00
   9.020  0.123E+01  0.175E+00
   9.030  0.134E+01  0.205E+00
   9.040  0.144E+01  0.232E+00
   9.050  0.153E+01  0.255E+00
   9.060  0.161E+01  0.273E+00
   9.070  0.167E+01  0.285E+00
   9.080  0.170E+01  0.293E+00
   9.090  0.171E+01  0.296E+00
   9.100  0.169E+01  0.294E+00
   9.110  0.164E+01  0.288E+00
   9.120  0.158E+01  0.276E+00
   9.130  0.149E+01  0.259E+00
   9.140  0.140E+01  0.238E+00
   9.150  0.131E+01  0.214E+00
   9.160  0.123E+01  0.192E+00
   9.170  0.115E+01  0.173E+00
   9.180  0.111E+01  0.161E+00
   9.190  0.109E+01  0.160E+00
   9.200  0.109E+01  0.170E+00
   9.210  0.113E+01  0.191E+00
   9.220  0.119E+01  0.218E+00
   9.230  0.127E+01  0.249E+00
   9.240  0.134E+01  0.277E+00
   9.250  0.141E+01  0.298E+00
   9.260  0.146E+01  0.309E+00
   9.270  0.147E+01  0.306E+00
   9.280  0.146E+01  0.291E+00
   9.290  0.140E+01  0.264E+00
   9.300  0.132E+01  0.228E+00
   9.310  0.123E+01  0.186E+00
   9.320  0.112E+01  0.142E+00
   9.330  0.101E+01  0.997E-01
   9.340  0.910E+00  0.618E-01
   9.350  0.823E+00  0.303E-01
   9.360  0.755E+00  0.625E-02
   9.370  0.710E+00 -0.998E-02
   9.380  0.690E+00 -0.190E-01
   9.390  0.697E+00 -0.221E-01
   9.400  0.729E+00 -0.208E-01
   9.410  0.781E+00 -0.165E-01
   9.420  0.847E+00 -0.108E-01
   9.430  0.917E+00 -0.468E-02
   9.440  0.980E+00  0.128E-02
   9.450  0.103E+01  0.690E-02
   9.460  0.105E+01  0.124E-01
   9.470  0.105E+01  0.183E-01
   9.480  0.102E+01  0.252E-01
   9.490  0.974E+00  0.340E-01
   9.500  0.924E+00  0.453E-01
   9.510  0.882E+00  0.597E-01
   9.520  0.862E+00  0.772E-01
   9.530  0.874E+00  0.978E-01
   9.540  0.924E+00  0.121E+00
   9.550  0.101E+01  0.146E+00
   9.560  0.112E+01  0.172E+00
   9.570  0.125E+01  0.198E+00
   9.580  0.138E+01  0.223E+00
   9.590  0.150E+01  0.245E+00
   9.600  0.159E+01  0.264E+00
   9.610  0.164E+01  0.277E+00
   9.620  0.166E+01  0.284E+00
   9.630  0.163E+01  0.284E+00
   9.640  0.158E+01  0.276E+00
   9.650  0.150E+01  0.261E+00
   9.660  0.141E+01  0.240E+00
   9.670  0.131E+01  0.217E+00
   9.680  0.123E+01  0.194E+00
   9.690  0.116E+01  0.176E+00
   9.700  0.111E+01  0.166E+00
   9.710  0.108E+01  0.166E+00
   9.720  0.109E+01  0.176E+00
   9.730  0.111E+01  0.195E+00
   9.740  0.115E+01  0.219E+00
   9.750  0.120E+01  0.244E+00
   9.760  0.124E+01  0.263E+00
   9.770  0.126E+01  0.274E+00
   9.780  0.126E+01  0.271E+00
   9.790  0.122E+01  0.255E+00
   9.800  0.114E+01  0.226E+00
   9.810  0.104E+01  0.187E+00
   9.820  0.914E+00  0.142E+00
   9.830  0.793E+00  0.973E-01
   9.840  0.686E+00  0.562E-01
   9.850  0.606E+00  0.223E-01
   9.860  0.561E+00 -0.267E-02
   9.870  0.553E+00 -0.185E-01
   9.880  0.577E+00 -0.262E-01
   9.890  0.621E+00 -0.276E-01
   9.900  0.675E+00 -0.247E-01
   9.910  0.726E+00 -0.194E-01
   9.920  0.765E+00 -0.132E-01
   9.930  0.786E+00 -0.713E-02
   9.940  0.791E+00 -0.146E-02
   9.950  0.782E+00  0.378E-02
   9.960  0.768E+00  0.889E-02
   9.970  0.756E+00  0.143E-01
   9.980  0.755E+00  0.205E-01
   9.990  0.770E+00  0.279E-01
  10.000  0.804E+00  0.367E-01
  10.010  0.857E+00  0.469E-01
  10.020  0.925E+00  0.586E-01
  10.030  0.100E+01  0.717E-01
  10.040  0.108E+01  0.860E-01
  10.050  0.115E+01  0.102E+00
  10.060  0.120E+01  0.118E+00
  10.070  0.123E+01  0.137E+00
  10.080  0.124E+01  0.157E+00
  10.090  0.123E+01  0.178E+00
  10.100  0.121E+01  0.200E+00
  10.110  0.118E+01  0.222E+00
  10.120  0.115E+01  0.240E+00
  10.130  0.113E+01  0.254E+00
  10.140  0.112E+01  0.261E+00
  10.150  0.113E+01  0.260E+00
  10.160  0.115E+01  0.251E+00
  10.170  0.118E+01  0.235E+00
  10.180  0.120E+01  0.214E+00
  10.190  0.120E+01  0.192E+00
  10.200  0.119E+01  0.171E+00
  10.210  0.116E+01  0.155E+00
  10.220  0.111E+01  0.147E+00
  10.230  0.105E+01  0.146E+00
  10.240  0.985E+00  0.151E+00
  10.250  0.927E+00  0.160E+00
  10.260  0.881E+00  0.169E+00
  10.270  0.851E+00  0.175E+00
  10.280  0.839E+00  0.174E+00
  10.290  0.848E+00  0.165E+00
  10.300  0.875E+00  0.149E+00
  10.310  0.920E+00  0.127E+00
  10.320  0.976E+00  0.101E+00
  10.330  0.104E+01  0.737E-01
  10.340  0.110E+01  0.490E-01
  10.350  0.115E+01  0.287E-01
  10.360  0.119E+01  0.139E-01
  10.370  0.121E+01  0.513E-02
  10.380  0.121E+01  0.185E-02
  10.390  0.120E+01  0.321E-02
  10.400  0.117E+01  0.819E-02
  10.410  0.115E+01  0.158E-01
  10.420  0.112E+01  0.253E-01
  10.430  0.110E+01  0.360E-01
  10.440  0.110E+01  0.475E-01
  10.450  0.110E+01  0.592E-01
  10.460  0.111E+01  0.704E-01
  10.470  0.113E+01  0.804E-01
  10.480  0.115E+01  0.885E-01
  10.490  0.116E+01  0.944E-01
  10.500  0.117E+01  0.981E-01
  10.510  0.117E+01  0.100E+00
  10.520  0.115E+01  0.102E+00
  10.530  0.113E+01  0.105E+00
  10.540  0.110E+01  0.110E+00
  10.550  0.107E+01  0.118E+00
  10.560  0.106E+01  0.130E+00
  10.570  0.105E+01  0.144E+00
  10.580  0.107E+01  0.159E+00
  10.590  0.111E+01  0.172E+00
  10.600  0.115E+01  0.180E+00
  10.610  0.120E+01  0.181E+00
  10.620  0.124E+01  0.177E+00
  10.630  0.128E+01  0.166E+00
  10.640  0.131E+01  0.152E+00
  10.650  0.133E+01  0.138E+00
  10.660  0.135E+01  0.126E+00
  10.670  0.136E+01  0.119E+00
  10.680  0.137E+01  0.119E+00
  10.690  0.138E+01  0.124E+00
  10.700  0.138E+01  0.134E+00
  10.710  0.138E+01  0.146E+00
  10.720  0.137E+01  0.157E+00
  10.730  0.134E+01  0.163E+00
  10.740  0.131E+01  0.164E+00
  10.750  0.128E+01  0.159E+00
  10.760  0.125E+01  0.149E+00
  10.770  0.122E+01  0.135E+00
  10.780  0.119E+01  0.121E+00
  10.790  0.118E+01  0.107E+00
  10.800  0.116E+01  0.964E-01
  10.810  0.115E+01  0.900E-01
  10.820  0.114E+01  0.878E-01
  10.830  0.112E+01  0.891E-01
  10.840  0.111E+01  0.927E-01
  10.850  0.108E+01  0.971E-01
  10.860  0.105E+01  0.101E+00
  10.870  0.101E+01  0.104E+00
  10.880  0.955E+00  0.105E+00
  10.890  0.895E+00  0.105E+00
  10.900  0.831E+00  0.104E+00
  10.910  0.766E+00  0.104E+00
  10.920  0.707E+00  0.105E+00
  10.930  0.658E+00  0.108E+00
  10.940  0.625E+00  0.113E+00
  10.950  0.608E+00  0.119E+00
  10.960  0.608E+00  0.127E+00
  10.970  0.621E+00  0.136E+00
  10.980  0.643E+00  0.144E+00
  10.990  0.669E+00  0.152E+00
  11.000  0.693E+00  0.158E+00
  11.010  0.711E+00  0.162E+00
  11.020  0.718E+00  0.164E+00
  11.030  0.713E+00  0.163E+00
  11.040  0.695E+00  0.160E+00
  11.050  0.664E+00  0.155E+00
  11.060  0.624E+00  0.147E+00
  11.070  0.580E+00  0.138E+00
  11.080  0.536E+00  0.127E+00
  11.090  0.497E+00  0.116E+00
  11.100  0.469E+00  0.106E+00
  11.110  0.452E+00  0.957E-01
  11.120  0.446E+00  0.869E-01
  11.130  0.448E+00  0.794E-01
  11.140  0.451E+00  0.728E-01
  11.150  0.451E+00  0.667E-01
  11.160  0.440E+00  0.606E-01
  11.170  0.416E+00  0.539E-01
  11.180  0.376E+00  0.465E-01
  11.190  0.323E+00  0.382E-01
  11.200  0.261E+00  0.295E-01
  11.210  0.198E+00  0.208E-01
  11.220  0.141E+00  0.131E-01
  11.230  0.972E-01  0.704E-02
  11.240  0.711E-01  0.334E-02
  11.250  0.661E-01  0.243E-02
  11.260  0.828E-01  0.447E-02
  11.270  0.119E+00  0.932E-02
  11.280  0.173E+00  0.166E-01
  11.290  0.239E+00  0.257E-01
  11.300  0.314E+00  0.358E-01
  11.310  0.392E+00  0.460E-01
  11.320  0.469E+00  0.555E-01
  11.330  0.541E+00  0.635E-01
  11.340  0.604E+00  0.693E-01
  11.350  0.652E+00  0.728E-01
  11.360  0.683E+00  0.738E-01
  11.370  0.693E+00  0.727E-01
  11.380  0.679E+00  0.698E-01
  11.390  0.640E+00  0.655E-01
  11.400  0.579E+00  0.600E-01
  11.410  0.498E+00  0.535E-01
  11.420  0.406E+00  0.461E-01
  11.430  0.308E+00  0.381E-01
  11.440  0.214E+00  0.297E-01
  11.450  0.129E+00  0.212E-01
  11.460  0.588E-01  0.133E-01
  11.470  0.682E-02  0.630E-02
  11.480 -0.268E-01  0.753E-03
  11.490 -0.435E-01 -0.319E-02
  11.500 -0.462E-01 -0.555E-02
  11.510 -0.386E-01 -0.653E-02
  11.520 -0.245E-01 -0.647E-02
  11.530 -0.734E-02 -0.574E-02
  11.540  0.982E-02 -0.468E-02
  11.550  0.247E-01 -0.355E-02
  11.560  0.357E-01 -0.254E-02
  11.570  0.420E-01 -0.171E-02
  11.580  0.435E-01 -0.109E-02
  11.590  0.408E-01 -0.661E-03
  11.600  0.350E-01 -0.381E-03
  11.610  0.275E-01 -0.209E-03
  11.620  0.200E-01 -0.110E-03
  11.630  0.140E-01 -0.547E-04
  11.640  0.107E-01 -0.258E-04
  11.650  0.112E-01 -0.113E-04
  11.660  0.159E-01 -0.407E-05
  11.670  0.250E-01 -0.381E-06
  11.680  0.382E-01  0.177E-05
  11.690  0.550E-01  0.332E-05
  11.700  0.745E-01  0.467E-05
  11.710  0.955E-01  0.594E-05
  11.720  0.117E+00  0.713E-05
  11.730  0.138E+00  0.819E-05
  11.740  0.157E+00  0.904E-05
  11.750  0.175E+00  0.966E-05
  11.760  0.190E+00  0.100E-04
  11.770  0.202E+00  0.101E-04
  11.780  0.212E+00  0.100E-04
  11.790  0.218E+00  0.972E-05
  11.800  0.220E+00  0.921E-05
  11.810  0.214E+00  0.850E-05
  11.820  0.202E+00  0.758E-05
  11.830  0.181E+00  0.646E-05
  11.840  0.154E+00  0.520E-05
  11.850  0.121E+00  0.386E-05
  11.860  0.863E-01  0.254E-05
  11.870  0.529E-01  0.134E-05
  11.880  0.238E-01  0.361E-06
  11.890  0.105E-02 -0.360E-06
  11.900 -0.145E-01 -0.808E-06
  11.910 -0.231E-01 -0.101E-05
  11.920 -0.259E-01 -0.102E-05
  11.930 -0.245E-01 -0.895E-06
  11.940 -0.206E-01 -0.685E-06
  11.950 -0.154E-01 -0.427E-06
  11.960 -0.985E-02 -0.133E-06
  11.970 -0.432E-02  0.201E-06
  11.980  0.118E-02  0.599E-06
  11.990  0.688E-02  0.109E-05
  12.000  0.130E-01  0.169E-05
  12.010  0.199E-01  0.240E-05
  12.020  0.272E-01  0.322E-05
  12.030  0.349E-01  0.409E-05
  12.040  0.421E-01  0.492E-05
  12.050  0.481E-01  0.561E-05
  12.060  0.521E-01  0.606E-05
  12.070  0.532E-01  0.619E-05
  12.080  0.512E-01  0.596E-05
  12.090  0.461E-01  0.537E-05
  12.100  0.387E-01  0.451E-05
  12.110  0.299E-01  0.350E-05
  12.120  0.210E-01  0.248E-05
  12.130  0.133E-01  0.162E-05
  12.140  0.784E-02  0.106E-05
  12.150  0.557E-02  0.895E-06
  12.160  0.696E-02  0.122E-05
  12.170  0.123E-01  0.207E-05
  12.180  0.215E-01  0.346E-05
  12.190  0.344E-01  0.538E-05
  12.200  0.505E-01  0.775E-05
  12.210  0.688E-01  0.105E-04
  12.220  0.881E-01  0.133E-04
  12.230  0.107E+00  0.161E-04
  12.240  0.123E+00  0.184E-04
  12.250  0.134E+00  0.201E-04
  12.260  0.140E+00  0.209E-04
  12.270  0.139E+00  0.207E-04
  12.280  0.131E+00  0.195E-04
  12.290  0.117E+00  0.174E-04
  12.300  0.989E-01  0.147E-04
  12.310  0.782E-01  0.116E-04
  12.320  0.571E-01  0.845E-05
  12.330  0.374E-01  0.550E-05
  12.340  0.203E-01  0.296E-05
  12.350  0.674E-02  0.948E-06
  12.360 -0.304E-02 -0.494E-06
  12.370 -0.921E-02 -0.140E-05
  12.380 -0.123E-01 -0.185E-05
  12.390 -0.130E-01 -0.194E-05
  12.400 -0.121E-01 -0.180E-05
  12.410 -0.103E-01 -0.153E-05
  12.420 -0.817E-02 -0.121E-05
  12.430 -0.607E-02 -0.898E-06
  12.440 -0.426E-02 -0.629E-06
  12.450 -0.283E-02 -0.418E-06
  12.460 -0.178E-02 -0.262E-06
  12.470 -0.106E-02 -0.153E-06
  12.480 -0.569E-03 -0.769E-07
  12.490 -0.232E-03 -0.188E-07
  12.500  0.449E-04  0.388E-07
  12.510  0.354E-03  0.117E-06
  12.520  0.805E-03  0.242E-06
  12.530  0.153E-02  0.452E-06
  12.540  0.270E-02  0.795E-06
  12.550  0.452E-02  0.133E-05
  12.560  0.722E-02  0.212E-05
  12.570  0.110E-01  0.322E-05
  12.580  0.159E-01  0.468E-05
  12.590  0.220E-01  0.647E-05
  12.600  0.290E-01  0.852E-05
  12.610  0.364E-01  0.107E-04
  12.620  0.434E-01  0.127E-04
  12.630  0.490E-01  0.144E-04
  12.640  0.525E-01  0.154E-04
  12.650  0.531E-01  0.156E-04
  12.660  0.505E-01  0.148E-04
  12.670  0.449E-01  0.132E-04
  12.680  0.369E-01  0.108E-04
  12.690  0.276E-01  0.811E-05
  12.700  0.182E-01  0.533E-05
  12.710  0.957E-02  0.281E-05
  12.720  0.260E-02  0.762E-06
  12.730 -0.236E-02 -0.694E-06
  12.740 -0.531E-02 -0.156E-05
  12.750 -0.654E-02 -0.192E-05
  12.760 -0.650E-02 -0.191E-05
  12.770 -0.569E-02 -0.167E-05
  12.780 -0.454E-02 -0.133E-05
  12.790 -0.336E-02 -0.986E-06
  12.800 -0.232E-02 -0.681E-06
  12.810 -0.151E-02 -0.443E-06
  12.820 -0.927E-03 -0.272E-06
  12.830 -0.540E-03 -0.158E-06
  12.840 -0.298E-03 -0.875E-07
