# E (eV)   ldos(E)   pdos(E)    pdos(E)    pdos(E)   
 -21.530  0.266E-09  0.513E-18  0.133E-09  0.133E-09
 -21.520  0.809E-09  0.154E-17  0.404E-09  0.404E-09
 -21.510  0.236E-08  0.445E-17  0.118E-08  0.118E-08
 -21.500  0.659E-08  0.123E-16  0.330E-08  0.330E-08
 -21.490  0.177E-07  0.325E-16  0.885E-08  0.885E-08
 -21.480  0.456E-07  0.823E-16  0.228E-07  0.228E-07
 -21.470  0.113E-06  0.200E-15  0.564E-07  0.564E-07
 -21.460  0.268E-06  0.465E-15  0.134E-06  0.134E-06
 -21.450  0.610E-06  0.104E-14  0.305E-06  0.305E-06
 -21.440  0.134E-05  0.221E-14  0.668E-06  0.668E-06
 -21.430  0.281E-05  0.451E-14  0.141E-05  0.141E-05
 -21.420  0.569E-05  0.883E-14  0.284E-05  0.284E-05
 -21.410  0.111E-04  0.165E-13  0.553E-05  0.553E-05
 -21.400  0.207E-04  0.296E-13  0.104E-04  0.104E-04
 -21.390  0.373E-04  0.509E-13  0.186E-04  0.186E-04
 -21.380  0.646E-04  0.835E-13  0.323E-04  0.323E-04
 -21.370  0.108E-03  0.131E-12  0.540E-04  0.540E-04
 -21.360  0.174E-03  0.197E-12  0.869E-04  0.869E-04
 -21.350  0.270E-03  0.283E-12  0.135E-03  0.135E-03
 -21.340  0.405E-03  0.390E-12  0.203E-03  0.203E-03
 -21.330  0.588E-03  0.513E-12  0.294E-03  0.294E-03
 -21.320  0.825E-03  0.647E-12  0.412E-03  0.412E-03
 -21.310  0.112E-02  0.784E-12  0.561E-03  0.561E-03
 -21.300  0.148E-02  0.914E-12  0.740E-03  0.740E-03
 -21.290  0.190E-02  0.103E-11  0.950E-03  0.950E-03
 -21.280  0.237E-02  0.113E-11  0.119E-02  0.119E-02
 -21.270  0.289E-02  0.122E-11  0.145E-02  0.145E-02
 -21.260  0.344E-02  0.132E-11  0.172E-02  0.172E-02
 -21.250  0.402E-02  0.142E-11  0.201E-02  0.201E-02
 -21.240  0.460E-02  0.156E-11  0.230E-02  0.230E-02
 -21.230  0.519E-02  0.173E-11  0.259E-02  0.259E-02
 -21.220  0.577E-02  0.194E-11  0.288E-02  0.288E-02
 -21.210  0.633E-02  0.216E-11  0.317E-02  0.317E-02
 -21.200  0.688E-02  0.237E-11  0.344E-02  0.344E-02
 -21.190  0.742E-02  0.254E-11  0.371E-02  0.371E-02
 -21.180  0.794E-02  0.263E-11  0.397E-02  0.397E-02
 -21.170  0.846E-02  0.264E-11  0.423E-02  0.423E-02
 -21.160  0.896E-02  0.255E-11  0.448E-02  0.448E-02
 -21.150  0.946E-02  0.237E-11  0.473E-02  0.473E-02
 -21.140  0.994E-02  0.212E-11  0.497E-02  0.497E-02
 -21.130  0.104E-01  0.183E-11  0.521E-02  0.521E-02
 -21.120  0.109E-01  0.152E-11  0.543E-02  0.543E-02
 -21.110  0.113E-01  0.122E-11  0.566E-02  0.566E-02
 -21.100  0.118E-01  0.953E-12  0.588E-02  0.588E-02
 -21.090  0.122E-01  0.725E-12  0.611E-02  0.611E-02
 -21.080  0.127E-01  0.546E-12  0.635E-02  0.635E-02
 -21.070  0.132E-01  0.420E-12  0.659E-02  0.659E-02
 -21.060  0.137E-01  0.349E-12  0.683E-02  0.683E-02
 -21.050  0.141E-01  0.330E-12  0.706E-02  0.706E-02
 -21.040  0.145E-01  0.359E-12  0.726E-02  0.726E-02
 -21.030  0.149E-01  0.431E-12  0.744E-02  0.744E-02
 -21.020  0.152E-01  0.538E-12  0.760E-02  0.760E-02
 -21.010  0.155E-01  0.671E-12  0.776E-02  0.776E-02
 -21.000  0.159E-01  0.817E-12  0.795E-02  0.795E-02
 -20.990  0.164E-01  0.959E-12  0.819E-02  0.819E-02
 -20.980  0.169E-01  0.108E-11  0.846E-02  0.846E-02
 -20.970  0.175E-01  0.117E-11  0.875E-02  0.875E-02
 -20.960  0.181E-01  0.121E-11  0.903E-02  0.903E-02
 -20.950  0.185E-01  0.119E-11  0.926E-02  0.926E-02
 -20.940  0.188E-01  0.114E-11  0.941E-02  0.941E-02
 -20.930  0.190E-01  0.105E-11  0.949E-02  0.949E-02
 -20.920  0.190E-01  0.968E-12  0.952E-02  0.952E-02
 -20.910  0.191E-01  0.903E-12  0.956E-02  0.956E-02
 -20.900  0.193E-01  0.879E-12  0.965E-02  0.965E-02
 -20.890  0.197E-01  0.907E-12  0.985E-02  0.985E-02
 -20.880  0.203E-01  0.983E-12  0.102E-01  0.102E-01
 -20.870  0.212E-01  0.109E-11  0.106E-01  0.106E-01
 -20.860  0.220E-01  0.121E-11  0.110E-01  0.110E-01
 -20.850  0.228E-01  0.132E-11  0.114E-01  0.114E-01
 -20.840  0.233E-01  0.140E-11  0.117E-01  0.117E-01
 -20.830  0.235E-01  0.144E-11  0.117E-01  0.117E-01
 -20.820  0.233E-01  0.144E-11  0.117E-01  0.117E-01
 -20.810  0.230E-01  0.143E-11  0.115E-01  0.115E-01
 -20.800  0.226E-01  0.142E-11  0.113E-01  0.113E-01
 -20.790  0.223E-01  0.142E-11  0.112E-01  0.112E-01
 -20.780  0.225E-01  0.145E-11  0.112E-01  0.112E-01
 -20.770  0.231E-01  0.150E-11  0.115E-01  0.115E-01
 -20.760  0.241E-01  0.157E-11  0.120E-01  0.120E-01
 -20.750  0.254E-01  0.163E-11  0.127E-01  0.127E-01
 -20.740  0.267E-01  0.168E-11  0.134E-01  0.134E-01
 -20.730  0.278E-01  0.170E-11  0.139E-01  0.139E-01
 -20.720  0.285E-01  0.169E-11  0.143E-01  0.143E-01
 -20.710  0.287E-01  0.167E-11  0.144E-01  0.144E-01
 -20.700  0.283E-01  0.164E-11  0.141E-01  0.141E-01
 -20.690  0.274E-01  0.163E-11  0.137E-01  0.137E-01
 -20.680  0.264E-01  0.168E-11  0.132E-01  0.132E-01
 -20.670  0.255E-01  0.180E-11  0.127E-01  0.127E-01
 -20.660  0.249E-01  0.201E-11  0.125E-01  0.125E-01
 -20.650  0.250E-01  0.230E-11  0.125E-01  0.125E-01
 -20.640  0.259E-01  0.265E-11  0.129E-01  0.129E-01
 -20.630  0.273E-01  0.302E-11  0.137E-01  0.137E-01
 -20.620  0.292E-01  0.336E-11  0.146E-01  0.146E-01
 -20.610  0.311E-01  0.362E-11  0.156E-01  0.156E-01
 -20.600  0.328E-01  0.374E-11  0.164E-01  0.164E-01
 -20.590  0.340E-01  0.369E-11  0.170E-01  0.170E-01
 -20.580  0.344E-01  0.346E-11  0.172E-01  0.172E-01
 -20.570  0.340E-01  0.306E-11  0.170E-01  0.170E-01
 -20.560  0.329E-01  0.254E-11  0.165E-01  0.165E-01
 -20.550  0.314E-01  0.195E-11  0.157E-01  0.157E-01
 -20.540  0.297E-01  0.136E-11  0.148E-01  0.148E-01
 -20.530  0.282E-01  0.822E-12  0.141E-01  0.141E-01
 -20.520  0.273E-01  0.391E-12  0.136E-01  0.136E-01
 -20.510  0.271E-01  0.844E-13  0.135E-01  0.135E-01
 -20.500  0.278E-01 -0.963E-13  0.139E-01  0.139E-01
 -20.490  0.294E-01 -0.168E-12  0.147E-01  0.147E-01
 -20.480  0.317E-01 -0.160E-12  0.159E-01  0.159E-01
 -20.470  0.344E-01 -0.103E-12  0.172E-01  0.172E-01
 -20.460  0.370E-01 -0.282E-13  0.185E-01  0.185E-01
 -20.450  0.391E-01  0.424E-13  0.195E-01  0.195E-01
 -20.440  0.403E-01  0.941E-13  0.201E-01  0.201E-01
 -20.430  0.404E-01  0.121E-12  0.202E-01  0.202E-01
 -20.420  0.395E-01  0.125E-12  0.198E-01  0.198E-01
 -20.410  0.377E-01  0.111E-12  0.189E-01  0.189E-01
 -20.400  0.355E-01  0.888E-13  0.177E-01  0.177E-01
 -20.390  0.331E-01  0.648E-13  0.166E-01  0.166E-01
 -20.380  0.311E-01  0.452E-13  0.155E-01  0.155E-01
 -20.370  0.296E-01  0.331E-13  0.148E-01  0.148E-01
 -20.360  0.291E-01  0.288E-13  0.145E-01  0.145E-01
 -20.350  0.295E-01  0.309E-13  0.147E-01  0.147E-01
 -20.340  0.308E-01  0.368E-13  0.154E-01  0.154E-01
 -20.330  0.329E-01  0.438E-13  0.165E-01  0.165E-01
 -20.320  0.357E-01  0.499E-13  0.178E-01  0.178E-01
 -20.310  0.388E-01  0.539E-13  0.194E-01  0.194E-01
 -20.300  0.418E-01  0.553E-13  0.209E-01  0.209E-01
 -20.290  0.444E-01  0.543E-13  0.222E-01  0.222E-01
 -20.280  0.461E-01  0.514E-13  0.231E-01  0.231E-01
 -20.270  0.467E-01  0.472E-13  0.234E-01  0.234E-01
 -20.260  0.460E-01  0.422E-13  0.230E-01  0.230E-01
 -20.250  0.441E-01  0.370E-13  0.221E-01  0.221E-01
 -20.240  0.413E-01  0.322E-13  0.206E-01  0.206E-01
 -20.230  0.380E-01  0.284E-13  0.190E-01  0.190E-01
 -20.220  0.348E-01  0.259E-13  0.174E-01  0.174E-01
 -20.210  0.322E-01  0.252E-13  0.161E-01  0.161E-01
 -20.200  0.306E-01  0.263E-13  0.153E-01  0.153E-01
 -20.190  0.302E-01  0.290E-13  0.151E-01  0.151E-01
 -20.180  0.311E-01  0.329E-13  0.156E-01  0.156E-01
 -20.170  0.331E-01  0.371E-13  0.166E-01  0.166E-01
 -20.160  0.360E-01  0.409E-13  0.180E-01  0.180E-01
 -20.150  0.393E-01  0.436E-13  0.197E-01  0.197E-01
 -20.140  0.429E-01  0.449E-13  0.214E-01  0.214E-01
 -20.130  0.461E-01  0.446E-13  0.231E-01  0.231E-01
 -20.120  0.489E-01  0.430E-13  0.244E-01  0.244E-01
 -20.110  0.508E-01  0.406E-13  0.254E-01  0.254E-01
 -20.100  0.517E-01  0.380E-13  0.258E-01  0.258E-01
 -20.090  0.516E-01  0.359E-13  0.258E-01  0.258E-01
 -20.080  0.504E-01  0.351E-13  0.252E-01  0.252E-01
 -20.070  0.482E-01  0.358E-13  0.241E-01  0.241E-01
 -20.060  0.453E-01  0.386E-13  0.226E-01  0.226E-01
 -20.050  0.419E-01  0.438E-13  0.209E-01  0.209E-01
 -20.040  0.384E-01  0.515E-13  0.192E-01  0.192E-01
 -20.030  0.352E-01  0.620E-13  0.176E-01  0.176E-01
 -20.020  0.328E-01  0.753E-13  0.164E-01  0.164E-01
 -20.010  0.315E-01  0.916E-13  0.157E-01  0.157E-01
 -20.000  0.315E-01  0.110E-12  0.157E-01  0.157E-01
 -19.990  0.330E-01  0.131E-12  0.165E-01  0.165E-01
 -19.980  0.359E-01  0.152E-12  0.179E-01  0.179E-01
 -19.970  0.399E-01  0.173E-12  0.200E-01  0.200E-01
 -19.960  0.446E-01  0.191E-12  0.223E-01  0.223E-01
 -19.950  0.493E-01  0.205E-12  0.246E-01  0.246E-01
 -19.940  0.535E-01  0.212E-12  0.267E-01  0.267E-01
 -19.930  0.565E-01  0.211E-12  0.283E-01  0.283E-01
 -19.920  0.581E-01  0.204E-12  0.291E-01  0.291E-01
 -19.910  0.582E-01  0.191E-12  0.291E-01  0.291E-01
 -19.900  0.568E-01  0.174E-12  0.284E-01  0.284E-01
 -19.890  0.543E-01  0.156E-12  0.272E-01  0.272E-01
 -19.880  0.512E-01  0.138E-12  0.256E-01  0.256E-01
 -19.870  0.478E-01  0.121E-12  0.239E-01  0.239E-01
 -19.860  0.446E-01  0.108E-12  0.223E-01  0.223E-01
 -19.850  0.418E-01  0.965E-13  0.209E-01  0.209E-01
 -19.840  0.393E-01  0.874E-13  0.197E-01  0.197E-01
 -19.830  0.373E-01  0.803E-13  0.186E-01  0.186E-01
 -19.820  0.358E-01  0.758E-13  0.179E-01  0.179E-01
 -19.810  0.349E-01  0.749E-13  0.174E-01  0.174E-01
 -19.800  0.348E-01  0.789E-13  0.174E-01  0.174E-01
 -19.790  0.359E-01  0.892E-13  0.179E-01  0.179E-01
 -19.780  0.381E-01  0.106E-12  0.191E-01  0.191E-01
 -19.770  0.417E-01  0.129E-12  0.208E-01  0.208E-01
 -19.760  0.463E-01  0.155E-12  0.231E-01  0.231E-01
 -19.750  0.516E-01  0.182E-12  0.258E-01  0.258E-01
 -19.740  0.569E-01  0.205E-12  0.284E-01  0.284E-01
 -19.730  0.616E-01  0.220E-12  0.308E-01  0.308E-01
 -19.720  0.649E-01  0.225E-12  0.324E-01  0.324E-01
 -19.710  0.663E-01  0.221E-12  0.331E-01  0.331E-01
 -19.700  0.655E-01  0.207E-12  0.328E-01  0.328E-01
 -19.690  0.628E-01  0.189E-12  0.314E-01  0.314E-01
 -19.680  0.585E-01  0.170E-12  0.292E-01  0.292E-01
 -19.670  0.533E-01  0.156E-12  0.267E-01  0.267E-01
 -19.660  0.481E-01  0.150E-12  0.241E-01  0.241E-01
 -19.650  0.436E-01  0.155E-12  0.218E-01  0.218E-01
 -19.640  0.401E-01  0.169E-12  0.201E-01  0.201E-01
 -19.630  0.380E-01  0.190E-12  0.190E-01  0.190E-01
 -19.620  0.371E-01  0.213E-12  0.185E-01  0.185E-01
 -19.610  0.372E-01  0.231E-12  0.186E-01  0.186E-01
 -19.600  0.380E-01  0.242E-12  0.190E-01  0.190E-01
 -19.590  0.393E-01  0.242E-12  0.196E-01  0.196E-01
 -19.580  0.410E-01  0.230E-12  0.205E-01  0.205E-01
 -19.570  0.431E-01  0.209E-12  0.216E-01  0.216E-01
 -19.560  0.458E-01  0.181E-12  0.229E-01  0.229E-01
 -19.550  0.492E-01  0.152E-12  0.246E-01  0.246E-01
 -19.540  0.531E-01  0.126E-12  0.266E-01  0.266E-01
 -19.530  0.574E-01  0.106E-12  0.287E-01  0.287E-01
 -19.520  0.617E-01  0.936E-13  0.309E-01  0.309E-01
 -19.510  0.656E-01  0.887E-13  0.328E-01  0.328E-01
 -19.500  0.684E-01  0.900E-13  0.342E-01  0.342E-01
 -19.490  0.699E-01  0.950E-13  0.350E-01  0.350E-01
 -19.480  0.698E-01  0.101E-12  0.349E-01  0.349E-01
 -19.470  0.679E-01  0.106E-12  0.339E-01  0.339E-01
 -19.460  0.644E-01  0.108E-12  0.322E-01  0.322E-01
 -19.450  0.597E-01  0.107E-12  0.298E-01  0.298E-01
 -19.440  0.541E-01  0.103E-12  0.271E-01  0.271E-01
 -19.430  0.484E-01  0.966E-13  0.242E-01  0.242E-01
 -19.420  0.431E-01  0.918E-13  0.215E-01  0.215E-01
 -19.410  0.388E-01  0.922E-13  0.194E-01  0.194E-01
 -19.400  0.360E-01  0.103E-12  0.180E-01  0.180E-01
 -19.390  0.348E-01  0.129E-12  0.174E-01  0.174E-01
 -19.380  0.354E-01  0.178E-12  0.177E-01  0.177E-01
 -19.370  0.374E-01  0.255E-12  0.187E-01  0.187E-01
 -19.360  0.407E-01  0.366E-12  0.203E-01  0.203E-01
 -19.350  0.447E-01  0.513E-12  0.224E-01  0.224E-01
 -19.340  0.492E-01  0.693E-12  0.246E-01  0.246E-01
 -19.330  0.539E-01  0.898E-12  0.270E-01  0.270E-01
 -19.320  0.585E-01  0.111E-11  0.293E-01  0.293E-01
 -19.310  0.628E-01  0.132E-11  0.314E-01  0.314E-01
 -19.300  0.665E-01  0.149E-11  0.333E-01  0.333E-01
 -19.290  0.694E-01  0.162E-11  0.347E-01  0.347E-01
 -19.280  0.713E-01  0.167E-11  0.356E-01  0.356E-01
 -19.270  0.719E-01  0.166E-11  0.359E-01  0.359E-01
 -19.260  0.713E-01  0.159E-11  0.356E-01  0.356E-01
 -19.250  0.697E-01  0.147E-11  0.348E-01  0.348E-01
 -19.240  0.673E-01  0.133E-11  0.336E-01  0.336E-01
 -19.230  0.645E-01  0.118E-11  0.322E-01  0.322E-01
 -19.220  0.615E-01  0.105E-11  0.307E-01  0.307E-01
 -19.210  0.584E-01  0.941E-12  0.292E-01  0.292E-01
 -19.200  0.552E-01  0.851E-12  0.276E-01  0.276E-01
 -19.190  0.518E-01  0.774E-12  0.259E-01  0.259E-01
 -19.180  0.482E-01  0.704E-12  0.241E-01  0.241E-01
 -19.170  0.445E-01  0.636E-12  0.223E-01  0.223E-01
 -19.160  0.410E-01  0.570E-12  0.205E-01  0.205E-01
 -19.150  0.381E-01  0.511E-12  0.190E-01  0.190E-01
 -19.140  0.363E-01  0.468E-12  0.182E-01  0.182E-01
 -19.130  0.362E-01  0.451E-12  0.181E-01  0.181E-01
 -19.120  0.381E-01  0.465E-12  0.190E-01  0.190E-01
 -19.110  0.419E-01  0.511E-12  0.210E-01  0.210E-01
 -19.100  0.475E-01  0.583E-12  0.238E-01  0.238E-01
 -19.090  0.544E-01  0.670E-12  0.272E-01  0.272E-01
 -19.080  0.617E-01  0.755E-12  0.309E-01  0.309E-01
 -19.070  0.689E-01  0.823E-12  0.344E-01  0.344E-01
 -19.060  0.750E-01  0.860E-12  0.375E-01  0.375E-01
 -19.050  0.796E-01  0.859E-12  0.398E-01  0.398E-01
 -19.040  0.821E-01  0.818E-12  0.411E-01  0.411E-01
 -19.030  0.824E-01  0.743E-12  0.412E-01  0.412E-01
 -19.020  0.804E-01  0.645E-12  0.402E-01  0.402E-01
 -19.010  0.766E-01  0.538E-12  0.383E-01  0.383E-01
 -19.000  0.715E-01  0.436E-12  0.358E-01  0.358E-01
 -18.990  0.658E-01  0.351E-12  0.329E-01  0.329E-01
 -18.980  0.603E-01  0.293E-12  0.301E-01  0.301E-01
 -18.970  0.555E-01  0.265E-12  0.278E-01  0.278E-01
 -18.960  0.520E-01  0.267E-12  0.260E-01  0.260E-01
 -18.950  0.500E-01  0.291E-12  0.250E-01  0.250E-01
 -18.940  0.491E-01  0.330E-12  0.245E-01  0.245E-01
 -18.930  0.490E-01  0.374E-12  0.245E-01  0.245E-01
 -18.920  0.490E-01  0.411E-12  0.245E-01  0.245E-01
 -18.910  0.488E-01  0.435E-12  0.244E-01  0.244E-01
 -18.900  0.480E-01  0.440E-12  0.240E-01  0.240E-01
 -18.890  0.465E-01  0.427E-12  0.233E-01  0.233E-01
 -18.880  0.449E-01  0.401E-12  0.225E-01  0.225E-01
 -18.870  0.438E-01  0.368E-12  0.219E-01  0.219E-01
 -18.860  0.438E-01  0.338E-12  0.219E-01  0.219E-01
 -18.850  0.458E-01  0.316E-12  0.229E-01  0.229E-01
 -18.840  0.499E-01  0.309E-12  0.249E-01  0.249E-01
 -18.830  0.561E-01  0.316E-12  0.280E-01  0.280E-01
 -18.820  0.637E-01  0.333E-12  0.319E-01  0.319E-01
 -18.810  0.720E-01  0.356E-12  0.360E-01  0.360E-01
 -18.800  0.797E-01  0.377E-12  0.399E-01  0.399E-01
 -18.790  0.859E-01  0.388E-12  0.429E-01  0.429E-01
 -18.780  0.897E-01  0.387E-12  0.449E-01  0.449E-01
 -18.770  0.908E-01  0.371E-12  0.454E-01  0.454E-01
 -18.760  0.891E-01  0.342E-12  0.446E-01  0.446E-01
 -18.750  0.850E-01  0.304E-12  0.425E-01  0.425E-01
 -18.740  0.791E-01  0.266E-12  0.396E-01  0.396E-01
 -18.730  0.722E-01  0.232E-12  0.361E-01  0.361E-01
 -18.720  0.649E-01  0.208E-12  0.325E-01  0.325E-01
 -18.710  0.579E-01  0.199E-12  0.290E-01  0.290E-01
 -18.700  0.518E-01  0.206E-12  0.259E-01  0.259E-01
 -18.690  0.470E-01  0.227E-12  0.235E-01  0.235E-01
 -18.680  0.438E-01  0.259E-12  0.219E-01  0.219E-01
 -18.670  0.422E-01  0.298E-12  0.211E-01  0.211E-01
 -18.660  0.423E-01  0.338E-12  0.212E-01  0.212E-01
 -18.650  0.438E-01  0.373E-12  0.219E-01  0.219E-01
 -18.640  0.463E-01  0.399E-12  0.231E-01  0.231E-01
 -18.630  0.492E-01  0.412E-12  0.246E-01  0.246E-01
 -18.620  0.521E-01  0.410E-12  0.260E-01  0.260E-01
 -18.610  0.545E-01  0.393E-12  0.272E-01  0.272E-01
 -18.600  0.563E-01  0.365E-12  0.281E-01  0.281E-01
 -18.590  0.577E-01  0.332E-12  0.288E-01  0.288E-01
 -18.580  0.592E-01  0.301E-12  0.296E-01  0.296E-01
 -18.570  0.612E-01  0.278E-12  0.306E-01  0.306E-01
 -18.560  0.642E-01  0.269E-12  0.321E-01  0.321E-01
 -18.550  0.684E-01  0.277E-12  0.342E-01  0.342E-01
 -18.540  0.735E-01  0.301E-12  0.368E-01  0.368E-01
 -18.530  0.790E-01  0.339E-12  0.395E-01  0.395E-01
 -18.520  0.840E-01  0.385E-12  0.420E-01  0.420E-01
 -18.510  0.877E-01  0.434E-12  0.438E-01  0.438E-01
 -18.500  0.895E-01  0.480E-12  0.448E-01  0.448E-01
 -18.490  0.892E-01  0.517E-12  0.446E-01  0.446E-01
 -18.480  0.870E-01  0.543E-12  0.435E-01  0.435E-01
 -18.470  0.831E-01  0.554E-12  0.416E-01  0.416E-01
 -18.460  0.782E-01  0.550E-12  0.391E-01  0.391E-01
 -18.450  0.728E-01  0.531E-12  0.364E-01  0.364E-01
 -18.440  0.672E-01  0.499E-12  0.336E-01  0.336E-01
 -18.430  0.618E-01  0.458E-12  0.309E-01  0.309E-01
 -18.420  0.567E-01  0.413E-12  0.284E-01  0.284E-01
 -18.410  0.520E-01  0.370E-12  0.260E-01  0.260E-01
 -18.400  0.477E-01  0.337E-12  0.239E-01  0.239E-01
 -18.390  0.440E-01  0.320E-12  0.220E-01  0.220E-01
 -18.380  0.412E-01  0.325E-12  0.206E-01  0.206E-01
 -18.370  0.395E-01  0.352E-12  0.198E-01  0.198E-01
 -18.360  0.395E-01  0.401E-12  0.197E-01  0.197E-01
 -18.350  0.413E-01  0.465E-12  0.206E-01  0.206E-01
 -18.340  0.450E-01  0.536E-12  0.225E-01  0.225E-01
 -18.330  0.504E-01  0.602E-12  0.252E-01  0.252E-01
 -18.320  0.570E-01  0.652E-12  0.285E-01  0.285E-01
 -18.310  0.642E-01  0.680E-12  0.321E-01  0.321E-01
 -18.300  0.712E-01  0.682E-12  0.356E-01  0.356E-01
 -18.290  0.774E-01  0.665E-12  0.387E-01  0.387E-01
 -18.280  0.824E-01  0.636E-12  0.412E-01  0.412E-01
 -18.270  0.860E-01  0.610E-12  0.430E-01  0.430E-01
 -18.260  0.881E-01  0.598E-12  0.441E-01  0.441E-01
 -18.250  0.890E-01  0.607E-12  0.445E-01  0.445E-01
 -18.240  0.888E-01  0.640E-12  0.444E-01  0.444E-01
 -18.230  0.877E-01  0.688E-12  0.439E-01  0.439E-01
 -18.220  0.858E-01  0.739E-12  0.429E-01  0.429E-01
 -18.210  0.834E-01  0.778E-12  0.417E-01  0.417E-01
 -18.200  0.804E-01  0.792E-12  0.402E-01  0.402E-01
 -18.190  0.771E-01  0.774E-12  0.386E-01  0.386E-01
 -18.180  0.738E-01  0.721E-12  0.369E-01  0.369E-01
 -18.170  0.707E-01  0.641E-12  0.353E-01  0.353E-01
 -18.160  0.678E-01  0.542E-12  0.339E-01  0.339E-01
 -18.150  0.654E-01  0.437E-12  0.327E-01  0.327E-01
 -18.140  0.633E-01  0.338E-12  0.316E-01  0.316E-01
 -18.130  0.613E-01  0.251E-12  0.307E-01  0.307E-01
 -18.120  0.594E-01  0.181E-12  0.297E-01  0.297E-01
 -18.110  0.572E-01  0.127E-12  0.286E-01  0.286E-01
 -18.100  0.547E-01  0.881E-13  0.274E-01  0.274E-01
 -18.090  0.518E-01  0.603E-13  0.259E-01  0.259E-01
 -18.080  0.487E-01  0.407E-13  0.243E-01  0.243E-01
 -18.070  0.457E-01  0.270E-13  0.228E-01  0.228E-01
 -18.060  0.433E-01  0.177E-13  0.217E-01  0.217E-01
 -18.050  0.423E-01  0.125E-13  0.211E-01  0.211E-01
 -18.040  0.434E-01  0.111E-13  0.217E-01  0.217E-01
 -18.030  0.471E-01  0.136E-13  0.235E-01  0.235E-01
 -18.020  0.536E-01  0.199E-13  0.268E-01  0.268E-01
 -18.010  0.628E-01  0.292E-13  0.314E-01  0.314E-01
 -18.000  0.737E-01  0.405E-13  0.369E-01  0.369E-01
 -17.990  0.852E-01  0.523E-13  0.426E-01  0.426E-01
 -17.980  0.956E-01  0.633E-13  0.478E-01  0.478E-01
 -17.970  0.104E+00  0.723E-13  0.518E-01  0.518E-01
 -17.960  0.108E+00  0.786E-13  0.541E-01  0.541E-01
 -17.950  0.109E+00  0.825E-13  0.544E-01  0.544E-01
 -17.940  0.106E+00  0.848E-13  0.529E-01  0.529E-01
 -17.930  0.997E-01  0.866E-13  0.498E-01  0.498E-01
 -17.920  0.919E-01  0.896E-13  0.459E-01  0.459E-01
 -17.910  0.835E-01  0.950E-13  0.418E-01  0.418E-01
 -17.900  0.757E-01  0.104E-12  0.379E-01  0.379E-01
 -17.890  0.691E-01  0.116E-12  0.346E-01  0.346E-01
 -17.880  0.641E-01  0.132E-12  0.321E-01  0.321E-01
 -17.870  0.607E-01  0.149E-12  0.304E-01  0.304E-01
 -17.860  0.587E-01  0.167E-12  0.293E-01  0.293E-01
 -17.850  0.577E-01  0.181E-12  0.288E-01  0.288E-01
 -17.840  0.574E-01  0.191E-12  0.287E-01  0.287E-01
 -17.830  0.576E-01  0.194E-12  0.288E-01  0.288E-01
 -17.820  0.581E-01  0.189E-12  0.291E-01  0.291E-01
 -17.810  0.586E-01  0.175E-12  0.293E-01  0.293E-01
 -17.800  0.590E-01  0.155E-12  0.295E-01  0.295E-01
 -17.790  0.592E-01  0.129E-12  0.296E-01  0.296E-01
 -17.780  0.591E-01  0.102E-12  0.295E-01  0.295E-01
 -17.770  0.585E-01  0.748E-13  0.293E-01  0.293E-01
 -17.760  0.576E-01  0.513E-13  0.288E-01  0.288E-01
 -17.750  0.565E-01  0.330E-13  0.283E-01  0.283E-01
 -17.740  0.556E-01  0.205E-13  0.278E-01  0.278E-01
 -17.730  0.554E-01  0.141E-13  0.277E-01  0.277E-01
 -17.720  0.565E-01  0.130E-13  0.282E-01  0.282E-01
 -17.710  0.595E-01  0.163E-13  0.298E-01  0.298E-01
 -17.700  0.649E-01  0.231E-13  0.324E-01  0.324E-01
 -17.690  0.726E-01  0.322E-13  0.363E-01  0.363E-01
 -17.680  0.822E-01  0.429E-13  0.411E-01  0.411E-01
 -17.670  0.926E-01  0.540E-13  0.463E-01  0.463E-01
 -17.660  0.102E+00  0.645E-13  0.512E-01  0.512E-01
 -17.650  0.110E+00  0.734E-13  0.551E-01  0.551E-01
 -17.640  0.115E+00  0.795E-13  0.573E-01  0.573E-01
 -17.630  0.115E+00  0.820E-13  0.575E-01  0.575E-01
 -17.620  0.111E+00  0.806E-13  0.557E-01  0.557E-01
 -17.610  0.104E+00  0.753E-13  0.521E-01  0.521E-01
 -17.600  0.948E-01  0.667E-13  0.474E-01  0.474E-01
 -17.590  0.845E-01  0.557E-13  0.422E-01  0.422E-01
 -17.580  0.745E-01  0.437E-13  0.373E-01  0.373E-01
 -17.570  0.660E-01  0.320E-13  0.330E-01  0.330E-01
 -17.560  0.595E-01  0.218E-13  0.297E-01  0.297E-01
 -17.550  0.551E-01  0.140E-13  0.275E-01  0.275E-01
 -17.540  0.526E-01  0.916E-14  0.263E-01  0.263E-01
 -17.530  0.515E-01  0.738E-14  0.257E-01  0.257E-01
 -17.520  0.514E-01  0.850E-14  0.257E-01  0.257E-01
 -17.510  0.519E-01  0.122E-13  0.259E-01  0.259E-01
 -17.500  0.526E-01  0.180E-13  0.263E-01  0.263E-01
 -17.490  0.537E-01  0.256E-13  0.268E-01  0.268E-01
 -17.480  0.549E-01  0.348E-13  0.275E-01  0.275E-01
 -17.470  0.565E-01  0.452E-13  0.283E-01  0.283E-01
 -17.460  0.585E-01  0.567E-13  0.293E-01  0.293E-01
 -17.450  0.610E-01  0.693E-13  0.305E-01  0.305E-01
 -17.440  0.640E-01  0.825E-13  0.320E-01  0.320E-01
 -17.430  0.674E-01  0.961E-13  0.337E-01  0.337E-01
 -17.420  0.710E-01  0.110E-12  0.355E-01  0.355E-01
 -17.410  0.747E-01  0.124E-12  0.374E-01  0.374E-01
 -17.400  0.783E-01  0.138E-12  0.392E-01  0.392E-01
 -17.390  0.817E-01  0.155E-12  0.409E-01  0.409E-01
 -17.380  0.849E-01  0.175E-12  0.424E-01  0.424E-01
 -17.370  0.878E-01  0.201E-12  0.439E-01  0.439E-01
 -17.360  0.905E-01  0.237E-12  0.453E-01  0.453E-01
 -17.350  0.933E-01  0.284E-12  0.466E-01  0.466E-01
 -17.340  0.959E-01  0.344E-12  0.480E-01  0.480E-01
 -17.330  0.984E-01  0.415E-12  0.492E-01  0.492E-01
 -17.320  0.100E+00  0.493E-12  0.502E-01  0.502E-01
 -17.310  0.102E+00  0.570E-12  0.508E-01  0.508E-01
 -17.300  0.102E+00  0.637E-12  0.508E-01  0.508E-01
 -17.290  0.100E+00  0.682E-12  0.501E-01  0.501E-01
 -17.280  0.971E-01  0.698E-12  0.485E-01  0.485E-01
 -17.270  0.923E-01  0.679E-12  0.462E-01  0.462E-01
 -17.260  0.863E-01  0.626E-12  0.432E-01  0.432E-01
 -17.250  0.794E-01  0.544E-12  0.397E-01  0.397E-01
 -17.240  0.724E-01  0.444E-12  0.362E-01  0.362E-01
 -17.230  0.657E-01  0.338E-12  0.329E-01  0.329E-01
 -17.220  0.600E-01  0.238E-12  0.300E-01  0.300E-01
 -17.210  0.555E-01  0.154E-12  0.277E-01  0.277E-01
 -17.200  0.524E-01  0.921E-13  0.262E-01  0.262E-01
 -17.190  0.505E-01  0.532E-13  0.253E-01  0.253E-01
 -17.180  0.497E-01  0.351E-13  0.249E-01  0.249E-01
 -17.170  0.497E-01  0.333E-13  0.248E-01  0.248E-01
 -17.160  0.502E-01  0.427E-13  0.251E-01  0.251E-01
 -17.150  0.512E-01  0.591E-13  0.256E-01  0.256E-01
 -17.140  0.527E-01  0.801E-13  0.264E-01  0.264E-01
 -17.130  0.551E-01  0.105E-12  0.275E-01  0.275E-01
 -17.120  0.585E-01  0.135E-12  0.292E-01  0.292E-01
 -17.110  0.633E-01  0.171E-12  0.317E-01  0.317E-01
 -17.100  0.697E-01  0.214E-12  0.349E-01  0.349E-01
 -17.090  0.776E-01  0.263E-12  0.388E-01  0.388E-01
 -17.080  0.864E-01  0.315E-12  0.432E-01  0.432E-01
 -17.070  0.955E-01  0.363E-12  0.477E-01  0.477E-01
 -17.060  0.104E+00  0.404E-12  0.519E-01  0.519E-01
 -17.050  0.110E+00  0.429E-12  0.550E-01  0.550E-01
 -17.040  0.114E+00  0.435E-12  0.569E-01  0.569E-01
 -17.030  0.114E+00  0.423E-12  0.570E-01  0.570E-01
 -17.020  0.111E+00  0.394E-12  0.557E-01  0.557E-01
 -17.010  0.106E+00  0.356E-12  0.530E-01  0.530E-01
 -17.000  0.994E-01  0.320E-12  0.497E-01  0.497E-01
 -16.990  0.925E-01  0.296E-12  0.462E-01  0.462E-01
 -16.980  0.866E-01  0.293E-12  0.433E-01  0.433E-01
 -16.970  0.825E-01  0.320E-12  0.412E-01  0.412E-01
 -16.960  0.804E-01  0.379E-12  0.402E-01  0.402E-01
 -16.950  0.800E-01  0.472E-12  0.400E-01  0.400E-01
 -16.940  0.807E-01  0.595E-12  0.403E-01  0.403E-01
 -16.930  0.815E-01  0.741E-12  0.408E-01  0.408E-01
 -16.920  0.817E-01  0.901E-12  0.408E-01  0.408E-01
 -16.910  0.806E-01  0.106E-11  0.403E-01  0.403E-01
 -16.900  0.781E-01  0.120E-11  0.390E-01  0.390E-01
 -16.890  0.742E-01  0.131E-11  0.371E-01  0.371E-01
 -16.880  0.694E-01  0.136E-11  0.347E-01  0.347E-01
 -16.870  0.643E-01  0.134E-11  0.321E-01  0.321E-01
 -16.860  0.595E-01  0.126E-11  0.297E-01  0.297E-01
 -16.850  0.555E-01  0.111E-11  0.277E-01  0.277E-01
 -16.840  0.526E-01  0.909E-12  0.263E-01  0.263E-01
 -16.830  0.511E-01  0.683E-12  0.256E-01  0.256E-01
 -16.820  0.509E-01  0.459E-12  0.254E-01  0.254E-01
 -16.810  0.518E-01  0.262E-12  0.259E-01  0.259E-01
 -16.800  0.539E-01  0.111E-12  0.269E-01  0.269E-01
 -16.790  0.571E-01  0.194E-13  0.285E-01  0.285E-01
 -16.780  0.615E-01 -0.997E-14  0.307E-01  0.307E-01
 -16.770  0.673E-01  0.204E-13  0.337E-01  0.337E-01
 -16.760  0.748E-01  0.103E-12  0.374E-01  0.374E-01
 -16.750  0.840E-01  0.229E-12  0.420E-01  0.420E-01
 -16.740  0.945E-01  0.386E-12  0.472E-01  0.472E-01
 -16.730  0.105E+00  0.563E-12  0.527E-01  0.527E-01
 -16.720  0.116E+00  0.744E-12  0.579E-01  0.579E-01
 -16.710  0.124E+00  0.915E-12  0.621E-01  0.621E-01
 -16.700  0.129E+00  0.106E-11  0.647E-01  0.647E-01
 -16.690  0.130E+00  0.117E-11  0.652E-01  0.652E-01
 -16.680  0.127E+00  0.123E-11  0.635E-01  0.635E-01
 -16.670  0.119E+00  0.125E-11  0.597E-01  0.597E-01
 -16.660  0.109E+00  0.124E-11  0.545E-01  0.545E-01
 -16.650  0.973E-01  0.121E-11  0.487E-01  0.487E-01
 -16.640  0.861E-01  0.121E-11  0.430E-01  0.430E-01
 -16.630  0.769E-01  0.124E-11  0.384E-01  0.384E-01
 -16.620  0.707E-01  0.132E-11  0.354E-01  0.354E-01
 -16.610  0.680E-01  0.145E-11  0.340E-01  0.340E-01
 -16.600  0.682E-01  0.162E-11  0.341E-01  0.341E-01
 -16.590  0.706E-01  0.180E-11  0.353E-01  0.353E-01
 -16.580  0.740E-01  0.196E-11  0.370E-01  0.370E-01
 -16.570  0.771E-01  0.207E-11  0.385E-01  0.385E-01
 -16.560  0.789E-01  0.211E-11  0.395E-01  0.395E-01
 -16.550  0.790E-01  0.210E-11  0.395E-01  0.395E-01
 -16.540  0.771E-01  0.203E-11  0.386E-01  0.386E-01
 -16.530  0.737E-01  0.196E-11  0.369E-01  0.369E-01
 -16.520  0.693E-01  0.190E-11  0.346E-01  0.346E-01
 -16.510  0.645E-01  0.189E-11  0.323E-01  0.323E-01
 -16.500  0.602E-01  0.193E-11  0.301E-01  0.301E-01
 -16.490  0.571E-01  0.202E-11  0.285E-01  0.285E-01
 -16.480  0.555E-01  0.212E-11  0.278E-01  0.278E-01
 -16.470  0.558E-01  0.219E-11  0.279E-01  0.279E-01
 -16.460  0.581E-01  0.220E-11  0.291E-01  0.291E-01
 -16.450  0.624E-01  0.211E-11  0.312E-01  0.312E-01
 -16.440  0.684E-01  0.192E-11  0.342E-01  0.342E-01
 -16.430  0.761E-01  0.163E-11  0.380E-01  0.380E-01
 -16.420  0.851E-01  0.129E-11  0.425E-01  0.425E-01
 -16.410  0.950E-01  0.935E-12  0.475E-01  0.475E-01
 -16.400  0.105E+00  0.612E-12  0.527E-01  0.527E-01
 -16.390  0.115E+00  0.356E-12  0.577E-01  0.577E-01
 -16.380  0.124E+00  0.184E-12  0.621E-01  0.621E-01
 -16.370  0.131E+00  0.962E-13  0.655E-01  0.655E-01
 -16.360  0.135E+00  0.779E-13  0.674E-01  0.674E-01
 -16.350  0.135E+00  0.105E-12  0.675E-01  0.675E-01
 -16.340  0.132E+00  0.153E-12  0.658E-01  0.658E-01
 -16.330  0.125E+00  0.199E-12  0.625E-01  0.625E-01
 -16.320  0.116E+00  0.229E-12  0.580E-01  0.580E-01
 -16.310  0.106E+00  0.239E-12  0.529E-01  0.529E-01
 -16.300  0.961E-01  0.230E-12  0.481E-01  0.481E-01
 -16.290  0.881E-01  0.210E-12  0.440E-01  0.440E-01
 -16.280  0.826E-01  0.186E-12  0.413E-01  0.413E-01
 -16.270  0.800E-01  0.166E-12  0.400E-01  0.400E-01
 -16.260  0.798E-01  0.154E-12  0.399E-01  0.399E-01
 -16.250  0.813E-01  0.151E-12  0.407E-01  0.407E-01
 -16.240  0.834E-01  0.154E-12  0.417E-01  0.417E-01
 -16.230  0.849E-01  0.162E-12  0.425E-01  0.425E-01
 -16.220  0.853E-01  0.170E-12  0.427E-01  0.427E-01
 -16.210  0.843E-01  0.179E-12  0.422E-01  0.422E-01
 -16.200  0.823E-01  0.188E-12  0.411E-01  0.411E-01
 -16.190  0.798E-01  0.204E-12  0.399E-01  0.399E-01
 -16.180  0.778E-01  0.229E-12  0.389E-01  0.389E-01
 -16.170  0.769E-01  0.271E-12  0.384E-01  0.384E-01
 -16.160  0.774E-01  0.332E-12  0.387E-01  0.387E-01
 -16.150  0.795E-01  0.414E-12  0.398E-01  0.398E-01
 -16.140  0.829E-01  0.517E-12  0.414E-01  0.414E-01
 -16.130  0.871E-01  0.638E-12  0.435E-01  0.435E-01
 -16.120  0.919E-01  0.772E-12  0.459E-01  0.459E-01
 -16.110  0.970E-01  0.915E-12  0.485E-01  0.485E-01
 -16.100  0.102E+00  0.107E-11  0.511E-01  0.511E-01
 -16.090  0.108E+00  0.122E-11  0.539E-01  0.539E-01
 -16.080  0.114E+00  0.138E-11  0.568E-01  0.568E-01
 -16.070  0.120E+00  0.154E-11  0.598E-01  0.598E-01
 -16.060  0.125E+00  0.169E-11  0.626E-01  0.626E-01
 -16.050  0.130E+00  0.184E-11  0.652E-01  0.652E-01
 -16.040  0.134E+00  0.195E-11  0.672E-01  0.672E-01
 -16.030  0.136E+00  0.202E-11  0.682E-01  0.682E-01
 -16.020  0.136E+00  0.202E-11  0.681E-01  0.681E-01
 -16.010  0.133E+00  0.194E-11  0.667E-01  0.667E-01
 -16.000  0.128E+00  0.178E-11  0.638E-01  0.638E-01
 -15.990  0.119E+00  0.154E-11  0.596E-01  0.596E-01
 -15.980  0.109E+00  0.126E-11  0.545E-01  0.545E-01
 -15.970  0.976E-01  0.951E-12  0.488E-01  0.488E-01
 -15.960  0.860E-01  0.658E-12  0.430E-01  0.430E-01
 -15.950  0.754E-01  0.406E-12  0.377E-01  0.377E-01
 -15.940  0.665E-01  0.213E-12  0.333E-01  0.333E-01
 -15.930  0.601E-01  0.871E-13  0.301E-01  0.301E-01
 -15.920  0.563E-01  0.229E-13  0.282E-01  0.282E-01
 -15.910  0.550E-01  0.757E-14  0.275E-01  0.275E-01
 -15.900  0.556E-01  0.235E-13  0.278E-01  0.278E-01
 -15.890  0.574E-01  0.529E-13  0.287E-01  0.287E-01
 -15.880  0.594E-01  0.815E-13  0.297E-01  0.297E-01
 -15.870  0.606E-01  0.997E-13  0.303E-01  0.303E-01
 -15.860  0.602E-01  0.104E-12  0.301E-01  0.301E-01
 -15.850  0.577E-01  0.949E-13  0.289E-01  0.289E-01
 -15.840  0.530E-01  0.764E-13  0.265E-01  0.265E-01
 -15.830  0.464E-01  0.532E-13  0.232E-01  0.232E-01
 -15.820  0.385E-01  0.300E-13  0.192E-01  0.192E-01
 -15.810  0.303E-01  0.102E-13  0.151E-01  0.151E-01
 -15.800  0.230E-01 -0.443E-14  0.115E-01  0.115E-01
 -15.790  0.178E-01 -0.133E-13  0.889E-02  0.889E-02
 -15.780  0.157E-01 -0.169E-13  0.784E-02  0.784E-02
 -15.770  0.174E-01 -0.163E-13  0.869E-02  0.869E-02
 -15.760  0.233E-01 -0.126E-13  0.116E-01  0.116E-01
 -15.750  0.332E-01 -0.686E-14  0.166E-01  0.166E-01
 -15.740  0.468E-01  0.189E-16  0.234E-01  0.234E-01
 -15.730  0.629E-01  0.739E-14  0.315E-01  0.315E-01
 -15.720  0.804E-01  0.147E-13  0.402E-01  0.402E-01
 -15.710  0.977E-01  0.216E-13  0.489E-01  0.489E-01
 -15.700  0.113E+00  0.278E-13  0.566E-01  0.566E-01
 -15.690  0.125E+00  0.328E-13  0.626E-01  0.626E-01
 -15.680  0.133E+00  0.366E-13  0.664E-01  0.664E-01
 -15.670  0.135E+00  0.388E-13  0.674E-01  0.674E-01
 -15.660  0.131E+00  0.393E-13  0.656E-01  0.656E-01
 -15.650  0.122E+00  0.382E-13  0.610E-01  0.610E-01
 -15.640  0.108E+00  0.354E-13  0.541E-01  0.541E-01
 -15.630  0.908E-01  0.312E-13  0.454E-01  0.454E-01
 -15.620  0.716E-01  0.260E-13  0.358E-01  0.358E-01
 -15.610  0.521E-01  0.202E-13  0.260E-01  0.260E-01
 -15.600  0.338E-01  0.145E-13  0.169E-01  0.169E-01
 -15.590  0.180E-01  0.930E-14  0.901E-02  0.901E-02
 -15.580  0.569E-02  0.520E-14  0.284E-02  0.284E-02
 -15.570 -0.279E-02  0.250E-14 -0.140E-02 -0.140E-02
 -15.560 -0.749E-02  0.136E-14 -0.375E-02 -0.375E-02
 -15.550 -0.887E-02  0.172E-14 -0.443E-02 -0.443E-02
 -15.540 -0.763E-02  0.335E-14 -0.381E-02 -0.381E-02
 -15.530 -0.459E-02  0.590E-14 -0.230E-02 -0.230E-02
 -15.520 -0.536E-03  0.895E-14 -0.268E-03 -0.268E-03
 -15.510  0.391E-02  0.121E-13  0.196E-02  0.196E-02
 -15.500  0.835E-02  0.149E-13  0.417E-02  0.417E-02
 -15.490  0.126E-01  0.172E-13  0.632E-02  0.632E-02
 -15.480  0.169E-01  0.188E-13  0.846E-02  0.846E-02
 -15.470  0.216E-01  0.200E-13  0.108E-01  0.108E-01
 -15.460  0.271E-01  0.211E-13  0.135E-01  0.135E-01
 -15.450  0.340E-01  0.223E-13  0.170E-01  0.170E-01
 -15.440  0.427E-01  0.243E-13  0.214E-01  0.214E-01
 -15.430  0.534E-01  0.274E-13  0.267E-01  0.267E-01
 -15.420  0.658E-01  0.315E-13  0.329E-01  0.329E-01
 -15.410  0.789E-01  0.365E-13  0.394E-01  0.394E-01
 -15.400  0.914E-01  0.419E-13  0.457E-01  0.457E-01
 -15.390  0.102E+00  0.468E-13  0.509E-01  0.509E-01
 -15.380  0.108E+00  0.504E-13  0.542E-01  0.542E-01
 -15.370  0.110E+00  0.518E-13  0.548E-01  0.548E-01
 -15.360  0.105E+00  0.505E-13  0.526E-01  0.526E-01
 -15.350  0.949E-01  0.465E-13  0.475E-01  0.475E-01
 -15.340  0.800E-01  0.400E-13  0.400E-01  0.400E-01
 -15.330  0.623E-01  0.319E-13  0.311E-01  0.311E-01
 -15.320  0.437E-01  0.231E-13  0.219E-01  0.219E-01
 -15.310  0.265E-01  0.146E-13  0.133E-01  0.133E-01
 -15.300  0.123E-01  0.746E-14  0.617E-02  0.617E-02
 -15.290  0.213E-02  0.212E-14  0.106E-02  0.106E-02
 -15.280 -0.382E-02 -0.116E-14 -0.191E-02 -0.191E-02
 -15.270 -0.591E-02 -0.252E-14 -0.296E-02 -0.296E-02
 -15.260 -0.503E-02 -0.234E-14 -0.251E-02 -0.251E-02
 -15.250 -0.224E-02 -0.115E-14 -0.112E-02 -0.112E-02
 -15.240  0.140E-02  0.520E-15  0.699E-03  0.699E-03
 -15.230  0.503E-02  0.222E-14  0.251E-02  0.251E-02
 -15.220  0.811E-02  0.364E-14  0.405E-02  0.405E-02
 -15.210  0.104E-01  0.462E-14  0.521E-02  0.521E-02
 -15.200  0.121E-01  0.518E-14  0.603E-02  0.603E-02
 -15.190  0.133E-01  0.545E-14  0.667E-02  0.667E-02
 -15.180  0.147E-01  0.563E-14  0.737E-02  0.737E-02
 -15.170  0.168E-01  0.595E-14  0.838E-02  0.838E-02
 -15.160  0.198E-01  0.662E-14  0.990E-02  0.990E-02
 -15.150  0.241E-01  0.778E-14  0.121E-01  0.121E-01
 -15.140  0.298E-01  0.950E-14  0.149E-01  0.149E-01
 -15.130  0.367E-01  0.117E-13  0.184E-01  0.184E-01
 -15.120  0.447E-01  0.144E-13  0.224E-01  0.224E-01
 -15.110  0.534E-01  0.172E-13  0.267E-01  0.267E-01
 -15.100  0.625E-01  0.200E-13  0.312E-01  0.312E-01
 -15.090  0.716E-01  0.225E-13  0.358E-01  0.358E-01
 -15.080  0.802E-01  0.245E-13  0.401E-01  0.401E-01
 -15.070  0.882E-01  0.259E-13  0.441E-01  0.441E-01
 -15.060  0.951E-01  0.265E-13  0.475E-01  0.475E-01
 -15.050  0.101E+00  0.265E-13  0.503E-01  0.503E-01
 -15.040  0.104E+00  0.259E-13  0.522E-01  0.522E-01
 -15.030  0.107E+00  0.252E-13  0.533E-01  0.533E-01
 -15.020  0.107E+00  0.246E-13  0.537E-01  0.537E-01
 -15.010  0.107E+00  0.247E-13  0.535E-01  0.535E-01
 -15.000  0.106E+00  0.256E-13  0.528E-01  0.528E-01
 -14.990  0.104E+00  0.274E-13  0.519E-01  0.519E-01
 -14.980  0.102E+00  0.300E-13  0.509E-01  0.509E-01
 -14.970  0.100E+00  0.331E-13  0.500E-01  0.500E-01
 -14.960  0.981E-01  0.362E-13  0.491E-01  0.491E-01
 -14.950  0.964E-01  0.386E-13  0.482E-01  0.482E-01
 -14.940  0.950E-01  0.401E-13  0.475E-01  0.475E-01
 -14.930  0.940E-01  0.402E-13  0.470E-01  0.470E-01
 -14.920  0.939E-01  0.392E-13  0.469E-01  0.469E-01
 -14.910  0.950E-01  0.374E-13  0.475E-01  0.475E-01
 -14.900  0.979E-01  0.355E-13  0.490E-01  0.490E-01
 -14.890  0.103E+00  0.339E-13  0.513E-01  0.513E-01
 -14.880  0.109E+00  0.335E-13  0.543E-01  0.543E-01
 -14.870  0.115E+00  0.346E-13  0.577E-01  0.577E-01
 -14.860  0.122E+00  0.376E-13  0.609E-01  0.609E-01
 -14.850  0.127E+00  0.423E-13  0.634E-01  0.634E-01
 -14.840  0.130E+00  0.487E-13  0.648E-01  0.648E-01
 -14.830  0.130E+00  0.562E-13  0.648E-01  0.648E-01
 -14.820  0.127E+00  0.646E-13  0.635E-01  0.635E-01
 -14.810  0.122E+00  0.731E-13  0.612E-01  0.612E-01
 -14.800  0.117E+00  0.815E-13  0.586E-01  0.586E-01
 -14.790  0.112E+00  0.896E-13  0.560E-01  0.560E-01
 -14.780  0.108E+00  0.979E-13  0.540E-01  0.540E-01
 -14.770  0.106E+00  0.108E-12  0.530E-01  0.530E-01
 -14.760  0.106E+00  0.122E-12  0.532E-01  0.532E-01
 -14.750  0.109E+00  0.144E-12  0.546E-01  0.546E-01
 -14.740  0.114E+00  0.177E-12  0.572E-01  0.572E-01
 -14.730  0.121E+00  0.224E-12  0.607E-01  0.607E-01
 -14.720  0.129E+00  0.289E-12  0.645E-01  0.645E-01
 -14.710  0.136E+00  0.369E-12  0.682E-01  0.682E-01
 -14.700  0.142E+00  0.460E-12  0.710E-01  0.710E-01
 -14.690  0.144E+00  0.553E-12  0.722E-01  0.722E-01
 -14.680  0.143E+00  0.638E-12  0.714E-01  0.714E-01
 -14.670  0.136E+00  0.700E-12  0.682E-01  0.682E-01
 -14.660  0.126E+00  0.730E-12  0.629E-01  0.629E-01
 -14.650  0.112E+00  0.719E-12  0.560E-01  0.560E-01
 -14.640  0.967E-01  0.668E-12  0.484E-01  0.484E-01
 -14.630  0.824E-01  0.581E-12  0.412E-01  0.412E-01
 -14.620  0.712E-01  0.472E-12  0.356E-01  0.356E-01
 -14.610  0.651E-01  0.355E-12  0.326E-01  0.326E-01
 -14.600  0.653E-01  0.249E-12  0.327E-01  0.327E-01
 -14.590  0.720E-01  0.168E-12  0.360E-01  0.360E-01
 -14.580  0.845E-01  0.121E-12  0.422E-01  0.422E-01
 -14.570  0.101E+00  0.111E-12  0.505E-01  0.505E-01
 -14.560  0.119E+00  0.137E-12  0.596E-01  0.596E-01
 -14.550  0.137E+00  0.192E-12  0.683E-01  0.683E-01
 -14.540  0.151E+00  0.265E-12  0.757E-01  0.757E-01
 -14.530  0.161E+00  0.344E-12  0.807E-01  0.807E-01
 -14.520  0.166E+00  0.419E-12  0.829E-01  0.829E-01
 -14.510  0.165E+00  0.480E-12  0.823E-01  0.823E-01
 -14.500  0.158E+00  0.522E-12  0.792E-01  0.792E-01
 -14.490  0.148E+00  0.541E-12  0.742E-01  0.742E-01
 -14.480  0.136E+00  0.539E-12  0.681E-01  0.681E-01
 -14.470  0.123E+00  0.519E-12  0.617E-01  0.617E-01
 -14.460  0.111E+00  0.487E-12  0.556E-01  0.556E-01
 -14.450  0.101E+00  0.448E-12  0.504E-01  0.504E-01
 -14.440  0.925E-01  0.405E-12  0.462E-01  0.462E-01
 -14.430  0.865E-01  0.361E-12  0.433E-01  0.433E-01
 -14.420  0.829E-01  0.316E-12  0.415E-01  0.415E-01
 -14.410  0.818E-01  0.271E-12  0.409E-01  0.409E-01
 -14.400  0.834E-01  0.226E-12  0.417E-01  0.417E-01
 -14.390  0.880E-01  0.183E-12  0.440E-01  0.440E-01
 -14.380  0.961E-01  0.144E-12  0.480E-01  0.480E-01
 -14.370  0.108E+00  0.115E-12  0.538E-01  0.538E-01
 -14.360  0.122E+00  0.972E-13  0.611E-01  0.611E-01
 -14.350  0.139E+00  0.948E-13  0.694E-01  0.694E-01
 -14.340  0.156E+00  0.108E-12  0.778E-01  0.778E-01
 -14.330  0.171E+00  0.135E-12  0.854E-01  0.854E-01
 -14.320  0.182E+00  0.173E-12  0.911E-01  0.911E-01
 -14.310  0.188E+00  0.216E-12  0.941E-01  0.941E-01
 -14.300  0.188E+00  0.259E-12  0.942E-01  0.942E-01
 -14.290  0.183E+00  0.297E-12  0.913E-01  0.913E-01
 -14.280  0.172E+00  0.328E-12  0.860E-01  0.860E-01
 -14.270  0.158E+00  0.351E-12  0.792E-01  0.792E-01
 -14.260  0.144E+00  0.368E-12  0.721E-01  0.721E-01
 -14.250  0.132E+00  0.384E-12  0.660E-01  0.660E-01
 -14.240  0.124E+00  0.403E-12  0.619E-01  0.619E-01
 -14.230  0.121E+00  0.431E-12  0.606E-01  0.606E-01
 -14.220  0.125E+00  0.470E-12  0.625E-01  0.625E-01
 -14.210  0.135E+00  0.521E-12  0.674E-01  0.674E-01
 -14.200  0.149E+00  0.579E-12  0.744E-01  0.744E-01
 -14.190  0.164E+00  0.634E-12  0.822E-01  0.822E-01
 -14.180  0.179E+00  0.675E-12  0.894E-01  0.894E-01
 -14.170  0.189E+00  0.692E-12  0.945E-01  0.945E-01
 -14.160  0.193E+00  0.675E-12  0.965E-01  0.965E-01
 -14.150  0.191E+00  0.624E-12  0.953E-01  0.953E-01
 -14.140  0.182E+00  0.541E-12  0.912E-01  0.912E-01
 -14.130  0.170E+00  0.437E-12  0.852E-01  0.852E-01
 -14.120  0.158E+00  0.325E-12  0.788E-01  0.788E-01
 -14.110  0.147E+00  0.218E-12  0.733E-01  0.733E-01
 -14.100  0.140E+00  0.128E-12  0.698E-01  0.698E-01
 -14.090  0.137E+00  0.615E-13  0.685E-01  0.685E-01
 -14.080  0.139E+00  0.194E-13  0.694E-01  0.694E-01
 -14.070  0.143E+00 -0.963E-15  0.717E-01  0.717E-01
 -14.060  0.149E+00 -0.537E-14  0.744E-01  0.744E-01
 -14.050  0.153E+00 -0.178E-15  0.766E-01  0.766E-01
 -14.040  0.155E+00  0.903E-14  0.774E-01  0.774E-01
 -14.030  0.153E+00  0.184E-13  0.765E-01  0.765E-01
 -14.020  0.148E+00  0.260E-13  0.740E-01  0.740E-01
 -14.010  0.140E+00  0.316E-13  0.702E-01  0.702E-01
 -14.000  0.132E+00  0.357E-13  0.658E-01  0.658E-01
 -13.990  0.123E+00  0.393E-13  0.614E-01  0.614E-01
 -13.980  0.115E+00  0.435E-13  0.577E-01  0.577E-01
 -13.970  0.110E+00  0.487E-13  0.551E-01  0.551E-01
 -13.960  0.108E+00  0.551E-13  0.540E-01  0.540E-01
 -13.950  0.109E+00  0.625E-13  0.544E-01  0.544E-01
 -13.940  0.112E+00  0.703E-13  0.562E-01  0.562E-01
 -13.930  0.118E+00  0.781E-13  0.588E-01  0.588E-01
 -13.920  0.124E+00  0.853E-13  0.618E-01  0.618E-01
 -13.910  0.130E+00  0.915E-13  0.648E-01  0.648E-01
 -13.900  0.134E+00  0.968E-13  0.672E-01  0.672E-01
 -13.890  0.138E+00  0.101E-12  0.688E-01  0.688E-01
 -13.880  0.139E+00  0.105E-12  0.695E-01  0.695E-01
 -13.870  0.138E+00  0.108E-12  0.692E-01  0.692E-01
 -13.860  0.136E+00  0.112E-12  0.682E-01  0.682E-01
 -13.850  0.133E+00  0.115E-12  0.666E-01  0.666E-01
 -13.840  0.129E+00  0.119E-12  0.647E-01  0.647E-01
 -13.830  0.126E+00  0.122E-12  0.629E-01  0.629E-01
 -13.820  0.123E+00  0.123E-12  0.614E-01  0.614E-01
 -13.810  0.121E+00  0.122E-12  0.604E-01  0.604E-01
 -13.800  0.120E+00  0.120E-12  0.601E-01  0.601E-01
 -13.790  0.121E+00  0.115E-12  0.606E-01  0.606E-01
 -13.780  0.123E+00  0.109E-12  0.617E-01  0.617E-01
 -13.770  0.127E+00  0.102E-12  0.633E-01  0.633E-01
 -13.760  0.129E+00  0.957E-13  0.647E-01  0.647E-01
 -13.750  0.131E+00  0.892E-13  0.655E-01  0.655E-01
 -13.740  0.130E+00  0.833E-13  0.651E-01  0.651E-01
 -13.730  0.126E+00  0.775E-13  0.631E-01  0.631E-01
 -13.720  0.119E+00  0.718E-13  0.595E-01  0.595E-01
 -13.710  0.110E+00  0.662E-13  0.548E-01  0.548E-01
 -13.700  0.994E-01  0.612E-13  0.497E-01  0.497E-01
 -13.690  0.905E-01  0.577E-13  0.453E-01  0.453E-01
 -13.680  0.851E-01  0.568E-13  0.426E-01  0.426E-01
 -13.670  0.848E-01  0.597E-13  0.424E-01  0.424E-01
 -13.660  0.905E-01  0.667E-13  0.452E-01  0.452E-01
 -13.650  0.102E+00  0.775E-13  0.508E-01  0.508E-01
 -13.640  0.117E+00  0.907E-13  0.584E-01  0.584E-01
 -13.630  0.133E+00  0.104E-12  0.667E-01  0.667E-01
 -13.620  0.148E+00  0.116E-12  0.741E-01  0.741E-01
 -13.610  0.158E+00  0.123E-12  0.792E-01  0.792E-01
 -13.600  0.162E+00  0.123E-12  0.810E-01  0.810E-01
 -13.590  0.158E+00  0.118E-12  0.789E-01  0.789E-01
 -13.580  0.147E+00  0.107E-12  0.734E-01  0.734E-01
 -13.570  0.131E+00  0.916E-13  0.654E-01  0.654E-01
 -13.560  0.113E+00  0.756E-13  0.563E-01  0.563E-01
 -13.550  0.955E-01  0.616E-13  0.477E-01  0.477E-01
 -13.540  0.822E-01  0.523E-13  0.411E-01  0.411E-01
 -13.530  0.747E-01  0.495E-13  0.374E-01  0.374E-01
 -13.520  0.740E-01  0.545E-13  0.370E-01  0.370E-01
 -13.510  0.797E-01  0.670E-13  0.399E-01  0.399E-01
 -13.500  0.905E-01  0.860E-13  0.452E-01  0.452E-01
 -13.490  0.104E+00  0.109E-12  0.520E-01  0.520E-01
 -13.480  0.118E+00  0.134E-12  0.588E-01  0.588E-01
 -13.470  0.129E+00  0.156E-12  0.644E-01  0.644E-01
 -13.460  0.135E+00  0.172E-12  0.677E-01  0.677E-01
 -13.450  0.137E+00  0.181E-12  0.683E-01  0.683E-01
 -13.440  0.132E+00  0.179E-12  0.660E-01  0.660E-01
 -13.430  0.123E+00  0.168E-12  0.616E-01  0.616E-01
 -13.420  0.112E+00  0.148E-12  0.561E-01  0.561E-01
 -13.410  0.102E+00  0.125E-12  0.509E-01  0.509E-01
 -13.400  0.939E-01  0.100E-12  0.470E-01  0.470E-01
 -13.390  0.904E-01  0.796E-13  0.452E-01  0.452E-01
 -13.380  0.918E-01  0.649E-13  0.459E-01  0.459E-01
 -13.370  0.975E-01  0.576E-13  0.487E-01  0.487E-01
 -13.360  0.106E+00  0.573E-13  0.530E-01  0.530E-01
 -13.350  0.116E+00  0.623E-13  0.579E-01  0.579E-01
 -13.340  0.124E+00  0.697E-13  0.622E-01  0.622E-01
 -13.330  0.131E+00  0.765E-13  0.654E-01  0.654E-01
 -13.320  0.133E+00  0.803E-13  0.667E-01  0.667E-01
 -13.310  0.132E+00  0.795E-13  0.662E-01  0.662E-01
 -13.300  0.128E+00  0.738E-13  0.639E-01  0.639E-01
 -13.290  0.120E+00  0.639E-13  0.602E-01  0.602E-01
 -13.280  0.111E+00  0.515E-13  0.556E-01  0.556E-01
 -13.270  0.101E+00  0.387E-13  0.506E-01  0.506E-01
 -13.260  0.919E-01  0.276E-13  0.459E-01  0.459E-01
 -13.250  0.839E-01  0.199E-13  0.420E-01  0.420E-01
 -13.240  0.783E-01  0.167E-13  0.391E-01  0.391E-01
 -13.230  0.757E-01  0.186E-13  0.379E-01  0.379E-01
 -13.220  0.766E-01  0.253E-13  0.383E-01  0.383E-01
 -13.210  0.810E-01  0.362E-13  0.405E-01  0.405E-01
 -13.200  0.886E-01  0.499E-13  0.443E-01  0.443E-01
 -13.190  0.982E-01  0.651E-13  0.491E-01  0.491E-01
 -13.180  0.109E+00  0.799E-13  0.544E-01  0.544E-01
 -13.170  0.119E+00  0.928E-13  0.593E-01  0.593E-01
 -13.160  0.127E+00  0.102E-12  0.634E-01  0.634E-01
 -13.150  0.132E+00  0.108E-12  0.660E-01  0.660E-01
 -13.140  0.134E+00  0.109E-12  0.670E-01  0.670E-01
 -13.130  0.133E+00  0.107E-12  0.665E-01  0.665E-01
 -13.120  0.130E+00  0.103E-12  0.648E-01  0.648E-01
 -13.110  0.124E+00  0.977E-13  0.622E-01  0.622E-01
 -13.100  0.118E+00  0.931E-13  0.591E-01  0.591E-01
 -13.090  0.112E+00  0.898E-13  0.558E-01  0.558E-01
 -13.080  0.105E+00  0.883E-13  0.527E-01  0.527E-01
 -13.070  0.992E-01  0.879E-13  0.496E-01  0.496E-01
 -13.060  0.935E-01  0.881E-13  0.467E-01  0.467E-01
 -13.050  0.882E-01  0.878E-13  0.441E-01  0.441E-01
 -13.040  0.835E-01  0.866E-13  0.418E-01  0.418E-01
 -13.030  0.798E-01  0.845E-13  0.399E-01  0.399E-01
 -13.020  0.774E-01  0.820E-13  0.387E-01  0.387E-01
 -13.010  0.766E-01  0.805E-13  0.383E-01  0.383E-01
 -13.000  0.777E-01  0.814E-13  0.388E-01  0.388E-01
 -12.990  0.808E-01  0.864E-13  0.404E-01  0.404E-01
 -12.980  0.857E-01  0.964E-13  0.429E-01  0.429E-01
 -12.970  0.922E-01  0.111E-12  0.461E-01  0.461E-01
 -12.960  0.997E-01  0.130E-12  0.499E-01  0.499E-01
 -12.950  0.108E+00  0.151E-12  0.538E-01  0.538E-01
 -12.940  0.115E+00  0.171E-12  0.576E-01  0.576E-01
 -12.930  0.122E+00  0.185E-12  0.609E-01  0.609E-01
 -12.920  0.127E+00  0.192E-12  0.636E-01  0.636E-01
 -12.910  0.131E+00  0.190E-12  0.653E-01  0.653E-01
 -12.900  0.132E+00  0.178E-12  0.658E-01  0.658E-01
 -12.890  0.130E+00  0.158E-12  0.652E-01  0.652E-01
 -12.880  0.126E+00  0.133E-12  0.632E-01  0.632E-01
 -12.870  0.120E+00  0.105E-12  0.600E-01  0.600E-01
 -12.860  0.112E+00  0.801E-13  0.558E-01  0.558E-01
 -12.850  0.102E+00  0.593E-13  0.509E-01  0.509E-01
 -12.840  0.919E-01  0.448E-13  0.460E-01  0.460E-01
 -12.830  0.829E-01  0.367E-13  0.414E-01  0.414E-01
 -12.820  0.759E-01  0.344E-13  0.380E-01  0.380E-01
 -12.810  0.718E-01  0.361E-13  0.359E-01  0.359E-01
 -12.800  0.709E-01  0.398E-13  0.354E-01  0.354E-01
 -12.790  0.730E-01  0.439E-13  0.365E-01  0.365E-01
 -12.780  0.773E-01  0.467E-13  0.387E-01  0.387E-01
 -12.770  0.830E-01  0.476E-13  0.415E-01  0.415E-01
 -12.760  0.887E-01  0.465E-13  0.444E-01  0.444E-01
 -12.750  0.938E-01  0.439E-13  0.469E-01  0.469E-01
 -12.740  0.975E-01  0.408E-13  0.487E-01  0.487E-01
 -12.730  0.998E-01  0.382E-13  0.499E-01  0.499E-01
 -12.720  0.101E+00  0.370E-13  0.504E-01  0.504E-01
 -12.710  0.101E+00  0.377E-13  0.505E-01  0.505E-01
 -12.700  0.101E+00  0.403E-13  0.505E-01  0.505E-01
 -12.690  0.101E+00  0.447E-13  0.506E-01  0.506E-01
 -12.680  0.102E+00  0.503E-13  0.510E-01  0.510E-01
 -12.670  0.104E+00  0.566E-13  0.518E-01  0.518E-01
 -12.660  0.106E+00  0.630E-13  0.529E-01  0.529E-01
 -12.650  0.108E+00  0.691E-13  0.541E-01  0.541E-01
 -12.640  0.111E+00  0.745E-13  0.554E-01  0.554E-01
 -12.630  0.113E+00  0.791E-13  0.564E-01  0.564E-01
 -12.620  0.114E+00  0.827E-13  0.571E-01  0.571E-01
 -12.610  0.114E+00  0.852E-13  0.572E-01  0.572E-01
 -12.600  0.113E+00  0.864E-13  0.566E-01  0.566E-01
 -12.590  0.111E+00  0.863E-13  0.555E-01  0.555E-01
 -12.580  0.107E+00  0.848E-13  0.537E-01  0.537E-01
 -12.570  0.103E+00  0.819E-13  0.516E-01  0.516E-01
 -12.560  0.983E-01  0.779E-13  0.491E-01  0.491E-01
 -12.550  0.931E-01  0.732E-13  0.466E-01  0.466E-01
 -12.540  0.879E-01  0.681E-13  0.439E-01  0.439E-01
 -12.530  0.826E-01  0.632E-13  0.413E-01  0.413E-01
 -12.520  0.774E-01  0.585E-13  0.387E-01  0.387E-01
 -12.510  0.720E-01  0.543E-13  0.360E-01  0.360E-01
 -12.500  0.667E-01  0.506E-13  0.333E-01  0.333E-01
 -12.490  0.616E-01  0.475E-13  0.308E-01  0.308E-01
 -12.480  0.575E-01  0.454E-13  0.288E-01  0.288E-01
 -12.470  0.555E-01  0.447E-13  0.277E-01  0.277E-01
 -12.460  0.565E-01  0.459E-13  0.283E-01  0.283E-01
 -12.450  0.616E-01  0.494E-13  0.308E-01  0.308E-01
 -12.440  0.714E-01  0.552E-13  0.357E-01  0.357E-01
 -12.430  0.855E-01  0.631E-13  0.427E-01  0.427E-01
 -12.420  0.103E+00  0.720E-13  0.515E-01  0.515E-01
 -12.410  0.122E+00  0.806E-13  0.612E-01  0.612E-01
 -12.400  0.141E+00  0.875E-13  0.707E-01  0.707E-01
 -12.390  0.158E+00  0.913E-13  0.791E-01  0.791E-01
 -12.380  0.171E+00  0.912E-13  0.854E-01  0.854E-01
 -12.370  0.178E+00  0.872E-13  0.891E-01  0.891E-01
 -12.360  0.180E+00  0.798E-13  0.901E-01  0.901E-01
 -12.350  0.177E+00  0.702E-13  0.884E-01  0.884E-01
 -12.340  0.169E+00  0.601E-13  0.846E-01  0.846E-01
 -12.330  0.158E+00  0.514E-13  0.792E-01  0.792E-01
 -12.320  0.145E+00  0.461E-13  0.727E-01  0.727E-01
 -12.310  0.132E+00  0.462E-13  0.658E-01  0.658E-01
 -12.300  0.118E+00  0.530E-13  0.590E-01  0.590E-01
 -12.290  0.105E+00  0.678E-13  0.527E-01  0.527E-01
 -12.280  0.949E-01  0.908E-13  0.474E-01  0.474E-01
 -12.270  0.872E-01  0.121E-12  0.436E-01  0.436E-01
 -12.260  0.829E-01  0.158E-12  0.414E-01  0.414E-01
 -12.250  0.824E-01  0.197E-12  0.412E-01  0.412E-01
 -12.240  0.859E-01  0.234E-12  0.429E-01  0.429E-01
 -12.230  0.928E-01  0.266E-12  0.464E-01  0.464E-01
 -12.220  0.103E+00  0.287E-12  0.514E-01  0.514E-01
 -12.210  0.115E+00  0.294E-12  0.575E-01  0.575E-01
 -12.200  0.129E+00  0.289E-12  0.643E-01  0.643E-01
 -12.190  0.143E+00  0.272E-12  0.716E-01  0.716E-01
 -12.180  0.158E+00  0.250E-12  0.790E-01  0.790E-01
 -12.170  0.173E+00  0.230E-12  0.863E-01  0.863E-01
 -12.160  0.186E+00  0.219E-12  0.930E-01  0.930E-01
 -12.150  0.197E+00  0.223E-12  0.984E-01  0.984E-01
 -12.140  0.204E+00  0.247E-12  0.102E+00  0.102E+00
 -12.130  0.205E+00  0.288E-12  0.102E+00  0.102E+00
 -12.120  0.200E+00  0.344E-12  0.999E-01  0.999E-01
 -12.110  0.188E+00  0.404E-12  0.941E-01  0.941E-01
 -12.100  0.171E+00  0.460E-12  0.857E-01  0.857E-01
 -12.090  0.151E+00  0.500E-12  0.756E-01  0.756E-01
 -12.080  0.131E+00  0.516E-12  0.653E-01  0.653E-01
 -12.070  0.112E+00  0.503E-12  0.561E-01  0.561E-01
 -12.060  0.984E-01  0.463E-12  0.492E-01  0.492E-01
 -12.050  0.907E-01  0.399E-12  0.454E-01  0.454E-01
 -12.040  0.896E-01  0.321E-12  0.448E-01  0.448E-01
 -12.030  0.945E-01  0.238E-12  0.472E-01  0.472E-01
 -12.020  0.104E+00  0.162E-12  0.520E-01  0.520E-01
 -12.010  0.116E+00  0.995E-13  0.582E-01  0.582E-01
 -12.000  0.130E+00  0.564E-13  0.649E-01  0.649E-01
 -11.990  0.142E+00  0.351E-13  0.712E-01  0.712E-01
 -11.980  0.153E+00  0.359E-13  0.765E-01  0.765E-01
 -11.970  0.161E+00  0.582E-13  0.804E-01  0.804E-01
 -11.960  0.166E+00  0.101E-12  0.828E-01  0.828E-01
 -11.950  0.168E+00  0.164E-12  0.841E-01  0.841E-01
 -11.940  0.169E+00  0.246E-12  0.845E-01  0.845E-01
 -11.930  0.169E+00  0.345E-12  0.844E-01  0.844E-01
 -11.920  0.168E+00  0.459E-12  0.839E-01  0.839E-01
 -11.910  0.166E+00  0.581E-12  0.831E-01  0.831E-01
 -11.900  0.163E+00  0.702E-12  0.816E-01  0.816E-01
 -11.890  0.159E+00  0.809E-12  0.794E-01  0.794E-01
 -11.880  0.152E+00  0.892E-12  0.761E-01  0.761E-01
 -11.870  0.143E+00  0.938E-12  0.717E-01  0.717E-01
 -11.860  0.133E+00  0.940E-12  0.666E-01  0.666E-01
 -11.850  0.122E+00  0.895E-12  0.611E-01  0.611E-01
 -11.840  0.112E+00  0.808E-12  0.562E-01  0.562E-01
 -11.830  0.105E+00  0.689E-12  0.526E-01  0.526E-01
 -11.820  0.102E+00  0.552E-12  0.510E-01  0.510E-01
 -11.810  0.104E+00  0.413E-12  0.518E-01  0.518E-01
 -11.800  0.110E+00  0.286E-12  0.549E-01  0.549E-01
 -11.790  0.120E+00  0.182E-12  0.600E-01  0.600E-01
 -11.780  0.133E+00  0.106E-12  0.664E-01  0.664E-01
 -11.770  0.147E+00  0.597E-13  0.734E-01  0.734E-01
 -11.760  0.160E+00  0.379E-13  0.802E-01  0.802E-01
 -11.750  0.172E+00  0.351E-13  0.859E-01  0.859E-01
 -11.740  0.180E+00  0.447E-13  0.900E-01  0.900E-01
 -11.730  0.185E+00  0.614E-13  0.924E-01  0.924E-01
 -11.720  0.185E+00  0.825E-13  0.927E-01  0.927E-01
 -11.710  0.183E+00  0.108E-12  0.913E-01  0.913E-01
 -11.700  0.177E+00  0.140E-12  0.884E-01  0.884E-01
 -11.690  0.169E+00  0.182E-12  0.844E-01  0.844E-01
 -11.680  0.160E+00  0.237E-12  0.798E-01  0.798E-01
 -11.670  0.151E+00  0.306E-12  0.753E-01  0.753E-01
 -11.660  0.143E+00  0.388E-12  0.713E-01  0.713E-01
 -11.650  0.137E+00  0.476E-12  0.684E-01  0.684E-01
 -11.640  0.133E+00  0.562E-12  0.667E-01  0.667E-01
 -11.630  0.133E+00  0.633E-12  0.665E-01  0.665E-01
 -11.620  0.135E+00  0.678E-12  0.676E-01  0.676E-01
 -11.610  0.139E+00  0.689E-12  0.696E-01  0.696E-01
 -11.600  0.144E+00  0.662E-12  0.720E-01  0.720E-01
 -11.590  0.148E+00  0.599E-12  0.742E-01  0.742E-01
 -11.580  0.152E+00  0.508E-12  0.759E-01  0.759E-01
 -11.570  0.154E+00  0.401E-12  0.769E-01  0.769E-01
 -11.560  0.154E+00  0.292E-12  0.770E-01  0.770E-01
 -11.550  0.153E+00  0.192E-12  0.765E-01  0.765E-01
 -11.540  0.151E+00  0.110E-12  0.757E-01  0.757E-01
 -11.530  0.149E+00  0.516E-13  0.747E-01  0.747E-01
 -11.520  0.148E+00  0.153E-13  0.738E-01  0.738E-01
 -11.510  0.146E+00 -0.185E-14  0.729E-01  0.729E-01
 -11.500  0.144E+00 -0.491E-14  0.720E-01  0.720E-01
 -11.490  0.141E+00  0.749E-15  0.707E-01  0.707E-01
 -11.480  0.138E+00  0.107E-13  0.690E-01  0.690E-01
 -11.470  0.133E+00  0.218E-13  0.666E-01  0.666E-01
 -11.460  0.127E+00  0.327E-13  0.637E-01  0.637E-01
 -11.450  0.121E+00  0.432E-13  0.606E-01  0.606E-01
 -11.440  0.116E+00  0.539E-13  0.579E-01  0.579E-01
 -11.430  0.112E+00  0.659E-13  0.561E-01  0.561E-01
 -11.420  0.112E+00  0.801E-13  0.559E-01  0.559E-01
 -11.410  0.116E+00  0.970E-13  0.579E-01  0.579E-01
 -11.400  0.124E+00  0.116E-12  0.621E-01  0.621E-01
 -11.390  0.137E+00  0.137E-12  0.685E-01  0.685E-01
 -11.380  0.153E+00  0.157E-12  0.763E-01  0.763E-01
 -11.370  0.169E+00  0.173E-12  0.847E-01  0.847E-01
 -11.360  0.186E+00  0.185E-12  0.928E-01  0.928E-01
 -11.350  0.200E+00  0.189E-12  0.998E-01  0.998E-01
 -11.340  0.210E+00  0.186E-12  0.105E+00  0.105E+00
 -11.330  0.217E+00  0.177E-12  0.109E+00  0.109E+00
 -11.320  0.221E+00  0.162E-12  0.111E+00  0.111E+00
 -11.310  0.222E+00  0.146E-12  0.111E+00  0.111E+00
 -11.300  0.221E+00  0.130E-12  0.110E+00  0.110E+00
 -11.290  0.217E+00  0.117E-12  0.108E+00  0.108E+00
 -11.280  0.211E+00  0.108E-12  0.105E+00  0.105E+00
 -11.270  0.202E+00  0.101E-12  0.101E+00  0.101E+00
 -11.260  0.189E+00  0.971E-13  0.945E-01  0.945E-01
 -11.250  0.172E+00  0.938E-13  0.861E-01  0.861E-01
 -11.240  0.151E+00  0.905E-13  0.757E-01  0.757E-01
 -11.230  0.128E+00  0.877E-13  0.638E-01  0.638E-01
 -11.220  0.103E+00  0.878E-13  0.515E-01  0.515E-01
 -11.210  0.800E-01  0.951E-13  0.400E-01  0.400E-01
 -11.200  0.612E-01  0.115E-12  0.306E-01  0.306E-01
 -11.190  0.491E-01  0.156E-12  0.246E-01  0.246E-01
 -11.180  0.453E-01  0.224E-12  0.226E-01  0.226E-01
 -11.170  0.503E-01  0.325E-12  0.251E-01  0.251E-01
 -11.160  0.635E-01  0.461E-12  0.317E-01  0.317E-01
 -11.150  0.831E-01  0.630E-12  0.416E-01  0.416E-01
 -11.140  0.107E+00  0.822E-12  0.534E-01  0.534E-01
 -11.130  0.132E+00  0.102E-11  0.659E-01  0.659E-01
 -11.120  0.155E+00  0.121E-11  0.777E-01  0.777E-01
 -11.110  0.176E+00  0.136E-11  0.878E-01  0.878E-01
 -11.100  0.192E+00  0.145E-11  0.958E-01  0.958E-01
 -11.090  0.203E+00  0.147E-11  0.102E+00  0.102E+00
 -11.080  0.211E+00  0.141E-11  0.106E+00  0.106E+00
 -11.070  0.217E+00  0.128E-11  0.108E+00  0.108E+00
 -11.060  0.221E+00  0.110E-11  0.111E+00  0.111E+00
 -11.050  0.225E+00  0.883E-12  0.112E+00  0.112E+00
 -11.040  0.227E+00  0.665E-12  0.114E+00  0.114E+00
 -11.030  0.228E+00  0.465E-12  0.114E+00  0.114E+00
 -11.020  0.226E+00  0.298E-12  0.113E+00  0.113E+00
 -11.010  0.220E+00  0.170E-12  0.110E+00  0.110E+00
 -11.000  0.211E+00  0.793E-13  0.105E+00  0.105E+00
 -10.990  0.197E+00  0.203E-13  0.986E-01  0.986E-01
 -10.980  0.180E+00 -0.142E-13  0.902E-01  0.902E-01
 -10.970  0.162E+00 -0.306E-13  0.809E-01  0.809E-01
 -10.960  0.143E+00 -0.328E-13  0.713E-01  0.713E-01
 -10.950  0.125E+00 -0.217E-13  0.623E-01  0.623E-01
 -10.940  0.109E+00  0.395E-14  0.544E-01  0.544E-01
 -10.930  0.963E-01  0.473E-13  0.481E-01  0.481E-01
 -10.920  0.882E-01  0.112E-12  0.441E-01  0.441E-01
 -10.910  0.856E-01  0.201E-12  0.428E-01  0.428E-01
 -10.900  0.888E-01  0.315E-12  0.444E-01  0.444E-01
 -10.890  0.982E-01  0.455E-12  0.491E-01  0.491E-01
 -10.880  0.113E+00  0.613E-12  0.566E-01  0.566E-01
 -10.870  0.132E+00  0.782E-12  0.661E-01  0.661E-01
 -10.860  0.154E+00  0.947E-12  0.768E-01  0.768E-01
 -10.850  0.175E+00  0.109E-11  0.875E-01  0.875E-01
 -10.840  0.194E+00  0.121E-11  0.969E-01  0.969E-01
 -10.830  0.209E+00  0.127E-11  0.104E+00  0.104E+00
 -10.820  0.218E+00  0.129E-11  0.109E+00  0.109E+00
 -10.810  0.223E+00  0.125E-11  0.111E+00  0.111E+00
 -10.800  0.222E+00  0.116E-11  0.111E+00  0.111E+00
 -10.790  0.217E+00  0.104E-11  0.109E+00  0.109E+00
 -10.780  0.208E+00  0.890E-12  0.104E+00  0.104E+00
 -10.770  0.196E+00  0.736E-12  0.982E-01  0.982E-01
 -10.760  0.182E+00  0.586E-12  0.908E-01  0.908E-01
 -10.750  0.165E+00  0.448E-12  0.823E-01  0.823E-01
 -10.740  0.146E+00  0.326E-12  0.728E-01  0.728E-01
 -10.730  0.126E+00  0.223E-12  0.631E-01  0.631E-01
 -10.720  0.108E+00  0.139E-12  0.540E-01  0.540E-01
 -10.710  0.927E-01  0.726E-13  0.464E-01  0.464E-01
 -10.700  0.826E-01  0.252E-13  0.413E-01  0.413E-01
 -10.690  0.791E-01 -0.267E-14  0.396E-01  0.396E-01
 -10.680  0.829E-01 -0.927E-14  0.414E-01  0.414E-01
 -10.670  0.938E-01  0.796E-14  0.469E-01  0.469E-01
 -10.660  0.111E+00  0.523E-13  0.555E-01  0.555E-01
 -10.650  0.133E+00  0.128E-12  0.664E-01  0.664E-01
 -10.640  0.158E+00  0.237E-12  0.789E-01  0.789E-01
 -10.630  0.184E+00  0.384E-12  0.919E-01  0.919E-01
 -10.620  0.209E+00  0.566E-12  0.105E+00  0.105E+00
 -10.610  0.233E+00  0.779E-12  0.116E+00  0.116E+00
 -10.600  0.253E+00  0.101E-11  0.126E+00  0.126E+00
 -10.590  0.268E+00  0.125E-11  0.134E+00  0.134E+00
 -10.580  0.276E+00  0.146E-11  0.138E+00  0.138E+00
 -10.570  0.277E+00  0.162E-11  0.139E+00  0.139E+00
 -10.560  0.270E+00  0.171E-11  0.135E+00  0.135E+00
 -10.550  0.255E+00  0.171E-11  0.128E+00  0.128E+00
 -10.540  0.234E+00  0.162E-11  0.117E+00  0.117E+00
 -10.530  0.208E+00  0.144E-11  0.104E+00  0.104E+00
 -10.520  0.181E+00  0.120E-11  0.907E-01  0.907E-01
 -10.510  0.156E+00  0.919E-12  0.781E-01  0.781E-01
 -10.500  0.135E+00  0.638E-12  0.676E-01  0.676E-01
 -10.490  0.120E+00  0.384E-12  0.600E-01  0.600E-01
 -10.480  0.111E+00  0.178E-12  0.553E-01  0.553E-01
 -10.470  0.106E+00  0.297E-13  0.532E-01  0.532E-01
 -10.460  0.106E+00 -0.605E-13  0.529E-01  0.529E-01
 -10.450  0.107E+00 -0.101E-12  0.534E-01  0.534E-01
 -10.440  0.108E+00 -0.106E-12  0.539E-01  0.539E-01
 -10.430  0.108E+00 -0.872E-13  0.540E-01  0.540E-01
 -10.420  0.107E+00 -0.557E-13  0.537E-01  0.537E-01
 -10.410  0.106E+00 -0.177E-13  0.532E-01  0.532E-01
 -10.400  0.107E+00  0.254E-13  0.533E-01  0.533E-01
 -10.390  0.109E+00  0.762E-13  0.547E-01  0.547E-01
 -10.380  0.116E+00  0.140E-12  0.580E-01  0.580E-01
 -10.370  0.128E+00  0.222E-12  0.638E-01  0.638E-01
 -10.360  0.144E+00  0.328E-12  0.722E-01  0.722E-01
 -10.350  0.166E+00  0.459E-12  0.829E-01  0.829E-01
 -10.340  0.191E+00  0.612E-12  0.953E-01  0.953E-01
 -10.330  0.216E+00  0.776E-12  0.108E+00  0.108E+00
 -10.320  0.240E+00  0.936E-12  0.120E+00  0.120E+00
 -10.310  0.259E+00  0.107E-11  0.130E+00  0.130E+00
 -10.300  0.271E+00  0.117E-11  0.136E+00  0.136E+00
 -10.290  0.274E+00  0.120E-11  0.137E+00  0.137E+00
 -10.280  0.268E+00  0.117E-11  0.134E+00  0.134E+00
 -10.270  0.254E+00  0.106E-11  0.127E+00  0.127E+00
 -10.260  0.235E+00  0.904E-12  0.117E+00  0.117E+00
 -10.250  0.213E+00  0.711E-12  0.107E+00  0.107E+00
 -10.240  0.192E+00  0.508E-12  0.962E-01  0.962E-01
 -10.230  0.175E+00  0.321E-12  0.875E-01  0.875E-01
 -10.220  0.163E+00  0.169E-12  0.813E-01  0.813E-01
 -10.210  0.155E+00  0.637E-13  0.776E-01  0.776E-01
 -10.200  0.152E+00  0.680E-14  0.759E-01  0.759E-01
 -10.190  0.151E+00 -0.696E-14  0.754E-01  0.754E-01
 -10.180  0.151E+00  0.116E-13  0.753E-01  0.753E-01
 -10.170  0.150E+00  0.494E-13  0.749E-01  0.749E-01
 -10.160  0.147E+00  0.943E-13  0.737E-01  0.737E-01
 -10.150  0.144E+00  0.136E-12  0.719E-01  0.719E-01
 -10.140  0.140E+00  0.169E-12  0.700E-01  0.700E-01
 -10.130  0.138E+00  0.191E-12  0.689E-01  0.689E-01
 -10.120  0.139E+00  0.201E-12  0.695E-01  0.695E-01
 -10.110  0.145E+00  0.204E-12  0.726E-01  0.726E-01
 -10.100  0.157E+00  0.201E-12  0.786E-01  0.786E-01
 -10.090  0.174E+00  0.197E-12  0.871E-01  0.871E-01
 -10.080  0.194E+00  0.192E-12  0.972E-01  0.972E-01
 -10.070  0.214E+00  0.188E-12  0.107E+00  0.107E+00
 -10.060  0.230E+00  0.183E-12  0.115E+00  0.115E+00
 -10.050  0.239E+00  0.174E-12  0.120E+00  0.120E+00
 -10.040  0.238E+00  0.160E-12  0.119E+00  0.119E+00
 -10.030  0.227E+00  0.141E-12  0.113E+00  0.113E+00
 -10.020  0.207E+00  0.116E-12  0.104E+00  0.104E+00
 -10.010  0.183E+00  0.886E-13  0.915E-01  0.915E-01
 -10.000  0.158E+00  0.603E-13  0.791E-01  0.791E-01
  -9.990  0.137E+00  0.346E-13  0.684E-01  0.684E-01
  -9.980  0.123E+00  0.141E-13  0.614E-01  0.614E-01
  -9.970  0.117E+00  0.438E-15  0.586E-01  0.586E-01
  -9.960  0.120E+00 -0.583E-14  0.600E-01  0.600E-01
  -9.950  0.129E+00 -0.500E-14  0.647E-01  0.647E-01
  -9.940  0.143E+00  0.211E-14  0.714E-01  0.714E-01
  -9.930  0.157E+00  0.145E-13  0.787E-01  0.787E-01
  -9.920  0.171E+00  0.312E-13  0.855E-01  0.855E-01
  -9.910  0.183E+00  0.516E-13  0.913E-01  0.913E-01
  -9.900  0.192E+00  0.749E-13  0.961E-01  0.961E-01
  -9.890  0.200E+00  0.101E-12  0.100E+00  0.100E+00
  -9.880  0.209E+00  0.128E-12  0.104E+00  0.104E+00
  -9.870  0.218E+00  0.155E-12  0.109E+00  0.109E+00
  -9.860  0.229E+00  0.182E-12  0.114E+00  0.114E+00
  -9.850  0.241E+00  0.208E-12  0.120E+00  0.120E+00
  -9.840  0.254E+00  0.230E-12  0.127E+00  0.127E+00
  -9.830  0.266E+00  0.249E-12  0.133E+00  0.133E+00
  -9.820  0.274E+00  0.264E-12  0.137E+00  0.137E+00
  -9.810  0.279E+00  0.273E-12  0.139E+00  0.139E+00
  -9.800  0.277E+00  0.275E-12  0.138E+00  0.138E+00
  -9.790  0.268E+00  0.271E-12  0.134E+00  0.134E+00
  -9.780  0.252E+00  0.258E-12  0.126E+00  0.126E+00
  -9.770  0.230E+00  0.242E-12  0.115E+00  0.115E+00
  -9.760  0.204E+00  0.243E-12  0.102E+00  0.102E+00
  -9.750  0.175E+00  0.351E-12  0.875E-01  0.875E-01
  -9.740  0.146E+00  0.941E-12  0.732E-01  0.732E-01
  -9.730  0.121E+00  0.355E-11  0.605E-01  0.605E-01
  -9.720  0.101E+00  0.142E-10  0.504E-01  0.504E-01
  -9.710  0.870E-01  0.552E-10  0.435E-01  0.435E-01
  -9.700  0.804E-01  0.207E-09  0.402E-01  0.402E-01
  -9.690  0.805E-01  0.743E-09  0.403E-01  0.403E-01
  -9.680  0.864E-01  0.256E-08  0.432E-01  0.432E-01
  -9.670  0.968E-01  0.842E-08  0.484E-01  0.484E-01
  -9.660  0.111E+00  0.266E-07  0.553E-01  0.553E-01
  -9.650  0.127E+00  0.804E-07  0.636E-01  0.636E-01
  -9.640  0.147E+00  0.233E-06  0.733E-01  0.733E-01
  -9.630  0.168E+00  0.647E-06  0.842E-01  0.842E-01
  -9.620  0.193E+00  0.172E-05  0.966E-01  0.966E-01
  -9.610  0.220E+00  0.439E-05  0.110E+00  0.110E+00
  -9.600  0.249E+00  0.107E-04  0.124E+00  0.124E+00
  -9.590  0.276E+00  0.251E-04  0.138E+00  0.138E+00
  -9.580  0.300E+00  0.564E-04  0.150E+00  0.150E+00
  -9.570  0.318E+00  0.121E-03  0.159E+00  0.159E+00
  -9.560  0.327E+00  0.250E-03  0.163E+00  0.163E+00
  -9.550  0.326E+00  0.495E-03  0.163E+00  0.163E+00
  -9.540  0.316E+00  0.938E-03  0.158E+00  0.158E+00
  -9.530  0.298E+00  0.170E-02  0.148E+00  0.148E+00
  -9.520  0.274E+00  0.297E-02  0.136E+00  0.136E+00
  -9.510  0.249E+00  0.498E-02  0.122E+00  0.122E+00
  -9.500  0.225E+00  0.799E-02  0.109E+00  0.109E+00
  -9.490  0.206E+00  0.123E-01  0.971E-01  0.971E-01
  -9.480  0.195E+00  0.183E-01  0.884E-01  0.884E-01
  -9.470  0.192E+00  0.260E-01  0.828E-01  0.828E-01
  -9.460  0.196E+00  0.356E-01  0.803E-01  0.803E-01
  -9.450  0.207E+00  0.470E-01  0.800E-01  0.800E-01
  -9.440  0.221E+00  0.596E-01  0.808E-01  0.808E-01
  -9.430  0.237E+00  0.731E-01  0.818E-01  0.818E-01
  -9.420  0.250E+00  0.865E-01  0.817E-01  0.817E-01
  -9.410  0.259E+00  0.991E-01  0.801E-01  0.801E-01
  -9.400  0.264E+00  0.110E+00  0.767E-01  0.767E-01
  -9.390  0.263E+00  0.119E+00  0.719E-01  0.719E-01
  -9.380  0.259E+00  0.126E+00  0.668E-01  0.668E-01
  -9.370  0.255E+00  0.130E+00  0.626E-01  0.626E-01
  -9.360  0.253E+00  0.132E+00  0.607E-01  0.607E-01
  -9.350  0.258E+00  0.132E+00  0.626E-01  0.626E-01
  -9.340  0.270E+00  0.132E+00  0.692E-01  0.692E-01
  -9.330  0.292E+00  0.130E+00  0.809E-01  0.809E-01
  -9.320  0.323E+00  0.129E+00  0.971E-01  0.971E-01
  -9.310  0.360E+00  0.127E+00  0.117E+00  0.117E+00
  -9.300  0.400E+00  0.126E+00  0.137E+00  0.137E+00
  -9.290  0.439E+00  0.125E+00  0.157E+00  0.157E+00
  -9.280  0.470E+00  0.124E+00  0.173E+00  0.173E+00
  -9.270  0.490E+00  0.123E+00  0.184E+00  0.184E+00
  -9.260  0.497E+00  0.123E+00  0.187E+00  0.187E+00
  -9.250  0.489E+00  0.123E+00  0.183E+00  0.183E+00
  -9.240  0.469E+00  0.123E+00  0.173E+00  0.173E+00
  -9.230  0.438E+00  0.123E+00  0.157E+00  0.157E+00
  -9.220  0.402E+00  0.124E+00  0.139E+00  0.139E+00
  -9.210  0.364E+00  0.124E+00  0.120E+00  0.120E+00
  -9.200  0.327E+00  0.124E+00  0.102E+00  0.102E+00
  -9.190  0.296E+00  0.123E+00  0.865E-01  0.865E-01
  -9.180  0.271E+00  0.122E+00  0.746E-01  0.746E-01
  -9.170  0.254E+00  0.121E+00  0.665E-01  0.665E-01
  -9.160  0.245E+00  0.121E+00  0.617E-01  0.617E-01
  -9.150  0.241E+00  0.122E+00  0.598E-01  0.598E-01
  -9.140  0.244E+00  0.123E+00  0.602E-01  0.602E-01
  -9.130  0.250E+00  0.125E+00  0.622E-01  0.622E-01
  -9.120  0.258E+00  0.127E+00  0.657E-01  0.657E-01
  -9.110  0.268E+00  0.128E+00  0.703E-01  0.703E-01
  -9.100  0.279E+00  0.127E+00  0.762E-01  0.762E-01
  -9.090  0.292E+00  0.125E+00  0.837E-01  0.837E-01
  -9.080  0.308E+00  0.122E+00  0.929E-01  0.929E-01
  -9.070  0.327E+00  0.120E+00  0.104E+00  0.104E+00
  -9.060  0.351E+00  0.118E+00  0.117E+00  0.117E+00
  -9.050  0.378E+00  0.118E+00  0.130E+00  0.130E+00
  -9.040  0.408E+00  0.119E+00  0.144E+00  0.144E+00
  -9.030  0.437E+00  0.123E+00  0.157E+00  0.157E+00
  -9.020  0.462E+00  0.127E+00  0.167E+00  0.167E+00
  -9.010  0.479E+00  0.131E+00  0.174E+00  0.174E+00
  -9.000  0.486E+00  0.133E+00  0.177E+00  0.177E+00
  -8.990  0.482E+00  0.133E+00  0.175E+00  0.175E+00
  -8.980  0.467E+00  0.131E+00  0.168E+00  0.168E+00
  -8.970  0.444E+00  0.126E+00  0.159E+00  0.159E+00
  -8.960  0.415E+00  0.120E+00  0.147E+00  0.147E+00
  -8.950  0.384E+00  0.115E+00  0.134E+00  0.134E+00
  -8.940  0.356E+00  0.112E+00  0.122E+00  0.122E+00
  -8.930  0.333E+00  0.112E+00  0.110E+00  0.110E+00
  -8.920  0.317E+00  0.114E+00  0.101E+00  0.101E+00
  -8.910  0.309E+00  0.120E+00  0.948E-01  0.948E-01
  -8.900  0.309E+00  0.126E+00  0.912E-01  0.912E-01
  -8.890  0.314E+00  0.133E+00  0.904E-01  0.904E-01
  -8.880  0.323E+00  0.139E+00  0.920E-01  0.920E-01
  -8.870  0.332E+00  0.142E+00  0.951E-01  0.951E-01
  -8.860  0.339E+00  0.141E+00  0.992E-01  0.992E-01
  -8.850  0.343E+00  0.136E+00  0.103E+00  0.103E+00
  -8.840  0.343E+00  0.129E+00  0.107E+00  0.107E+00
  -8.830  0.341E+00  0.121E+00  0.110E+00  0.110E+00
  -8.820  0.337E+00  0.113E+00  0.112E+00  0.112E+00
  -8.810  0.334E+00  0.107E+00  0.114E+00  0.114E+00
  -8.800  0.335E+00  0.105E+00  0.115E+00  0.115E+00
  -8.790  0.340E+00  0.106E+00  0.117E+00  0.117E+00
  -8.780  0.351E+00  0.111E+00  0.120E+00  0.120E+00
  -8.770  0.367E+00  0.119E+00  0.124E+00  0.124E+00
  -8.760  0.387E+00  0.128E+00  0.129E+00  0.129E+00
  -8.750  0.409E+00  0.137E+00  0.136E+00  0.136E+00
  -8.740  0.432E+00  0.145E+00  0.144E+00  0.144E+00
  -8.730  0.452E+00  0.149E+00  0.151E+00  0.151E+00
  -8.720  0.467E+00  0.149E+00  0.159E+00  0.159E+00
  -8.710  0.476E+00  0.146E+00  0.165E+00  0.165E+00
  -8.700  0.478E+00  0.139E+00  0.169E+00  0.169E+00
  -8.690  0.472E+00  0.129E+00  0.171E+00  0.171E+00
  -8.680  0.459E+00  0.119E+00  0.170E+00  0.170E+00
  -8.670  0.442E+00  0.109E+00  0.167E+00  0.167E+00
  -8.660  0.423E+00  0.102E+00  0.161E+00  0.161E+00
  -8.650  0.403E+00  0.980E-01  0.153E+00  0.153E+00
  -8.640  0.386E+00  0.989E-01  0.144E+00  0.144E+00
  -8.630  0.374E+00  0.104E+00  0.135E+00  0.135E+00
  -8.620  0.367E+00  0.113E+00  0.127E+00  0.127E+00
  -8.610  0.365E+00  0.124E+00  0.120E+00  0.120E+00
  -8.600  0.368E+00  0.136E+00  0.116E+00  0.116E+00
  -8.590  0.375E+00  0.146E+00  0.114E+00  0.114E+00
  -8.580  0.385E+00  0.153E+00  0.116E+00  0.116E+00
  -8.570  0.396E+00  0.157E+00  0.120E+00  0.120E+00
  -8.560  0.409E+00  0.156E+00  0.126E+00  0.126E+00
  -8.550  0.423E+00  0.151E+00  0.136E+00  0.136E+00
  -8.540  0.437E+00  0.143E+00  0.147E+00  0.147E+00
  -8.530  0.452E+00  0.133E+00  0.159E+00  0.159E+00
  -8.520  0.466E+00  0.123E+00  0.172E+00  0.172E+00
  -8.510  0.477E+00  0.113E+00  0.182E+00  0.182E+00
  -8.500  0.483E+00  0.104E+00  0.189E+00  0.189E+00
  -8.490  0.482E+00  0.974E-01  0.192E+00  0.192E+00
  -8.480  0.474E+00  0.942E-01  0.190E+00  0.190E+00
  -8.470  0.461E+00  0.949E-01  0.183E+00  0.183E+00
  -8.460  0.445E+00  0.997E-01  0.172E+00  0.172E+00
  -8.450  0.428E+00  0.109E+00  0.160E+00  0.160E+00
  -8.440  0.414E+00  0.120E+00  0.147E+00  0.147E+00
  -8.430  0.407E+00  0.134E+00  0.137E+00  0.137E+00
  -8.420  0.408E+00  0.147E+00  0.130E+00  0.130E+00
  -8.410  0.416E+00  0.158E+00  0.129E+00  0.129E+00
  -8.400  0.430E+00  0.165E+00  0.132E+00  0.132E+00
  -8.390  0.447E+00  0.167E+00  0.140E+00  0.140E+00
  -8.380  0.467E+00  0.163E+00  0.152E+00  0.152E+00
  -8.370  0.487E+00  0.155E+00  0.166E+00  0.166E+00
  -8.360  0.505E+00  0.143E+00  0.181E+00  0.181E+00
  -8.350  0.524E+00  0.131E+00  0.196E+00  0.196E+00
  -8.340  0.542E+00  0.118E+00  0.212E+00  0.212E+00
  -8.330  0.562E+00  0.108E+00  0.227E+00  0.227E+00
  -8.320  0.584E+00  0.100E+00  0.242E+00  0.242E+00
  -8.310  0.608E+00  0.958E-01  0.256E+00  0.256E+00
  -8.300  0.632E+00  0.941E-01  0.269E+00  0.269E+00
  -8.290  0.655E+00  0.952E-01  0.280E+00  0.280E+00
  -8.280  0.674E+00  0.988E-01  0.288E+00  0.288E+00
  -8.270  0.687E+00  0.105E+00  0.291E+00  0.291E+00
  -8.260  0.689E+00  0.113E+00  0.288E+00  0.288E+00
  -8.250  0.681E+00  0.123E+00  0.279E+00  0.279E+00
  -8.240  0.662E+00  0.135E+00  0.263E+00  0.263E+00
  -8.230  0.633E+00  0.148E+00  0.243E+00  0.243E+00
  -8.220  0.597E+00  0.159E+00  0.219E+00  0.219E+00
  -8.210  0.558E+00  0.168E+00  0.195E+00  0.195E+00
  -8.200  0.520E+00  0.173E+00  0.173E+00  0.173E+00
  -8.190  0.487E+00  0.173E+00  0.157E+00  0.157E+00
  -8.180  0.460E+00  0.167E+00  0.147E+00  0.147E+00
  -8.170  0.442E+00  0.157E+00  0.143E+00  0.143E+00
  -8.160  0.431E+00  0.143E+00  0.144E+00  0.144E+00
  -8.150  0.425E+00  0.128E+00  0.148E+00  0.148E+00
  -8.140  0.421E+00  0.113E+00  0.154E+00  0.154E+00
  -8.130  0.417E+00  0.100E+00  0.158E+00  0.158E+00
  -8.120  0.411E+00  0.914E-01  0.160E+00  0.160E+00
  -8.110  0.403E+00  0.867E-01  0.158E+00  0.158E+00
  -8.100  0.393E+00  0.863E-01  0.154E+00  0.154E+00
  -8.090  0.386E+00  0.899E-01  0.148E+00  0.148E+00
  -8.080  0.382E+00  0.967E-01  0.143E+00  0.143E+00
  -8.070  0.384E+00  0.106E+00  0.139E+00  0.139E+00
  -8.060  0.394E+00  0.117E+00  0.139E+00  0.139E+00
  -8.050  0.411E+00  0.128E+00  0.142E+00  0.142E+00
  -8.040  0.435E+00  0.139E+00  0.148E+00  0.148E+00
  -8.030  0.462E+00  0.150E+00  0.156E+00  0.156E+00
  -8.020  0.489E+00  0.158E+00  0.166E+00  0.166E+00
  -8.010  0.512E+00  0.165E+00  0.174E+00  0.174E+00
  -8.000  0.528E+00  0.169E+00  0.180E+00  0.180E+00
  -7.990  0.535E+00  0.170E+00  0.183E+00  0.183E+00
  -7.980  0.532E+00  0.169E+00  0.182E+00  0.182E+00
  -7.970  0.520E+00  0.164E+00  0.178E+00  0.178E+00
  -7.960  0.501E+00  0.157E+00  0.172E+00  0.172E+00
  -7.950  0.477E+00  0.147E+00  0.165E+00  0.165E+00
  -7.940  0.449E+00  0.136E+00  0.157E+00  0.157E+00
  -7.930  0.422E+00  0.123E+00  0.149E+00  0.149E+00
  -7.920  0.395E+00  0.110E+00  0.142E+00  0.142E+00
  -7.910  0.370E+00  0.989E-01  0.136E+00  0.136E+00
  -7.900  0.348E+00  0.895E-01  0.129E+00  0.129E+00
  -7.890  0.329E+00  0.834E-01  0.123E+00  0.123E+00
  -7.880  0.314E+00  0.811E-01  0.117E+00  0.117E+00
  -7.870  0.304E+00  0.832E-01  0.111E+00  0.111E+00
  -7.860  0.301E+00  0.896E-01  0.105E+00  0.105E+00
  -7.850  0.304E+00  0.100E+00  0.102E+00  0.102E+00
  -7.840  0.315E+00  0.114E+00  0.101E+00  0.101E+00
  -7.830  0.335E+00  0.130E+00  0.102E+00  0.102E+00
  -7.820  0.360E+00  0.146E+00  0.107E+00  0.107E+00
  -7.810  0.388E+00  0.161E+00  0.113E+00  0.113E+00
  -7.800  0.415E+00  0.173E+00  0.121E+00  0.121E+00
  -7.790  0.437E+00  0.180E+00  0.128E+00  0.128E+00
  -7.780  0.452E+00  0.183E+00  0.135E+00  0.135E+00
  -7.770  0.456E+00  0.179E+00  0.138E+00  0.138E+00
  -7.760  0.451E+00  0.172E+00  0.140E+00  0.140E+00
  -7.750  0.438E+00  0.162E+00  0.138E+00  0.138E+00
  -7.740  0.420E+00  0.151E+00  0.135E+00  0.135E+00
  -7.730  0.400E+00  0.140E+00  0.130E+00  0.130E+00
  -7.720  0.380E+00  0.131E+00  0.125E+00  0.125E+00
  -7.710  0.364E+00  0.124E+00  0.120E+00  0.120E+00
  -7.700  0.352E+00  0.118E+00  0.117E+00  0.117E+00
  -7.690  0.344E+00  0.112E+00  0.116E+00  0.116E+00
  -7.680  0.341E+00  0.107E+00  0.117E+00  0.117E+00
  -7.670  0.341E+00  0.101E+00  0.120E+00  0.120E+00
  -7.660  0.343E+00  0.958E-01  0.123E+00  0.123E+00
  -7.650  0.345E+00  0.911E-01  0.127E+00  0.127E+00
  -7.640  0.345E+00  0.883E-01  0.128E+00  0.128E+00
  -7.630  0.343E+00  0.884E-01  0.127E+00  0.127E+00
  -7.620  0.339E+00  0.924E-01  0.123E+00  0.123E+00
  -7.610  0.333E+00  0.101E+00  0.116E+00  0.116E+00
  -7.600  0.327E+00  0.113E+00  0.107E+00  0.107E+00
  -7.590  0.326E+00  0.129E+00  0.986E-01  0.986E-01
  -7.580  0.331E+00  0.146E+00  0.921E-01  0.921E-01
  -7.570  0.343E+00  0.164E+00  0.896E-01  0.896E-01
  -7.560  0.364E+00  0.180E+00  0.918E-01  0.918E-01
  -7.550  0.389E+00  0.192E+00  0.987E-01  0.987E-01
  -7.540  0.416E+00  0.198E+00  0.109E+00  0.109E+00
  -7.530  0.438E+00  0.197E+00  0.120E+00  0.120E+00
  -7.520  0.451E+00  0.189E+00  0.131E+00  0.131E+00
  -7.510  0.453E+00  0.176E+00  0.139E+00  0.139E+00
  -7.500  0.442E+00  0.158E+00  0.142E+00  0.142E+00
  -7.490  0.421E+00  0.140E+00  0.140E+00  0.140E+00
  -7.480  0.393E+00  0.123E+00  0.135E+00  0.135E+00
  -7.470  0.361E+00  0.110E+00  0.126E+00  0.126E+00
  -7.460  0.331E+00  0.101E+00  0.115E+00  0.115E+00
  -7.450  0.304E+00  0.967E-01  0.104E+00  0.104E+00
  -7.440  0.283E+00  0.961E-01  0.932E-01  0.932E-01
  -7.430  0.267E+00  0.978E-01  0.847E-01  0.847E-01
  -7.420  0.258E+00  0.100E+00  0.788E-01  0.788E-01
  -7.410  0.253E+00  0.102E+00  0.756E-01  0.756E-01
  -7.400  0.254E+00  0.103E+00  0.753E-01  0.753E-01
  -7.390  0.259E+00  0.104E+00  0.777E-01  0.777E-01
  -7.380  0.270E+00  0.105E+00  0.826E-01  0.826E-01
  -7.370  0.286E+00  0.107E+00  0.896E-01  0.896E-01
  -7.360  0.307E+00  0.111E+00  0.979E-01  0.979E-01
  -7.350  0.332E+00  0.119E+00  0.107E+00  0.107E+00
  -7.340  0.360E+00  0.129E+00  0.116E+00  0.116E+00
  -7.330  0.387E+00  0.142E+00  0.123E+00  0.123E+00
  -7.320  0.411E+00  0.156E+00  0.127E+00  0.127E+00
  -7.310  0.427E+00  0.169E+00  0.129E+00  0.129E+00
  -7.300  0.435E+00  0.181E+00  0.127E+00  0.127E+00
  -7.290  0.432E+00  0.190E+00  0.121E+00  0.121E+00
  -7.280  0.420E+00  0.194E+00  0.113E+00  0.113E+00
  -7.270  0.400E+00  0.194E+00  0.103E+00  0.103E+00
  -7.260  0.375E+00  0.189E+00  0.928E-01  0.928E-01
  -7.250  0.348E+00  0.180E+00  0.840E-01  0.840E-01
  -7.240  0.321E+00  0.166E+00  0.774E-01  0.774E-01
  -7.230  0.298E+00  0.150E+00  0.738E-01  0.738E-01
  -7.220  0.279E+00  0.133E+00  0.730E-01  0.730E-01
  -7.210  0.266E+00  0.116E+00  0.750E-01  0.750E-01
  -7.200  0.259E+00  0.101E+00  0.791E-01  0.791E-01
  -7.190  0.259E+00  0.894E-01  0.847E-01  0.847E-01
  -7.180  0.265E+00  0.822E-01  0.913E-01  0.913E-01
  -7.170  0.277E+00  0.797E-01  0.984E-01  0.984E-01
  -7.160  0.293E+00  0.816E-01  0.106E+00  0.106E+00
  -7.150  0.312E+00  0.868E-01  0.112E+00  0.112E+00
  -7.140  0.331E+00  0.942E-01  0.118E+00  0.118E+00
  -7.130  0.348E+00  0.103E+00  0.123E+00  0.123E+00
  -7.120  0.361E+00  0.111E+00  0.125E+00  0.125E+00
  -7.110  0.368E+00  0.119E+00  0.125E+00  0.125E+00
  -7.100  0.370E+00  0.127E+00  0.121E+00  0.121E+00
  -7.090  0.367E+00  0.135E+00  0.116E+00  0.116E+00
  -7.080  0.361E+00  0.144E+00  0.108E+00  0.108E+00
  -7.070  0.353E+00  0.154E+00  0.994E-01  0.994E-01
  -7.060  0.345E+00  0.164E+00  0.906E-01  0.906E-01
  -7.050  0.337E+00  0.172E+00  0.824E-01  0.824E-01
  -7.040  0.331E+00  0.179E+00  0.757E-01  0.757E-01
  -7.030  0.325E+00  0.184E+00  0.706E-01  0.706E-01
  -7.020  0.319E+00  0.184E+00  0.674E-01  0.674E-01
  -7.010  0.314E+00  0.182E+00  0.660E-01  0.660E-01
  -7.000  0.309E+00  0.177E+00  0.660E-01  0.660E-01
  -6.990  0.305E+00  0.170E+00  0.674E-01  0.674E-01
  -6.980  0.303E+00  0.163E+00  0.699E-01  0.699E-01
  -6.970  0.304E+00  0.157E+00  0.735E-01  0.735E-01
  -6.960  0.306E+00  0.150E+00  0.780E-01  0.780E-01
  -6.950  0.309E+00  0.143E+00  0.832E-01  0.832E-01
  -6.940  0.312E+00  0.135E+00  0.885E-01  0.885E-01
  -6.930  0.312E+00  0.126E+00  0.933E-01  0.933E-01
  -6.920  0.309E+00  0.115E+00  0.968E-01  0.968E-01
  -6.910  0.300E+00  0.103E+00  0.985E-01  0.985E-01
  -6.900  0.288E+00  0.922E-01  0.978E-01  0.978E-01
  -6.890  0.273E+00  0.826E-01  0.951E-01  0.951E-01
  -6.880  0.258E+00  0.764E-01  0.910E-01  0.910E-01
  -6.870  0.248E+00  0.745E-01  0.867E-01  0.867E-01
  -6.860  0.245E+00  0.777E-01  0.835E-01  0.835E-01
  -6.850  0.251E+00  0.857E-01  0.826E-01  0.826E-01
  -6.840  0.267E+00  0.977E-01  0.844E-01  0.844E-01
  -6.830  0.290E+00  0.113E+00  0.888E-01  0.888E-01
  -6.820  0.319E+00  0.129E+00  0.950E-01  0.950E-01
  -6.810  0.349E+00  0.146E+00  0.101E+00  0.101E+00
  -6.800  0.376E+00  0.162E+00  0.107E+00  0.107E+00
  -6.790  0.397E+00  0.176E+00  0.110E+00  0.110E+00
  -6.780  0.410E+00  0.188E+00  0.111E+00  0.111E+00
  -6.770  0.415E+00  0.197E+00  0.109E+00  0.109E+00
  -6.760  0.411E+00  0.201E+00  0.105E+00  0.105E+00
  -6.750  0.402E+00  0.201E+00  0.100E+00  0.100E+00
  -6.740  0.387E+00  0.197E+00  0.951E-01  0.951E-01
  -6.730  0.369E+00  0.188E+00  0.902E-01  0.902E-01
  -6.720  0.348E+00  0.176E+00  0.857E-01  0.857E-01
  -6.710  0.325E+00  0.163E+00  0.812E-01  0.812E-01
  -6.700  0.301E+00  0.149E+00  0.762E-01  0.762E-01
  -6.690  0.278E+00  0.137E+00  0.704E-01  0.704E-01
  -6.680  0.256E+00  0.128E+00  0.638E-01  0.638E-01
  -6.670  0.237E+00  0.123E+00  0.569E-01  0.569E-01
  -6.660  0.222E+00  0.121E+00  0.502E-01  0.502E-01
  -6.650  0.212E+00  0.122E+00  0.449E-01  0.449E-01
  -6.640  0.207E+00  0.123E+00  0.418E-01  0.418E-01
  -6.630  0.206E+00  0.124E+00  0.413E-01  0.413E-01
  -6.620  0.209E+00  0.122E+00  0.436E-01  0.436E-01
  -6.610  0.215E+00  0.117E+00  0.486E-01  0.486E-01
  -6.600  0.221E+00  0.110E+00  0.558E-01  0.558E-01
  -6.590  0.229E+00  0.100E+00  0.646E-01  0.646E-01
  -6.580  0.239E+00  0.907E-01  0.744E-01  0.744E-01
  -6.570  0.253E+00  0.835E-01  0.848E-01  0.848E-01
  -6.560  0.271E+00  0.807E-01  0.954E-01  0.954E-01
  -6.550  0.295E+00  0.838E-01  0.106E+00  0.106E+00
  -6.540  0.324E+00  0.933E-01  0.115E+00  0.115E+00
  -6.530  0.357E+00  0.109E+00  0.124E+00  0.124E+00
  -6.520  0.390E+00  0.129E+00  0.130E+00  0.130E+00
  -6.510  0.420E+00  0.152E+00  0.134E+00  0.134E+00
  -6.500  0.442E+00  0.174E+00  0.134E+00  0.134E+00
  -6.490  0.454E+00  0.194E+00  0.130E+00  0.130E+00
  -6.480  0.452E+00  0.210E+00  0.121E+00  0.121E+00
  -6.470  0.436E+00  0.219E+00  0.109E+00  0.109E+00
  -6.460  0.409E+00  0.222E+00  0.931E-01  0.931E-01
  -6.450  0.372E+00  0.219E+00  0.764E-01  0.764E-01
  -6.440  0.330E+00  0.210E+00  0.602E-01  0.602E-01
  -6.430  0.289E+00  0.196E+00  0.461E-01  0.461E-01
  -6.420  0.251E+00  0.180E+00  0.354E-01  0.354E-01
  -6.410  0.221E+00  0.163E+00  0.288E-01  0.288E-01
  -6.400  0.198E+00  0.146E+00  0.263E-01  0.263E-01
  -6.390  0.185E+00  0.130E+00  0.273E-01  0.273E-01
  -6.380  0.179E+00  0.117E+00  0.309E-01  0.309E-01
  -6.370  0.180E+00  0.108E+00  0.363E-01  0.363E-01
  -6.360  0.187E+00  0.102E+00  0.427E-01  0.427E-01
  -6.350  0.200E+00  0.999E-01  0.500E-01  0.500E-01
  -6.340  0.218E+00  0.102E+00  0.580E-01  0.580E-01
  -6.330  0.240E+00  0.106E+00  0.669E-01  0.669E-01
  -6.320  0.266E+00  0.112E+00  0.770E-01  0.770E-01
  -6.310  0.293E+00  0.118E+00  0.879E-01  0.879E-01
  -6.300  0.319E+00  0.122E+00  0.989E-01  0.989E-01
  -6.290  0.341E+00  0.123E+00  0.109E+00  0.109E+00
  -6.280  0.354E+00  0.121E+00  0.117E+00  0.117E+00
  -6.270  0.358E+00  0.116E+00  0.121E+00  0.121E+00
  -6.260  0.351E+00  0.110E+00  0.120E+00  0.120E+00
  -6.250  0.335E+00  0.105E+00  0.115E+00  0.115E+00
  -6.240  0.314E+00  0.103E+00  0.105E+00  0.105E+00
  -6.230  0.293E+00  0.107E+00  0.932E-01  0.932E-01
  -6.220  0.276E+00  0.116E+00  0.798E-01  0.798E-01
  -6.210  0.266E+00  0.132E+00  0.670E-01  0.670E-01
  -6.200  0.265E+00  0.152E+00  0.563E-01  0.563E-01
  -6.190  0.272E+00  0.174E+00  0.487E-01  0.487E-01
  -6.180  0.284E+00  0.196E+00  0.444E-01  0.444E-01
  -6.170  0.299E+00  0.213E+00  0.431E-01  0.431E-01
  -6.160  0.312E+00  0.224E+00  0.440E-01  0.440E-01
  -6.150  0.321E+00  0.228E+00  0.464E-01  0.464E-01
  -6.140  0.323E+00  0.224E+00  0.494E-01  0.494E-01
  -6.130  0.320E+00  0.215E+00  0.527E-01  0.527E-01
  -6.120  0.314E+00  0.201E+00  0.562E-01  0.562E-01
  -6.110  0.306E+00  0.185E+00  0.603E-01  0.603E-01
  -6.100  0.300E+00  0.169E+00  0.655E-01  0.655E-01
  -6.090  0.297E+00  0.153E+00  0.721E-01  0.721E-01
  -6.080  0.298E+00  0.138E+00  0.798E-01  0.798E-01
  -6.070  0.302E+00  0.125E+00  0.882E-01  0.882E-01
  -6.060  0.306E+00  0.114E+00  0.960E-01  0.960E-01
  -6.050  0.309E+00  0.105E+00  0.102E+00  0.102E+00
  -6.040  0.308E+00  0.982E-01  0.105E+00  0.105E+00
  -6.030  0.301E+00  0.934E-01  0.104E+00  0.104E+00
  -6.020  0.288E+00  0.912E-01  0.986E-01  0.986E-01
  -6.010  0.271E+00  0.920E-01  0.896E-01  0.896E-01
  -6.000  0.252E+00  0.958E-01  0.780E-01  0.780E-01
  -5.990  0.233E+00  0.102E+00  0.652E-01  0.652E-01
  -5.980  0.215E+00  0.110E+00  0.526E-01  0.526E-01
  -5.970  0.202E+00  0.119E+00  0.416E-01  0.416E-01
  -5.960  0.193E+00  0.126E+00  0.332E-01  0.332E-01
  -5.950  0.188E+00  0.132E+00  0.280E-01  0.280E-01
  -5.940  0.188E+00  0.136E+00  0.262E-01  0.262E-01
  -5.930  0.194E+00  0.138E+00  0.280E-01  0.280E-01
  -5.920  0.205E+00  0.139E+00  0.330E-01  0.330E-01
  -5.910  0.223E+00  0.141E+00  0.409E-01  0.409E-01
  -5.900  0.248E+00  0.146E+00  0.513E-01  0.513E-01
  -5.890  0.281E+00  0.154E+00  0.635E-01  0.635E-01
  -5.880  0.318E+00  0.165E+00  0.765E-01  0.765E-01
  -5.870  0.358E+00  0.179E+00  0.895E-01  0.895E-01
  -5.860  0.396E+00  0.194E+00  0.101E+00  0.101E+00
  -5.850  0.427E+00  0.207E+00  0.110E+00  0.110E+00
  -5.840  0.447E+00  0.215E+00  0.116E+00  0.116E+00
  -5.830  0.452E+00  0.218E+00  0.117E+00  0.117E+00
  -5.820  0.442E+00  0.216E+00  0.113E+00  0.113E+00
  -5.810  0.418E+00  0.209E+00  0.105E+00  0.105E+00
  -5.800  0.382E+00  0.198E+00  0.924E-01  0.924E-01
  -5.790  0.340E+00  0.184E+00  0.775E-01  0.775E-01
  -5.780  0.294E+00  0.171E+00  0.617E-01  0.617E-01
  -5.770  0.251E+00  0.158E+00  0.465E-01  0.465E-01
  -5.760  0.213E+00  0.146E+00  0.335E-01  0.335E-01
  -5.750  0.184E+00  0.136E+00  0.238E-01  0.238E-01
  -5.740  0.163E+00  0.127E+00  0.181E-01  0.181E-01
  -5.730  0.152E+00  0.119E+00  0.166E-01  0.166E-01
  -5.720  0.149E+00  0.111E+00  0.190E-01  0.190E-01
  -5.710  0.154E+00  0.104E+00  0.250E-01  0.250E-01
  -5.700  0.166E+00  0.981E-01  0.337E-01  0.337E-01
  -5.690  0.182E+00  0.932E-01  0.446E-01  0.446E-01
  -5.680  0.204E+00  0.902E-01  0.567E-01  0.567E-01
  -5.670  0.228E+00  0.899E-01  0.691E-01  0.691E-01
  -5.660  0.254E+00  0.929E-01  0.808E-01  0.808E-01
  -5.650  0.281E+00  0.993E-01  0.907E-01  0.907E-01
  -5.640  0.305E+00  0.109E+00  0.979E-01  0.979E-01
  -5.630  0.325E+00  0.121E+00  0.102E+00  0.102E+00
  -5.620  0.338E+00  0.135E+00  0.102E+00  0.102E+00
  -5.610  0.345E+00  0.148E+00  0.985E-01  0.985E-01
  -5.600  0.344E+00  0.160E+00  0.920E-01  0.920E-01
  -5.590  0.337E+00  0.170E+00  0.832E-01  0.832E-01
  -5.580  0.324E+00  0.178E+00  0.731E-01  0.731E-01
  -5.570  0.310E+00  0.185E+00  0.628E-01  0.628E-01
  -5.560  0.296E+00  0.190E+00  0.531E-01  0.531E-01
  -5.550  0.285E+00  0.195E+00  0.451E-01  0.451E-01
  -5.540  0.278E+00  0.200E+00  0.392E-01  0.392E-01
  -5.530  0.275E+00  0.204E+00  0.358E-01  0.358E-01
  -5.520  0.277E+00  0.207E+00  0.351E-01  0.351E-01
  -5.510  0.282E+00  0.208E+00  0.370E-01  0.370E-01
  -5.500  0.289E+00  0.207E+00  0.410E-01  0.410E-01
  -5.490  0.297E+00  0.203E+00  0.466E-01  0.466E-01
  -5.480  0.303E+00  0.197E+00  0.531E-01  0.531E-01
  -5.470  0.308E+00  0.189E+00  0.596E-01  0.596E-01
  -5.460  0.310E+00  0.179E+00  0.653E-01  0.653E-01
  -5.450  0.308E+00  0.169E+00  0.696E-01  0.696E-01
  -5.440  0.304E+00  0.160E+00  0.721E-01  0.721E-01
  -5.430  0.296E+00  0.151E+00  0.726E-01  0.726E-01
  -5.420  0.286E+00  0.143E+00  0.714E-01  0.714E-01
  -5.410  0.274E+00  0.135E+00  0.690E-01  0.690E-01
  -5.400  0.261E+00  0.129E+00  0.661E-01  0.661E-01
  -5.390  0.248E+00  0.122E+00  0.631E-01  0.631E-01
  -5.380  0.237E+00  0.116E+00  0.605E-01  0.605E-01
  -5.370  0.227E+00  0.110E+00  0.587E-01  0.587E-01
  -5.360  0.219E+00  0.104E+00  0.576E-01  0.576E-01
  -5.350  0.213E+00  0.984E-01  0.573E-01  0.573E-01
  -5.340  0.210E+00  0.949E-01  0.574E-01  0.574E-01
  -5.330  0.210E+00  0.938E-01  0.579E-01  0.579E-01
  -5.320  0.213E+00  0.959E-01  0.586E-01  0.586E-01
  -5.310  0.221E+00  0.102E+00  0.594E-01  0.594E-01
  -5.300  0.232E+00  0.112E+00  0.600E-01  0.600E-01
  -5.290  0.247E+00  0.126E+00  0.603E-01  0.603E-01
  -5.280  0.263E+00  0.143E+00  0.601E-01  0.601E-01
  -5.270  0.280E+00  0.161E+00  0.591E-01  0.591E-01
  -5.260  0.294E+00  0.179E+00  0.574E-01  0.574E-01
  -5.250  0.305E+00  0.195E+00  0.551E-01  0.551E-01
  -5.240  0.313E+00  0.208E+00  0.525E-01  0.525E-01
  -5.230  0.317E+00  0.217E+00  0.501E-01  0.501E-01
  -5.220  0.319E+00  0.222E+00  0.486E-01  0.486E-01
  -5.210  0.321E+00  0.224E+00  0.485E-01  0.485E-01
  -5.200  0.322E+00  0.223E+00  0.499E-01  0.499E-01
  -5.190  0.325E+00  0.220E+00  0.528E-01  0.528E-01
  -5.180  0.329E+00  0.215E+00  0.569E-01  0.569E-01
  -5.170  0.333E+00  0.210E+00  0.613E-01  0.613E-01
  -5.160  0.335E+00  0.205E+00  0.653E-01  0.653E-01
  -5.150  0.334E+00  0.199E+00  0.678E-01  0.678E-01
  -5.140  0.329E+00  0.192E+00  0.683E-01  0.683E-01
  -5.130  0.318E+00  0.185E+00  0.666E-01  0.666E-01
  -5.120  0.303E+00  0.177E+00  0.628E-01  0.628E-01
  -5.110  0.284E+00  0.169E+00  0.577E-01  0.577E-01
  -5.100  0.266E+00  0.161E+00  0.524E-01  0.524E-01
  -5.090  0.249E+00  0.153E+00  0.479E-01  0.479E-01
  -5.080  0.236E+00  0.146E+00  0.452E-01  0.452E-01
  -5.070  0.228E+00  0.139E+00  0.447E-01  0.447E-01
  -5.060  0.225E+00  0.132E+00  0.462E-01  0.462E-01
  -5.050  0.225E+00  0.126E+00  0.493E-01  0.493E-01
  -5.040  0.227E+00  0.120E+00  0.531E-01  0.531E-01
  -5.030  0.228E+00  0.115E+00  0.566E-01  0.566E-01
  -5.020  0.228E+00  0.110E+00  0.590E-01  0.590E-01
  -5.010  0.226E+00  0.106E+00  0.599E-01  0.599E-01
  -5.000  0.223E+00  0.104E+00  0.593E-01  0.593E-01
  -4.990  0.220E+00  0.105E+00  0.575E-01  0.575E-01
  -4.980  0.218E+00  0.108E+00  0.550E-01  0.550E-01
  -4.970  0.220E+00  0.116E+00  0.523E-01  0.523E-01
  -4.960  0.226E+00  0.126E+00  0.498E-01  0.498E-01
  -4.950  0.236E+00  0.140E+00  0.476E-01  0.476E-01
  -4.940  0.248E+00  0.157E+00  0.455E-01  0.455E-01
  -4.930  0.261E+00  0.174E+00  0.434E-01  0.434E-01
  -4.920  0.273E+00  0.191E+00  0.409E-01  0.409E-01
  -4.910  0.282E+00  0.207E+00  0.375E-01  0.375E-01
  -4.900  0.287E+00  0.220E+00  0.333E-01  0.333E-01
  -4.890  0.287E+00  0.230E+00  0.283E-01  0.283E-01
  -4.880  0.282E+00  0.237E+00  0.226E-01  0.226E-01
  -4.870  0.274E+00  0.241E+00  0.167E-01  0.167E-01
  -4.860  0.264E+00  0.242E+00  0.110E-01  0.110E-01
  -4.850  0.253E+00  0.241E+00  0.587E-02  0.587E-02
  -4.840  0.242E+00  0.239E+00  0.172E-02  0.172E-02
  -4.830  0.232E+00  0.235E+00 -0.135E-02 -0.135E-02
  -4.820  0.222E+00  0.229E+00 -0.332E-02 -0.332E-02
  -4.810  0.213E+00  0.221E+00 -0.431E-02 -0.431E-02
  -4.800  0.203E+00  0.212E+00 -0.452E-02 -0.452E-02
  -4.790  0.193E+00  0.202E+00 -0.419E-02 -0.419E-02
  -4.780  0.183E+00  0.190E+00 -0.356E-02 -0.356E-02
  -4.770  0.173E+00  0.179E+00 -0.282E-02 -0.282E-02
  -4.760  0.163E+00  0.168E+00 -0.210E-02 -0.210E-02
  -4.750  0.154E+00  0.157E+00 -0.147E-02 -0.147E-02
  -4.740  0.147E+00  0.149E+00 -0.984E-03 -0.984E-03
  -4.730  0.140E+00  0.141E+00 -0.625E-03 -0.625E-03
  -4.720  0.135E+00  0.135E+00 -0.378E-03 -0.378E-03
  -4.710  0.131E+00  0.131E+00 -0.218E-03 -0.218E-03
  -4.700  0.128E+00  0.128E+00 -0.120E-03 -0.120E-03
  -4.690  0.126E+00  0.126E+00 -0.635E-04 -0.635E-04
  -4.680  0.126E+00  0.126E+00 -0.320E-04 -0.320E-04
  -4.670  0.127E+00  0.127E+00 -0.154E-04 -0.154E-04
  -4.660  0.129E+00  0.129E+00 -0.712E-05 -0.712E-05
  -4.650  0.133E+00  0.133E+00 -0.315E-05 -0.315E-05
  -4.640  0.138E+00  0.138E+00 -0.133E-05 -0.133E-05
  -4.630  0.144E+00  0.144E+00 -0.539E-06 -0.539E-06
  -4.620  0.149E+00  0.149E+00 -0.209E-06 -0.209E-06
  -4.610  0.156E+00  0.156E+00 -0.775E-07 -0.775E-07
  -4.600  0.163E+00  0.163E+00 -0.275E-07 -0.275E-07
  -4.590  0.173E+00  0.173E+00 -0.938E-08 -0.938E-08
  -4.580  0.185E+00  0.185E+00 -0.300E-08 -0.300E-08
  -4.570  0.201E+00  0.201E+00 -0.936E-09 -0.936E-09
  -4.560  0.220E+00  0.220E+00 -0.226E-09 -0.226E-09
  -4.550  0.242E+00  0.242E+00 -0.615E-10 -0.615E-10
  -4.540  0.264E+00  0.264E+00  0.665E-11  0.665E-11
  -4.530  0.284E+00  0.284E+00  0.732E-11  0.732E-11
  -4.520  0.298E+00  0.298E+00  0.776E-11  0.776E-11
  -4.510  0.306E+00  0.306E+00  0.796E-11  0.796E-11
  -4.500  0.305E+00  0.305E+00  0.791E-11  0.791E-11
  -4.490  0.295E+00  0.295E+00  0.766E-11  0.766E-11
  -4.480  0.280E+00  0.280E+00  0.729E-11  0.729E-11
  -4.470  0.260E+00  0.260E+00  0.685E-11  0.685E-11
  -4.460  0.240E+00  0.240E+00  0.639E-11  0.639E-11
  -4.450  0.221E+00  0.221E+00  0.593E-11  0.593E-11
  -4.440  0.205E+00  0.205E+00  0.547E-11  0.547E-11
  -4.430  0.194E+00  0.194E+00  0.500E-11  0.500E-11
  -4.420  0.187E+00  0.187E+00  0.450E-11  0.450E-11
  -4.410  0.183E+00  0.183E+00  0.398E-11  0.398E-11
  -4.400  0.181E+00  0.181E+00  0.345E-11  0.345E-11
  -4.390  0.180E+00  0.180E+00  0.295E-11  0.295E-11
  -4.380  0.180E+00  0.180E+00  0.253E-11  0.253E-11
  -4.370  0.179E+00  0.179E+00  0.222E-11  0.222E-11
  -4.360  0.177E+00  0.177E+00  0.205E-11  0.205E-11
  -4.350  0.175E+00  0.175E+00  0.203E-11  0.203E-11
  -4.340  0.172E+00  0.172E+00  0.216E-11  0.216E-11
  -4.330  0.170E+00  0.170E+00  0.245E-11  0.245E-11
  -4.320  0.169E+00  0.169E+00  0.292E-11  0.292E-11
  -4.310  0.170E+00  0.170E+00  0.362E-11  0.362E-11
  -4.300  0.172E+00  0.172E+00  0.462E-11  0.462E-11
  -4.290  0.178E+00  0.178E+00  0.604E-11  0.604E-11
  -4.280  0.186E+00  0.186E+00  0.800E-11  0.800E-11
  -4.270  0.197E+00  0.197E+00  0.106E-10  0.106E-10
  -4.260  0.213E+00  0.213E+00  0.140E-10  0.140E-10
  -4.250  0.233E+00  0.233E+00  0.183E-10  0.183E-10
  -4.240  0.259E+00  0.259E+00  0.232E-10  0.232E-10
  -4.230  0.289E+00  0.289E+00  0.285E-10  0.285E-10
  -4.220  0.322E+00  0.322E+00  0.339E-10  0.339E-10
  -4.210  0.357E+00  0.357E+00  0.389E-10  0.389E-10
  -4.200  0.390E+00  0.390E+00  0.429E-10  0.429E-10
  -4.190  0.419E+00  0.419E+00  0.455E-10  0.455E-10
  -4.180  0.441E+00  0.441E+00  0.464E-10  0.464E-10
  -4.170  0.454E+00  0.454E+00  0.455E-10  0.455E-10
  -4.160  0.457E+00  0.457E+00  0.432E-10  0.432E-10
  -4.150  0.452E+00  0.452E+00  0.400E-10  0.400E-10
  -4.140  0.440E+00  0.440E+00  0.365E-10  0.365E-10
  -4.130  0.422E+00  0.422E+00  0.333E-10  0.333E-10
  -4.120  0.399E+00  0.399E+00  0.307E-10  0.307E-10
  -4.110  0.371E+00  0.371E+00  0.288E-10  0.288E-10
  -4.100  0.339E+00  0.339E+00  0.275E-10  0.275E-10
  -4.090  0.303E+00  0.303E+00  0.264E-10  0.264E-10
  -4.080  0.263E+00  0.263E+00  0.251E-10  0.251E-10
  -4.070  0.219E+00  0.219E+00  0.233E-10  0.233E-10
  -4.060  0.174E+00  0.174E+00  0.209E-10  0.209E-10
  -4.050  0.131E+00  0.131E+00  0.180E-10  0.180E-10
  -4.040  0.926E-01  0.926E-01  0.149E-10  0.149E-10
  -4.030  0.619E-01  0.619E-01  0.119E-10  0.119E-10
  -4.020  0.408E-01  0.408E-01  0.965E-11  0.965E-11
  -4.010  0.297E-01  0.297E-01  0.829E-11  0.829E-11
  -4.000  0.283E-01  0.283E-01  0.812E-11  0.812E-11
  -3.990  0.351E-01  0.351E-01  0.924E-11  0.924E-11
  -3.980  0.481E-01  0.481E-01  0.116E-10  0.116E-10
  -3.970  0.658E-01  0.658E-01  0.152E-10  0.152E-10
  -3.960  0.867E-01  0.867E-01  0.196E-10  0.196E-10
  -3.950  0.110E+00  0.110E+00  0.247E-10  0.247E-10
  -3.940  0.137E+00  0.137E+00  0.298E-10  0.298E-10
  -3.930  0.166E+00  0.166E+00  0.346E-10  0.346E-10
  -3.920  0.199E+00  0.199E+00  0.385E-10  0.385E-10
  -3.910  0.235E+00  0.235E+00  0.412E-10  0.412E-10
  -3.900  0.274E+00  0.274E+00  0.422E-10  0.422E-10
  -3.890  0.313E+00  0.313E+00  0.417E-10  0.417E-10
  -3.880  0.348E+00  0.348E+00  0.397E-10  0.397E-10
  -3.870  0.375E+00  0.375E+00  0.366E-10  0.366E-10
  -3.860  0.389E+00  0.389E+00  0.330E-10  0.330E-10
  -3.850  0.387E+00  0.387E+00  0.294E-10  0.294E-10
  -3.840  0.367E+00  0.367E+00  0.265E-10  0.265E-10
  -3.830  0.330E+00  0.330E+00  0.247E-10  0.247E-10
  -3.820  0.280E+00  0.280E+00  0.245E-10  0.245E-10
  -3.810  0.223E+00  0.223E+00  0.259E-10  0.259E-10
  -3.800  0.166E+00  0.166E+00  0.289E-10  0.289E-10
  -3.790  0.114E+00  0.114E+00  0.330E-10  0.330E-10
  -3.780  0.722E-01  0.722E-01  0.375E-10  0.375E-10
  -3.770  0.431E-01  0.431E-01  0.417E-10  0.417E-10
  -3.760  0.265E-01  0.265E-01  0.445E-10  0.445E-10
  -3.750  0.203E-01  0.203E-01  0.453E-10  0.453E-10
  -3.740  0.218E-01  0.218E-01  0.438E-10  0.438E-10
  -3.730  0.280E-01  0.280E-01  0.398E-10  0.398E-10
  -3.720  0.364E-01  0.364E-01  0.339E-10  0.339E-10
  -3.710  0.456E-01  0.456E-01  0.270E-10  0.270E-10
  -3.700  0.548E-01  0.548E-01  0.199E-10  0.199E-10
  -3.690  0.637E-01  0.637E-01  0.137E-10  0.137E-10
  -3.680  0.725E-01  0.725E-01  0.890E-11  0.890E-11
  -3.670  0.814E-01  0.814E-01  0.595E-11  0.595E-11
  -3.660  0.905E-01  0.905E-01  0.478E-11  0.478E-11
  -3.650  0.998E-01  0.998E-01  0.511E-11  0.511E-11
  -3.640  0.109E+00  0.109E+00  0.647E-11  0.647E-11
  -3.630  0.119E+00  0.119E+00  0.834E-11  0.834E-11
  -3.620  0.129E+00  0.129E+00  0.103E-10  0.103E-10
  -3.610  0.138E+00  0.138E+00  0.120E-10  0.120E-10
  -3.600  0.149E+00  0.149E+00  0.133E-10  0.133E-10
  -3.590  0.159E+00  0.159E+00  0.143E-10  0.143E-10
  -3.580  0.170E+00  0.170E+00  0.150E-10  0.150E-10
  -3.570  0.181E+00  0.181E+00  0.158E-10  0.158E-10
  -3.560  0.192E+00  0.192E+00  0.167E-10  0.167E-10
  -3.550  0.203E+00  0.203E+00  0.182E-10  0.182E-10
  -3.540  0.213E+00  0.213E+00  0.202E-10  0.202E-10
  -3.530  0.220E+00  0.220E+00  0.226E-10  0.226E-10
  -3.520  0.221E+00  0.221E+00  0.253E-10  0.253E-10
  -3.510  0.217E+00  0.217E+00  0.278E-10  0.278E-10
  -3.500  0.205E+00  0.205E+00  0.298E-10  0.298E-10
  -3.490  0.187E+00  0.187E+00  0.307E-10  0.307E-10
  -3.480  0.162E+00  0.162E+00  0.304E-10  0.304E-10
  -3.470  0.133E+00  0.133E+00  0.287E-10  0.287E-10
  -3.460  0.102E+00  0.102E+00  0.258E-10  0.258E-10
  -3.450  0.739E-01  0.739E-01  0.220E-10  0.220E-10
  -3.440  0.501E-01  0.501E-01  0.179E-10  0.179E-10
  -3.430  0.329E-01  0.329E-01  0.141E-10  0.141E-10
  -3.420  0.230E-01  0.230E-01  0.110E-10  0.110E-10
  -3.410  0.203E-01  0.203E-01  0.900E-11  0.900E-11
  -3.400  0.235E-01  0.235E-01  0.809E-11  0.809E-11
  -3.390  0.308E-01  0.308E-01  0.815E-11  0.815E-11
  -3.380  0.402E-01  0.402E-01  0.889E-11  0.889E-11
  -3.370  0.499E-01  0.499E-01  0.999E-11  0.999E-11
  -3.360  0.589E-01  0.589E-01  0.112E-10  0.112E-10
  -3.350  0.665E-01  0.665E-01  0.122E-10  0.122E-10
  -3.340  0.728E-01  0.728E-01  0.131E-10  0.131E-10
  -3.330  0.781E-01  0.781E-01  0.138E-10  0.138E-10
  -3.320  0.828E-01  0.828E-01  0.145E-10  0.145E-10
  -3.310  0.873E-01  0.873E-01  0.150E-10  0.150E-10
  -3.300  0.914E-01  0.914E-01  0.155E-10  0.155E-10
  -3.290  0.950E-01  0.950E-01  0.157E-10  0.157E-10
  -3.280  0.981E-01  0.981E-01  0.157E-10  0.157E-10
  -3.270  0.101E+00  0.101E+00  0.152E-10  0.152E-10
  -3.260  0.103E+00  0.103E+00  0.143E-10  0.143E-10
  -3.250  0.105E+00  0.105E+00  0.131E-10  0.131E-10
  -3.240  0.109E+00  0.109E+00  0.117E-10  0.117E-10
  -3.230  0.114E+00  0.114E+00  0.103E-10  0.103E-10
  -3.220  0.122E+00  0.122E+00  0.903E-11  0.903E-11
  -3.210  0.130E+00  0.130E+00  0.810E-11  0.810E-11
  -3.200  0.139E+00  0.139E+00  0.758E-11  0.758E-11
  -3.190  0.147E+00  0.147E+00  0.748E-11  0.748E-11
  -3.180  0.152E+00  0.152E+00  0.773E-11  0.773E-11
  -3.170  0.153E+00  0.153E+00  0.821E-11  0.821E-11
  -3.160  0.149E+00  0.149E+00  0.876E-11  0.876E-11
  -3.150  0.139E+00  0.139E+00  0.922E-11  0.922E-11
  -3.140  0.124E+00  0.124E+00  0.948E-11  0.948E-11
  -3.130  0.105E+00  0.105E+00  0.946E-11  0.946E-11
  -3.120  0.830E-01  0.830E-01  0.923E-11  0.923E-11
  -3.110  0.610E-01  0.610E-01  0.897E-11  0.897E-11
  -3.100  0.410E-01  0.410E-01  0.897E-11  0.897E-11
  -3.090  0.250E-01  0.250E-01  0.956E-11  0.956E-11
  -3.080  0.142E-01  0.142E-01  0.111E-10  0.111E-10
  -3.070  0.918E-02  0.918E-02  0.137E-10  0.137E-10
  -3.060  0.973E-02  0.973E-02  0.175E-10  0.175E-10
  -3.050  0.149E-01  0.149E-01  0.224E-10  0.224E-10
  -3.040  0.231E-01  0.231E-01  0.278E-10  0.278E-10
  -3.030  0.328E-01  0.328E-01  0.331E-10  0.331E-10
  -3.020  0.425E-01  0.425E-01  0.376E-10  0.376E-10
  -3.010  0.507E-01  0.507E-01  0.407E-10  0.407E-10
  -3.000  0.570E-01  0.570E-01  0.419E-10  0.419E-10
  -2.990  0.612E-01  0.612E-01  0.410E-10  0.410E-10
  -2.980  0.637E-01  0.637E-01  0.384E-10  0.384E-10
  -2.970  0.656E-01  0.656E-01  0.345E-10  0.345E-10
  -2.960  0.677E-01  0.677E-01  0.299E-10  0.299E-10
  -2.950  0.707E-01  0.707E-01  0.253E-10  0.253E-10
  -2.940  0.750E-01  0.750E-01  0.212E-10  0.212E-10
  -2.930  0.803E-01  0.803E-01  0.178E-10  0.178E-10
  -2.920  0.860E-01  0.860E-01  0.150E-10  0.150E-10
  -2.910  0.913E-01  0.913E-01  0.128E-10  0.128E-10
  -2.900  0.954E-01  0.954E-01  0.109E-10  0.109E-10
  -2.890  0.977E-01  0.977E-01  0.910E-11  0.910E-11
  -2.880  0.982E-01  0.982E-01  0.738E-11  0.738E-11
  -2.870  0.969E-01  0.969E-01  0.574E-11  0.574E-11
  -2.860  0.941E-01  0.941E-01  0.429E-11  0.429E-11
  -2.850  0.901E-01  0.901E-01  0.314E-11  0.314E-11
  -2.840  0.849E-01  0.849E-01  0.237E-11  0.237E-11
  -2.830  0.787E-01  0.787E-01  0.200E-11  0.200E-11
  -2.820  0.718E-01  0.718E-01  0.201E-11  0.201E-11
  -2.810  0.645E-01  0.645E-01  0.236E-11  0.236E-11
  -2.800  0.575E-01  0.575E-01  0.297E-11  0.297E-11
  -2.790  0.514E-01  0.514E-01  0.378E-11  0.378E-11
  -2.780  0.469E-01  0.469E-01  0.472E-11  0.472E-11
  -2.770  0.443E-01  0.443E-01  0.571E-11  0.571E-11
  -2.760  0.433E-01  0.433E-01  0.665E-11  0.665E-11
  -2.750  0.435E-01  0.435E-01  0.739E-11  0.739E-11
  -2.740  0.437E-01  0.437E-01  0.783E-11  0.783E-11
  -2.730  0.431E-01  0.431E-01  0.786E-11  0.786E-11
  -2.720  0.408E-01  0.408E-01  0.745E-11  0.745E-11
  -2.710  0.367E-01  0.367E-01  0.661E-11  0.661E-11
  -2.700  0.312E-01  0.312E-01  0.548E-11  0.548E-11
  -2.690  0.250E-01  0.250E-01  0.420E-11  0.420E-11
  -2.680  0.194E-01  0.194E-01  0.298E-11  0.298E-11
  -2.670  0.156E-01  0.156E-01  0.198E-11  0.198E-11
  -2.660  0.143E-01  0.143E-01  0.134E-11  0.134E-11
  -2.650  0.160E-01  0.160E-01  0.110E-11  0.110E-11
  -2.640  0.207E-01  0.207E-01  0.127E-11  0.127E-11
  -2.630  0.277E-01  0.277E-01  0.176E-11  0.176E-11
  -2.620  0.362E-01  0.362E-01  0.247E-11  0.247E-11
  -2.610  0.450E-01  0.450E-01  0.327E-11  0.327E-11
  -2.600  0.531E-01  0.531E-01  0.406E-11  0.406E-11
  -2.590  0.597E-01  0.597E-01  0.477E-11  0.477E-11
  -2.580  0.645E-01  0.645E-01  0.540E-11  0.540E-11
  -2.570  0.676E-01  0.676E-01  0.598E-11  0.598E-11
  -2.560  0.694E-01  0.694E-01  0.659E-11  0.659E-11
  -2.550  0.705E-01  0.705E-01  0.732E-11  0.732E-11
  -2.540  0.715E-01  0.715E-01  0.824E-11  0.824E-11
  -2.530  0.726E-01  0.726E-01  0.935E-11  0.935E-11
  -2.520  0.735E-01  0.735E-01  0.106E-10  0.106E-10
  -2.510  0.736E-01  0.736E-01  0.118E-10  0.118E-10
  -2.500  0.720E-01  0.720E-01  0.127E-10  0.127E-10
  -2.490  0.681E-01  0.681E-01  0.132E-10  0.132E-10
  -2.480  0.614E-01  0.614E-01  0.130E-10  0.130E-10
  -2.470  0.521E-01  0.521E-01  0.121E-10  0.121E-10
  -2.460  0.410E-01  0.410E-01  0.106E-10  0.106E-10
  -2.450  0.291E-01  0.291E-01  0.856E-11  0.856E-11
  -2.440  0.177E-01  0.177E-01  0.626E-11  0.626E-11
  -2.430  0.782E-02  0.782E-02  0.397E-11  0.397E-11
  -2.420  0.238E-03  0.238E-03  0.194E-11  0.194E-11
  -2.410 -0.472E-02 -0.472E-02  0.326E-12  0.326E-12
  -2.400 -0.710E-02 -0.710E-02 -0.782E-12 -0.782E-12
  -2.390 -0.721E-02 -0.721E-02 -0.140E-11 -0.140E-11
  -2.380 -0.545E-02 -0.545E-02 -0.160E-11 -0.160E-11
  -2.370 -0.219E-02 -0.219E-02 -0.150E-11 -0.150E-11
  -2.360  0.231E-02  0.231E-02 -0.120E-11 -0.120E-11
  -2.350  0.791E-02  0.791E-02 -0.809E-12 -0.809E-12
  -2.340  0.145E-01  0.145E-01 -0.388E-12 -0.388E-12
  -2.330  0.219E-01  0.219E-01  0.188E-13  0.188E-13
  -2.320  0.299E-01  0.299E-01  0.388E-12  0.388E-12
  -2.310  0.379E-01  0.379E-01  0.708E-12  0.708E-12
  -2.300  0.452E-01  0.452E-01  0.970E-12  0.970E-12
  -2.290  0.512E-01  0.512E-01  0.117E-11  0.117E-11
  -2.280  0.550E-01  0.550E-01  0.129E-11  0.129E-11
  -2.270  0.562E-01  0.562E-01  0.133E-11  0.133E-11
  -2.260  0.548E-01  0.548E-01  0.131E-11  0.131E-11
  -2.250  0.510E-01  0.510E-01  0.122E-11  0.122E-11
  -2.240  0.458E-01  0.458E-01  0.110E-11  0.110E-11
  -2.230  0.399E-01  0.399E-01  0.957E-12  0.957E-12
  -2.220  0.343E-01  0.343E-01  0.821E-12  0.821E-12
  -2.210  0.295E-01  0.295E-01  0.706E-12  0.706E-12
  -2.200  0.258E-01  0.258E-01  0.615E-12  0.615E-12
  -2.190  0.229E-01  0.229E-01  0.546E-12  0.546E-12
  -2.180  0.205E-01  0.205E-01  0.489E-12  0.489E-12
  -2.170  0.182E-01  0.182E-01  0.433E-12  0.433E-12
  -2.160  0.155E-01  0.155E-01  0.368E-12  0.368E-12
  -2.150  0.124E-01  0.124E-01  0.294E-12  0.294E-12
  -2.140  0.889E-02  0.889E-02  0.211E-12  0.211E-12
  -2.130  0.541E-02  0.541E-02  0.127E-12  0.127E-12
  -2.120  0.228E-02  0.228E-02  0.513E-13  0.513E-13
  -2.110 -0.151E-03 -0.151E-03 -0.942E-14 -0.942E-14
  -2.100 -0.168E-02 -0.168E-02 -0.507E-13 -0.507E-13
  -2.090 -0.221E-02 -0.221E-02 -0.716E-13 -0.716E-13
  -2.080 -0.178E-02 -0.178E-02 -0.745E-13 -0.745E-13
  -2.070 -0.467E-03 -0.467E-03 -0.634E-13 -0.634E-13
  -2.060  0.163E-02  0.163E-02 -0.424E-13 -0.424E-13
  -2.050  0.441E-02  0.441E-02 -0.156E-13 -0.156E-13
  -2.040  0.776E-02  0.776E-02  0.141E-13  0.141E-13
  -2.030  0.116E-01  0.116E-01  0.445E-13  0.445E-13
  -2.020  0.155E-01  0.155E-01  0.740E-13  0.740E-13
  -2.010  0.194E-01  0.194E-01  0.101E-12  0.101E-12
  -2.000  0.228E-01  0.228E-01  0.123E-12  0.123E-12
  -1.990  0.252E-01  0.252E-01  0.139E-12  0.139E-12
  -1.980  0.264E-01  0.264E-01  0.146E-12  0.146E-12
  -1.970  0.259E-01  0.259E-01  0.144E-12  0.144E-12
  -1.960  0.239E-01  0.239E-01  0.133E-12  0.133E-12
  -1.950  0.204E-01  0.204E-01  0.114E-12  0.114E-12
  -1.940  0.161E-01  0.161E-01  0.899E-13  0.899E-13
  -1.930  0.114E-01  0.114E-01  0.635E-13  0.635E-13
  -1.920  0.683E-02  0.683E-02  0.381E-13  0.381E-13
  -1.910  0.292E-02  0.292E-02  0.163E-13  0.163E-13
  -1.900 -0.643E-04 -0.643E-04 -0.360E-15 -0.360E-15
  -1.890 -0.202E-02 -0.202E-02 -0.113E-13 -0.113E-13
  -1.880 -0.304E-02 -0.304E-02 -0.170E-13 -0.170E-13
  -1.870 -0.330E-02 -0.330E-02 -0.184E-13 -0.184E-13
  -1.860 -0.306E-02 -0.306E-02 -0.171E-13 -0.171E-13
  -1.850 -0.256E-02 -0.256E-02 -0.143E-13 -0.143E-13
  -1.840 -0.196E-02 -0.196E-02 -0.109E-13 -0.109E-13
  -1.830 -0.140E-02 -0.140E-02 -0.781E-14 -0.781E-14
  -1.820 -0.938E-03 -0.938E-03 -0.522E-14 -0.522E-14
  -1.810 -0.591E-03 -0.591E-03 -0.326E-14 -0.326E-14
  -1.800 -0.349E-03 -0.349E-03 -0.184E-14 -0.184E-14
  -1.790 -0.189E-03 -0.189E-03 -0.783E-15 -0.783E-15
  -1.780 -0.800E-04 -0.800E-04  0.168E-15  0.168E-15
  -1.770  0.603E-05  0.603E-05  0.137E-14  0.137E-14
  -1.760  0.101E-03  0.101E-03  0.334E-14  0.334E-14
  -1.750  0.241E-03  0.241E-03  0.686E-14  0.686E-14
  -1.740  0.476E-03  0.476E-03  0.131E-13  0.131E-13
  -1.730  0.870E-03  0.870E-03  0.238E-13  0.238E-13
  -1.720  0.151E-02  0.151E-02  0.413E-13  0.413E-13
  -1.710  0.250E-02  0.250E-02  0.683E-13  0.683E-13
  -1.700  0.394E-02  0.394E-02  0.108E-12  0.108E-12
  -1.690  0.594E-02  0.594E-02  0.162E-12  0.162E-12
  -1.680  0.853E-02  0.853E-02  0.233E-12  0.233E-12
  -1.670  0.117E-01  0.117E-01  0.319E-12  0.319E-12
  -1.660  0.152E-01  0.152E-01  0.415E-12  0.415E-12
  -1.650  0.189E-01  0.189E-01  0.515E-12  0.515E-12
  -1.640  0.222E-01  0.222E-01  0.607E-12  0.607E-12
  -1.630  0.248E-01  0.248E-01  0.678E-12  0.678E-12
  -1.620  0.262E-01  0.262E-01  0.717E-12  0.717E-12
  -1.610  0.262E-01  0.262E-01  0.716E-12  0.716E-12
  -1.600  0.246E-01  0.246E-01  0.671E-12  0.671E-12
  -1.590  0.215E-01  0.215E-01  0.587E-12  0.587E-12
  -1.580  0.174E-01  0.174E-01  0.475E-12  0.475E-12
  -1.570  0.127E-01  0.127E-01  0.348E-12  0.348E-12
  -1.560  0.813E-02  0.813E-02  0.224E-12  0.224E-12
  -1.550  0.411E-02  0.411E-02  0.116E-12  0.116E-12
  -1.540  0.104E-02  0.104E-02  0.355E-13  0.355E-13
  -1.530 -0.884E-03 -0.884E-03 -0.108E-13 -0.108E-13
  -1.520 -0.161E-02 -0.161E-02 -0.205E-13 -0.205E-13
  -1.510 -0.122E-02 -0.122E-02  0.628E-14  0.628E-14
  -1.500  0.162E-03  0.162E-03  0.682E-13  0.682E-13
  -1.490  0.241E-02  0.241E-02  0.164E-12  0.164E-12
  -1.480  0.542E-02  0.542E-02  0.291E-12  0.291E-12
  -1.470  0.907E-02  0.907E-02  0.447E-12  0.447E-12
  -1.460  0.132E-01  0.132E-01  0.627E-12  0.627E-12
  -1.450  0.177E-01  0.177E-01  0.820E-12  0.820E-12
  -1.440  0.223E-01  0.223E-01  0.101E-11  0.101E-11
  -1.430  0.268E-01  0.268E-01  0.119E-11  0.119E-11
  -1.420  0.309E-01  0.309E-01  0.134E-11  0.134E-11
  -1.410  0.345E-01  0.345E-01  0.145E-11  0.145E-11
  -1.400  0.377E-01  0.377E-01  0.151E-11  0.151E-11
  -1.390  0.404E-01  0.404E-01  0.153E-11  0.153E-11
  -1.380  0.430E-01  0.430E-01  0.152E-11  0.152E-11
  -1.370  0.456E-01  0.456E-01  0.150E-11  0.150E-11
  -1.360  0.482E-01  0.482E-01  0.147E-11  0.147E-11
  -1.350  0.504E-01  0.504E-01  0.144E-11  0.144E-11
  -1.340  0.518E-01  0.518E-01  0.140E-11  0.140E-11
  -1.330  0.517E-01  0.517E-01  0.135E-11  0.135E-11
  -1.320  0.497E-01  0.497E-01  0.126E-11  0.126E-11
  -1.310  0.454E-01  0.454E-01  0.113E-11  0.113E-11
  -1.300  0.390E-01  0.390E-01  0.959E-12  0.959E-12
  -1.290  0.310E-01  0.310E-01  0.755E-12  0.755E-12
  -1.280  0.222E-01  0.222E-01  0.535E-12  0.535E-12
  -1.270  0.138E-01  0.138E-01  0.322E-12  0.322E-12
  -1.260  0.649E-02  0.649E-02  0.139E-12  0.139E-12
  -1.250  0.111E-02  0.111E-02  0.138E-15  0.138E-15
  -1.240 -0.202E-02 -0.202E-02 -0.847E-13 -0.847E-13
  -1.230 -0.282E-02 -0.282E-02 -0.115E-12 -0.115E-12
  -1.220 -0.143E-02 -0.143E-02 -0.945E-13 -0.945E-13
  -1.210  0.191E-02  0.191E-02 -0.301E-13 -0.301E-13
  -1.200  0.696E-02  0.696E-02  0.725E-13  0.725E-13
  -1.190  0.135E-01  0.135E-01  0.210E-12  0.210E-12
  -1.180  0.213E-01  0.213E-01  0.380E-12  0.380E-12
  -1.170  0.302E-01  0.302E-01  0.584E-12  0.584E-12
  -1.160  0.397E-01  0.397E-01  0.821E-12  0.821E-12
  -1.150  0.496E-01  0.496E-01  0.109E-11  0.109E-11
  -1.140  0.592E-01  0.592E-01  0.138E-11  0.138E-11
  -1.130  0.678E-01  0.678E-01  0.170E-11  0.170E-11
  -1.120  0.749E-01  0.749E-01  0.202E-11  0.202E-11
  -1.110  0.800E-01  0.800E-01  0.234E-11  0.234E-11
  -1.100  0.828E-01  0.828E-01  0.266E-11  0.266E-11
  -1.090  0.833E-01  0.833E-01  0.295E-11  0.295E-11
  -1.080  0.819E-01  0.819E-01  0.323E-11  0.323E-11
  -1.070  0.788E-01  0.788E-01  0.347E-11  0.347E-11
  -1.060  0.746E-01  0.746E-01  0.365E-11  0.365E-11
  -1.050  0.696E-01  0.696E-01  0.376E-11  0.376E-11
  -1.040  0.640E-01  0.640E-01  0.377E-11  0.377E-11
  -1.030  0.579E-01  0.579E-01  0.366E-11  0.366E-11
  -1.020  0.515E-01  0.515E-01  0.342E-11  0.342E-11
  -1.010  0.450E-01  0.450E-01  0.305E-11  0.305E-11
  -1.000  0.388E-01  0.388E-01  0.260E-11  0.260E-11
  -0.990  0.335E-01  0.335E-01  0.211E-11  0.211E-11
  -0.980  0.298E-01  0.298E-01  0.164E-11  0.164E-11
  -0.970  0.282E-01  0.282E-01  0.126E-11  0.126E-11
  -0.960  0.290E-01  0.290E-01  0.997E-12  0.997E-12
  -0.950  0.319E-01  0.319E-01  0.868E-12  0.868E-12
  -0.940  0.363E-01  0.363E-01  0.856E-12  0.856E-12
  -0.930  0.411E-01  0.411E-01  0.925E-12  0.925E-12
  -0.920  0.449E-01  0.449E-01  0.103E-11  0.103E-11
  -0.910  0.469E-01  0.469E-01  0.111E-11  0.111E-11
  -0.900  0.465E-01  0.465E-01  0.116E-11  0.116E-11
  -0.890  0.439E-01  0.439E-01  0.117E-11  0.117E-11
  -0.880  0.398E-01  0.398E-01  0.116E-11  0.116E-11
  -0.870  0.356E-01  0.356E-01  0.119E-11  0.119E-11
  -0.860  0.328E-01  0.328E-01  0.131E-11  0.131E-11
  -0.850  0.332E-01  0.332E-01  0.161E-11  0.161E-11
  -0.840  0.378E-01  0.378E-01  0.214E-11  0.214E-11
  -0.830  0.472E-01  0.472E-01  0.295E-11  0.295E-11
  -0.820  0.611E-01  0.611E-01  0.404E-11  0.404E-11
  -0.810  0.785E-01  0.785E-01  0.537E-11  0.537E-11
  -0.800  0.977E-01  0.977E-01  0.688E-11  0.688E-11
  -0.790  0.116E+00  0.116E+00  0.843E-11  0.843E-11
  -0.780  0.132E+00  0.132E+00  0.988E-11  0.988E-11
  -0.770  0.144E+00  0.144E+00  0.111E-10  0.111E-10
  -0.760  0.149E+00  0.149E+00  0.119E-10  0.119E-10
  -0.750  0.149E+00  0.149E+00  0.122E-10  0.122E-10
  -0.740  0.142E+00  0.142E+00  0.120E-10  0.120E-10
  -0.730  0.131E+00  0.131E+00  0.114E-10  0.114E-10
  -0.720  0.117E+00  0.117E+00  0.104E-10  0.104E-10
  -0.710  0.102E+00  0.102E+00  0.914E-11  0.914E-11
  -0.700  0.882E-01  0.882E-01  0.788E-11  0.788E-11
  -0.690  0.761E-01  0.761E-01  0.673E-11  0.673E-11
  -0.680  0.664E-01  0.664E-01  0.582E-11  0.582E-11
  -0.670  0.593E-01  0.593E-01  0.523E-11  0.523E-11
  -0.660  0.544E-01  0.544E-01  0.498E-11  0.498E-11
  -0.650  0.515E-01  0.515E-01  0.504E-11  0.504E-11
  -0.640  0.500E-01  0.500E-01  0.535E-11  0.535E-11
  -0.630  0.494E-01  0.494E-01  0.581E-11  0.581E-11
  -0.620  0.493E-01  0.493E-01  0.629E-11  0.629E-11
  -0.610  0.491E-01  0.491E-01  0.665E-11  0.665E-11
  -0.600  0.485E-01  0.485E-01  0.678E-11  0.678E-11
  -0.590  0.471E-01  0.471E-01  0.660E-11  0.660E-11
  -0.580  0.451E-01  0.451E-01  0.608E-11  0.608E-11
  -0.570  0.430E-01  0.430E-01  0.529E-11  0.529E-11
  -0.560  0.418E-01  0.418E-01  0.433E-11  0.433E-11
  -0.550  0.429E-01  0.429E-01  0.335E-11  0.335E-11
  -0.540  0.478E-01  0.478E-01  0.251E-11  0.251E-11
  -0.530  0.580E-01  0.580E-01  0.196E-11  0.196E-11
  -0.520  0.743E-01  0.743E-01  0.181E-11  0.181E-11
  -0.510  0.971E-01  0.971E-01  0.210E-11  0.210E-11
  -0.500  0.126E+00  0.126E+00  0.284E-11  0.284E-11
  -0.490  0.158E+00  0.158E+00  0.401E-11  0.401E-11
  -0.480  0.192E+00  0.192E+00  0.554E-11  0.554E-11
  -0.470  0.225E+00  0.225E+00  0.736E-11  0.736E-11
  -0.460  0.252E+00  0.252E+00  0.938E-11  0.938E-11
  -0.450  0.270E+00  0.270E+00  0.115E-10  0.115E-10
  -0.440  0.277E+00  0.277E+00  0.136E-10  0.136E-10
  -0.430  0.271E+00  0.271E+00  0.156E-10  0.156E-10
  -0.420  0.254E+00  0.254E+00  0.173E-10  0.173E-10
  -0.410  0.226E+00  0.226E+00  0.185E-10  0.185E-10
  -0.400  0.192E+00  0.192E+00  0.192E-10  0.192E-10
  -0.390  0.156E+00  0.156E+00  0.191E-10  0.191E-10
  -0.380  0.120E+00  0.120E+00  0.183E-10  0.183E-10
  -0.370  0.889E-01  0.889E-01  0.168E-10  0.168E-10
  -0.360  0.642E-01  0.642E-01  0.148E-10  0.148E-10
  -0.350  0.470E-01  0.470E-01  0.125E-10  0.125E-10
  -0.340  0.375E-01  0.375E-01  0.103E-10  0.103E-10
  -0.330  0.354E-01  0.354E-01  0.854E-11  0.854E-11
  -0.320  0.403E-01  0.403E-01  0.754E-11  0.754E-11
  -0.310  0.516E-01  0.516E-01  0.756E-11  0.756E-11
  -0.300  0.688E-01  0.688E-01  0.872E-11  0.872E-11
  -0.290  0.912E-01  0.912E-01  0.110E-10  0.110E-10
  -0.280  0.118E+00  0.118E+00  0.141E-10  0.141E-10
  -0.270  0.148E+00  0.148E+00  0.178E-10  0.178E-10
  -0.260  0.179E+00  0.179E+00  0.218E-10  0.218E-10
  -0.250  0.209E+00  0.209E+00  0.256E-10  0.256E-10
  -0.240  0.238E+00  0.238E+00  0.292E-10  0.292E-10
  -0.230  0.263E+00  0.263E+00  0.324E-10  0.324E-10
  -0.220  0.285E+00  0.285E+00  0.354E-10  0.354E-10
  -0.210  0.305E+00  0.305E+00  0.384E-10  0.384E-10
  -0.200  0.324E+00  0.324E+00  0.416E-10  0.416E-10
  -0.190  0.343E+00  0.343E+00  0.453E-10  0.453E-10
  -0.180  0.363E+00  0.363E+00  0.494E-10  0.494E-10
  -0.170  0.386E+00  0.386E+00  0.537E-10  0.537E-10
  -0.160  0.409E+00  0.409E+00  0.576E-10  0.576E-10
  -0.150  0.431E+00  0.431E+00  0.604E-10  0.604E-10
  -0.140  0.449E+00  0.449E+00  0.617E-10  0.617E-10
  -0.130  0.459E+00  0.459E+00  0.610E-10  0.610E-10
  -0.120  0.459E+00  0.459E+00  0.581E-10  0.581E-10
  -0.110  0.449E+00  0.449E+00  0.533E-10  0.533E-10
  -0.100  0.427E+00  0.427E+00  0.472E-10  0.472E-10
  -0.090  0.396E+00  0.396E+00  0.403E-10  0.403E-10
  -0.080  0.359E+00  0.359E+00  0.334E-10  0.334E-10
  -0.070  0.320E+00  0.320E+00  0.269E-10  0.269E-10
  -0.060  0.283E+00  0.283E+00  0.214E-10  0.214E-10
  -0.050  0.249E+00  0.249E+00  0.171E-10  0.171E-10
  -0.040  0.222E+00  0.222E+00  0.140E-10  0.140E-10
  -0.030  0.203E+00  0.203E+00  0.121E-10  0.121E-10
  -0.020  0.190E+00  0.190E+00  0.113E-10  0.113E-10
  -0.010  0.184E+00  0.184E+00  0.114E-10  0.114E-10
  -0.000  0.183E+00  0.183E+00  0.121E-10  0.121E-10
   0.010  0.185E+00  0.185E+00  0.133E-10  0.133E-10
   0.020  0.189E+00  0.189E+00  0.147E-10  0.147E-10
   0.030  0.192E+00  0.192E+00  0.161E-10  0.161E-10
   0.040  0.194E+00  0.194E+00  0.173E-10  0.173E-10
   0.050  0.195E+00  0.195E+00  0.184E-10  0.184E-10
   0.060  0.193E+00  0.193E+00  0.196E-10  0.196E-10
   0.070  0.190E+00  0.190E+00  0.211E-10  0.211E-10
   0.080  0.187E+00  0.187E+00  0.231E-10  0.231E-10
   0.090  0.186E+00  0.186E+00  0.262E-10  0.262E-10
   0.100  0.187E+00  0.187E+00  0.303E-10  0.303E-10
   0.110  0.191E+00  0.191E+00  0.355E-10  0.355E-10
   0.120  0.199E+00  0.199E+00  0.415E-10  0.415E-10
   0.130  0.209E+00  0.209E+00  0.475E-10  0.475E-10
   0.140  0.220E+00  0.220E+00  0.529E-10  0.529E-10
   0.150  0.230E+00  0.230E+00  0.568E-10  0.568E-10
   0.160  0.236E+00  0.236E+00  0.585E-10  0.585E-10
   0.170  0.239E+00  0.239E+00  0.577E-10  0.577E-10
   0.180  0.237E+00  0.237E+00  0.544E-10  0.544E-10
   0.190  0.232E+00  0.232E+00  0.494E-10  0.494E-10
   0.200  0.225E+00  0.225E+00  0.438E-10  0.438E-10
   0.210  0.218E+00  0.218E+00  0.390E-10  0.390E-10
   0.220  0.214E+00  0.214E+00  0.365E-10  0.365E-10
   0.230  0.212E+00  0.212E+00  0.375E-10  0.375E-10
   0.240  0.213E+00  0.213E+00  0.429E-10  0.429E-10
   0.250  0.216E+00  0.216E+00  0.525E-10  0.525E-10
   0.260  0.219E+00  0.219E+00  0.658E-10  0.658E-10
   0.270  0.221E+00  0.221E+00  0.812E-10  0.812E-10
   0.280  0.218E+00  0.218E+00  0.967E-10  0.967E-10
   0.290  0.211E+00  0.211E+00  0.110E-09  0.110E-09
   0.300  0.198E+00  0.198E+00  0.119E-09  0.119E-09
   0.310  0.180E+00  0.180E+00  0.121E-09  0.121E-09
   0.320  0.160E+00  0.160E+00  0.117E-09  0.117E-09
   0.330  0.139E+00  0.139E+00  0.106E-09  0.106E-09
   0.340  0.120E+00  0.120E+00  0.893E-10  0.893E-10
   0.350  0.106E+00  0.106E+00  0.699E-10  0.699E-10
   0.360  0.979E-01  0.979E-01  0.498E-10  0.498E-10
   0.370  0.958E-01  0.958E-01  0.313E-10  0.313E-10
   0.380  0.991E-01  0.991E-01  0.162E-10  0.162E-10
   0.390  0.106E+00  0.106E+00  0.546E-11  0.546E-11
   0.400  0.116E+00  0.116E+00 -0.731E-12 -0.731E-12
   0.410  0.127E+00  0.127E+00 -0.288E-11 -0.288E-11
   0.420  0.138E+00  0.138E+00 -0.187E-11 -0.187E-11
   0.430  0.148E+00  0.148E+00  0.125E-11  0.125E-11
   0.440  0.157E+00  0.157E+00  0.552E-11  0.552E-11
   0.450  0.166E+00  0.166E+00  0.101E-10  0.101E-10
   0.460  0.174E+00  0.174E+00  0.144E-10  0.144E-10
   0.470  0.181E+00  0.181E+00  0.179E-10  0.179E-10
   0.480  0.186E+00  0.186E+00  0.204E-10  0.204E-10
   0.490  0.188E+00  0.188E+00  0.217E-10  0.217E-10
   0.500  0.186E+00  0.186E+00  0.219E-10  0.219E-10
   0.510  0.182E+00  0.182E+00  0.212E-10  0.212E-10
   0.520  0.174E+00  0.174E+00  0.199E-10  0.199E-10
   0.530  0.165E+00  0.165E+00  0.184E-10  0.184E-10
   0.540  0.157E+00  0.157E+00  0.173E-10  0.173E-10
   0.550  0.151E+00  0.151E+00  0.168E-10  0.168E-10
   0.560  0.147E+00  0.147E+00  0.173E-10  0.173E-10
   0.570  0.148E+00  0.148E+00  0.189E-10  0.189E-10
   0.580  0.153E+00  0.153E+00  0.215E-10  0.215E-10
   0.590  0.162E+00  0.162E+00  0.248E-10  0.248E-10
   0.600  0.173E+00  0.173E+00  0.283E-10  0.283E-10
   0.610  0.185E+00  0.185E+00  0.315E-10  0.315E-10
   0.620  0.197E+00  0.197E+00  0.338E-10  0.338E-10
   0.630  0.207E+00  0.207E+00  0.349E-10  0.349E-10
   0.640  0.212E+00  0.212E+00  0.344E-10  0.344E-10
   0.650  0.213E+00  0.213E+00  0.323E-10  0.323E-10
   0.660  0.207E+00  0.207E+00  0.288E-10  0.288E-10
   0.670  0.195E+00  0.195E+00  0.244E-10  0.244E-10
   0.680  0.178E+00  0.178E+00  0.196E-10  0.196E-10
   0.690  0.155E+00  0.155E+00  0.148E-10  0.148E-10
   0.700  0.131E+00  0.131E+00  0.106E-10  0.106E-10
   0.710  0.106E+00  0.106E+00  0.742E-11  0.742E-11
   0.720  0.834E-01  0.834E-01  0.542E-11  0.542E-11
   0.730  0.664E-01  0.664E-01  0.469E-11  0.469E-11
   0.740  0.565E-01  0.565E-01  0.516E-11  0.516E-11
   0.750  0.545E-01  0.545E-01  0.663E-11  0.663E-11
   0.760  0.597E-01  0.597E-01  0.884E-11  0.884E-11
   0.770  0.708E-01  0.708E-01  0.115E-10  0.115E-10
   0.780  0.854E-01  0.854E-01  0.142E-10  0.142E-10
   0.790  0.101E+00  0.101E+00  0.169E-10  0.169E-10
   0.800  0.115E+00  0.115E+00  0.195E-10  0.195E-10
   0.810  0.128E+00  0.128E+00  0.221E-10  0.221E-10
   0.820  0.137E+00  0.137E+00  0.248E-10  0.248E-10
   0.830  0.144E+00  0.144E+00  0.280E-10  0.280E-10
   0.840  0.149E+00  0.149E+00  0.318E-10  0.318E-10
   0.850  0.155E+00  0.155E+00  0.362E-10  0.362E-10
   0.860  0.160E+00  0.160E+00  0.409E-10  0.409E-10
   0.870  0.165E+00  0.165E+00  0.455E-10  0.455E-10
   0.880  0.170E+00  0.170E+00  0.493E-10  0.493E-10
   0.890  0.173E+00  0.173E+00  0.521E-10  0.521E-10
   0.900  0.174E+00  0.174E+00  0.549E-10  0.549E-10
   0.910  0.173E+00  0.173E+00  0.621E-10  0.621E-10
   0.920  0.168E+00  0.168E+00  0.879E-10  0.879E-10
   0.930  0.162E+00  0.162E+00  0.171E-09  0.171E-09
   0.940  0.155E+00  0.155E+00  0.416E-09  0.416E-09
   0.950  0.149E+00  0.149E+00  0.108E-08  0.108E-08
   0.960  0.144E+00  0.144E+00  0.281E-08  0.281E-08
   0.970  0.140E+00  0.140E+00  0.707E-08  0.707E-08
   0.980  0.137E+00  0.137E+00  0.171E-07  0.171E-07
   0.990  0.135E+00  0.135E+00  0.398E-07  0.398E-07
   1.000  0.134E+00  0.134E+00  0.889E-07  0.889E-07
   1.010  0.133E+00  0.133E+00  0.191E-06  0.191E-06
   1.020  0.133E+00  0.133E+00  0.394E-06  0.394E-06
   1.030  0.133E+00  0.133E+00  0.781E-06  0.781E-06
   1.040  0.135E+00  0.135E+00  0.149E-05  0.149E-05
   1.050  0.137E+00  0.137E+00  0.273E-05  0.273E-05
   1.060  0.142E+00  0.142E+00  0.483E-05  0.483E-05
   1.070  0.147E+00  0.147E+00  0.821E-05  0.821E-05
   1.080  0.151E+00  0.151E+00  0.135E-04  0.135E-04
   1.090  0.154E+00  0.154E+00  0.213E-04  0.213E-04
   1.100  0.154E+00  0.154E+00  0.325E-04  0.325E-04
   1.110  0.149E+00  0.149E+00  0.478E-04  0.478E-04
   1.120  0.139E+00  0.139E+00  0.682E-04  0.682E-04
   1.130  0.124E+00  0.124E+00  0.941E-04  0.941E-04
   1.140  0.106E+00  0.106E+00  0.126E-03  0.126E-03
   1.150  0.878E-01  0.874E-01  0.164E-03  0.164E-03
   1.160  0.710E-01  0.706E-01  0.207E-03  0.207E-03
   1.170  0.588E-01  0.583E-01  0.254E-03  0.254E-03
   1.180  0.528E-01  0.522E-01  0.306E-03  0.306E-03
   1.190  0.538E-01  0.531E-01  0.359E-03  0.359E-03
   1.200  0.610E-01  0.602E-01  0.414E-03  0.414E-03
   1.210  0.726E-01  0.717E-01  0.469E-03  0.469E-03
   1.220  0.863E-01  0.853E-01  0.522E-03  0.522E-03
   1.230  0.996E-01  0.985E-01  0.575E-03  0.575E-03
   1.240  0.111E+00  0.110E+00  0.626E-03  0.626E-03
   1.250  0.119E+00  0.118E+00  0.675E-03  0.675E-03
   1.260  0.125E+00  0.123E+00  0.724E-03  0.724E-03
   1.270  0.129E+00  0.127E+00  0.771E-03  0.771E-03
   1.280  0.133E+00  0.131E+00  0.816E-03  0.816E-03
   1.290  0.139E+00  0.137E+00  0.858E-03  0.858E-03
   1.300  0.147E+00  0.145E+00  0.896E-03  0.896E-03
   1.310  0.158E+00  0.156E+00  0.932E-03  0.932E-03
   1.320  0.170E+00  0.168E+00  0.966E-03  0.966E-03
   1.330  0.182E+00  0.180E+00  0.100E-02  0.100E-02
   1.340  0.192E+00  0.190E+00  0.104E-02  0.104E-02
   1.350  0.198E+00  0.196E+00  0.108E-02  0.108E-02
   1.360  0.200E+00  0.198E+00  0.113E-02  0.113E-02
   1.370  0.197E+00  0.195E+00  0.118E-02  0.118E-02
   1.380  0.189E+00  0.187E+00  0.122E-02  0.122E-02
   1.390  0.178E+00  0.175E+00  0.125E-02  0.125E-02
   1.400  0.162E+00  0.160E+00  0.127E-02  0.127E-02
   1.410  0.144E+00  0.142E+00  0.128E-02  0.128E-02
   1.420  0.125E+00  0.122E+00  0.129E-02  0.129E-02
   1.430  0.104E+00  0.101E+00  0.130E-02  0.130E-02
   1.440  0.844E-01  0.818E-01  0.132E-02  0.132E-02
   1.450  0.674E-01  0.647E-01  0.135E-02  0.135E-02
   1.460  0.548E-01  0.519E-01  0.141E-02  0.141E-02
   1.470  0.477E-01  0.448E-01  0.148E-02  0.148E-02
   1.480  0.471E-01  0.440E-01  0.155E-02  0.155E-02
   1.490  0.529E-01  0.497E-01  0.161E-02  0.161E-02
   1.500  0.643E-01  0.609E-01  0.165E-02  0.165E-02
   1.510  0.797E-01  0.764E-01  0.166E-02  0.166E-02
   1.520  0.974E-01  0.941E-01  0.164E-02  0.164E-02
   1.530  0.115E+00  0.112E+00  0.160E-02  0.160E-02
   1.540  0.132E+00  0.129E+00  0.155E-02  0.155E-02
   1.550  0.145E+00  0.142E+00  0.151E-02  0.151E-02
   1.560  0.154E+00  0.151E+00  0.151E-02  0.151E-02
   1.570  0.157E+00  0.154E+00  0.155E-02  0.155E-02
   1.580  0.154E+00  0.151E+00  0.162E-02  0.162E-02
   1.590  0.146E+00  0.143E+00  0.173E-02  0.173E-02
   1.600  0.134E+00  0.130E+00  0.186E-02  0.186E-02
   1.610  0.119E+00  0.115E+00  0.197E-02  0.197E-02
   1.620  0.103E+00  0.993E-01  0.205E-02  0.205E-02
   1.630  0.896E-01  0.854E-01  0.208E-02  0.208E-02
   1.640  0.794E-01  0.753E-01  0.206E-02  0.206E-02
   1.650  0.740E-01  0.701E-01  0.199E-02  0.199E-02
   1.660  0.738E-01  0.701E-01  0.189E-02  0.189E-02
   1.670  0.782E-01  0.746E-01  0.178E-02  0.178E-02
   1.680  0.856E-01  0.822E-01  0.168E-02  0.168E-02
   1.690  0.944E-01  0.912E-01  0.162E-02  0.162E-02
   1.700  0.103E+00  0.998E-01  0.161E-02  0.161E-02
   1.710  0.110E+00  0.107E+00  0.166E-02  0.166E-02
   1.720  0.116E+00  0.113E+00  0.177E-02  0.177E-02
   1.730  0.121E+00  0.117E+00  0.192E-02  0.192E-02
   1.740  0.126E+00  0.121E+00  0.210E-02  0.210E-02
   1.750  0.131E+00  0.127E+00  0.228E-02  0.228E-02
   1.760  0.139E+00  0.134E+00  0.242E-02  0.242E-02
   1.770  0.148E+00  0.143E+00  0.250E-02  0.250E-02
   1.780  0.159E+00  0.154E+00  0.250E-02  0.250E-02
   1.790  0.170E+00  0.165E+00  0.243E-02  0.243E-02
   1.800  0.179E+00  0.175E+00  0.230E-02  0.230E-02
   1.810  0.186E+00  0.182E+00  0.212E-02  0.212E-02
   1.820  0.188E+00  0.184E+00  0.193E-02  0.193E-02
   1.830  0.186E+00  0.182E+00  0.177E-02  0.177E-02
   1.840  0.178E+00  0.175E+00  0.166E-02  0.166E-02
   1.850  0.166E+00  0.163E+00  0.162E-02  0.162E-02
   1.860  0.150E+00  0.147E+00  0.165E-02  0.165E-02
   1.870  0.132E+00  0.128E+00  0.176E-02  0.176E-02
   1.880  0.111E+00  0.107E+00  0.191E-02  0.191E-02
   1.890  0.906E-01  0.864E-01  0.211E-02  0.211E-02
   1.900  0.709E-01  0.663E-01  0.232E-02  0.232E-02
   1.910  0.534E-01  0.483E-01  0.251E-02  0.251E-02
   1.920  0.391E-01  0.337E-01  0.268E-02  0.268E-02
   1.930  0.291E-01  0.235E-01  0.279E-02  0.279E-02
   1.940  0.241E-01  0.184E-01  0.284E-02  0.284E-02
   1.950  0.245E-01  0.188E-01  0.280E-02  0.280E-02
   1.960  0.302E-01  0.248E-01  0.270E-02  0.270E-02
   1.970  0.407E-01  0.356E-01  0.253E-02  0.253E-02
   1.980  0.549E-01  0.503E-01  0.231E-02  0.231E-02
   1.990  0.715E-01  0.673E-01  0.208E-02  0.208E-02
   2.000  0.886E-01  0.849E-01  0.186E-02  0.186E-02
   2.010  0.105E+00  0.101E+00  0.168E-02  0.168E-02
   2.020  0.119E+00  0.115E+00  0.157E-02  0.157E-02
   2.030  0.129E+00  0.126E+00  0.155E-02  0.155E-02
   2.040  0.136E+00  0.133E+00  0.162E-02  0.162E-02
   2.050  0.140E+00  0.136E+00  0.178E-02  0.178E-02
   2.060  0.141E+00  0.137E+00  0.201E-02  0.201E-02
   2.070  0.140E+00  0.136E+00  0.227E-02  0.227E-02
   2.080  0.139E+00  0.134E+00  0.254E-02  0.254E-02
   2.090  0.137E+00  0.131E+00  0.278E-02  0.278E-02
   2.100  0.135E+00  0.129E+00  0.296E-02  0.296E-02
   2.110  0.133E+00  0.127E+00  0.306E-02  0.306E-02
   2.120  0.131E+00  0.125E+00  0.308E-02  0.308E-02
   2.130  0.128E+00  0.122E+00  0.302E-02  0.302E-02
   2.140  0.126E+00  0.120E+00  0.289E-02  0.289E-02
   2.150  0.124E+00  0.119E+00  0.272E-02  0.272E-02
   2.160  0.123E+00  0.118E+00  0.253E-02  0.253E-02
   2.170  0.124E+00  0.119E+00  0.233E-02  0.233E-02
   2.180  0.125E+00  0.121E+00  0.213E-02  0.213E-02
   2.190  0.127E+00  0.123E+00  0.195E-02  0.195E-02
   2.200  0.129E+00  0.126E+00  0.179E-02  0.179E-02
   2.210  0.130E+00  0.126E+00  0.167E-02  0.167E-02
   2.220  0.128E+00  0.125E+00  0.158E-02  0.158E-02
   2.230  0.123E+00  0.120E+00  0.156E-02  0.156E-02
   2.240  0.116E+00  0.112E+00  0.161E-02  0.161E-02
   2.250  0.106E+00  0.103E+00  0.174E-02  0.174E-02
   2.260  0.967E-01  0.928E-01  0.196E-02  0.196E-02
   2.270  0.886E-01  0.841E-01  0.224E-02  0.224E-02
   2.280  0.836E-01  0.785E-01  0.257E-02  0.257E-02
   2.290  0.827E-01  0.769E-01  0.289E-02  0.289E-02
   2.300  0.862E-01  0.799E-01  0.317E-02  0.317E-02
   2.310  0.937E-01  0.869E-01  0.335E-02  0.335E-02
   2.320  0.104E+00  0.971E-01  0.342E-02  0.342E-02
   2.330  0.115E+00  0.109E+00  0.336E-02  0.336E-02
   2.340  0.126E+00  0.120E+00  0.319E-02  0.319E-02
   2.350  0.134E+00  0.129E+00  0.293E-02  0.293E-02
   2.360  0.139E+00  0.133E+00  0.264E-02  0.264E-02
   2.370  0.138E+00  0.133E+00  0.236E-02  0.236E-02
   2.380  0.131E+00  0.127E+00  0.211E-02  0.211E-02
   2.390  0.119E+00  0.115E+00  0.192E-02  0.192E-02
   2.400  0.102E+00  0.986E-01  0.178E-02  0.178E-02
   2.410  0.833E-01  0.799E-01  0.170E-02  0.170E-02
   2.420  0.646E-01  0.613E-01  0.167E-02  0.167E-02
   2.430  0.486E-01  0.453E-01  0.167E-02  0.167E-02
   2.440  0.375E-01  0.341E-01  0.169E-02  0.169E-02
   2.450  0.329E-01  0.294E-01  0.173E-02  0.173E-02
   2.460  0.351E-01  0.316E-01  0.180E-02  0.180E-02
   2.470  0.438E-01  0.400E-01  0.190E-02  0.190E-02
   2.480  0.574E-01  0.533E-01  0.204E-02  0.204E-02
   2.490  0.737E-01  0.692E-01  0.223E-02  0.223E-02
   2.500  0.904E-01  0.854E-01  0.246E-02  0.246E-02
   2.510  0.105E+00  0.997E-01  0.272E-02  0.272E-02
   2.520  0.117E+00  0.111E+00  0.299E-02  0.299E-02
   2.530  0.124E+00  0.117E+00  0.324E-02  0.324E-02
   2.540  0.128E+00  0.121E+00  0.341E-02  0.341E-02
   2.550  0.129E+00  0.122E+00  0.349E-02  0.349E-02
   2.560  0.130E+00  0.123E+00  0.344E-02  0.344E-02
   2.570  0.132E+00  0.125E+00  0.328E-02  0.328E-02
   2.580  0.136E+00  0.130E+00  0.302E-02  0.302E-02
   2.590  0.144E+00  0.138E+00  0.270E-02  0.270E-02
   2.600  0.153E+00  0.149E+00  0.235E-02  0.235E-02
   2.610  0.163E+00  0.159E+00  0.202E-02  0.202E-02
   2.620  0.171E+00  0.168E+00  0.175E-02  0.175E-02
   2.630  0.176E+00  0.173E+00  0.155E-02  0.155E-02
   2.640  0.175E+00  0.173E+00  0.143E-02  0.143E-02
   2.650  0.169E+00  0.167E+00  0.138E-02  0.138E-02
   2.660  0.158E+00  0.156E+00  0.140E-02  0.140E-02
   2.670  0.143E+00  0.140E+00  0.147E-02  0.147E-02
   2.680  0.126E+00  0.123E+00  0.159E-02  0.159E-02
   2.690  0.108E+00  0.104E+00  0.173E-02  0.173E-02
   2.700  0.902E-01  0.864E-01  0.190E-02  0.190E-02
   2.710  0.742E-01  0.700E-01  0.210E-02  0.210E-02
   2.720  0.602E-01  0.556E-01  0.230E-02  0.230E-02
   2.730  0.485E-01  0.435E-01  0.250E-02  0.250E-02
   2.740  0.393E-01  0.340E-01  0.268E-02  0.268E-02
   2.750  0.327E-01  0.270E-01  0.284E-02  0.284E-02
   2.760  0.290E-01  0.231E-01  0.297E-02  0.297E-02
   2.770  0.285E-01  0.224E-01  0.306E-02  0.306E-02
   2.780  0.316E-01  0.254E-01  0.311E-02  0.311E-02
   2.790  0.384E-01  0.322E-01  0.312E-02  0.312E-02
   2.800  0.488E-01  0.426E-01  0.309E-02  0.309E-02
   2.810  0.621E-01  0.560E-01  0.302E-02  0.302E-02
   2.820  0.774E-01  0.715E-01  0.292E-02  0.292E-02
   2.830  0.935E-01  0.880E-01  0.278E-02  0.278E-02
   2.840  0.109E+00  0.104E+00  0.260E-02  0.260E-02
   2.850  0.123E+00  0.118E+00  0.239E-02  0.239E-02
   2.860  0.133E+00  0.129E+00  0.215E-02  0.215E-02
   2.870  0.140E+00  0.136E+00  0.191E-02  0.191E-02
   2.880  0.142E+00  0.139E+00  0.168E-02  0.168E-02
   2.890  0.139E+00  0.137E+00  0.148E-02  0.148E-02
   2.900  0.132E+00  0.130E+00  0.133E-02  0.133E-02
   2.910  0.122E+00  0.120E+00  0.124E-02  0.124E-02
   2.920  0.109E+00  0.107E+00  0.121E-02  0.121E-02
   2.930  0.959E-01  0.934E-01  0.123E-02  0.123E-02
   2.940  0.837E-01  0.810E-01  0.132E-02  0.132E-02
   2.950  0.742E-01  0.712E-01  0.147E-02  0.147E-02
   2.960  0.686E-01  0.653E-01  0.167E-02  0.167E-02
   2.970  0.675E-01  0.637E-01  0.193E-02  0.193E-02
   2.980  0.710E-01  0.665E-01  0.223E-02  0.223E-02
   2.990  0.782E-01  0.731E-01  0.255E-02  0.255E-02
   3.000  0.880E-01  0.823E-01  0.286E-02  0.286E-02
   3.010  0.991E-01  0.929E-01  0.313E-02  0.313E-02
   3.020  0.110E+00  0.104E+00  0.331E-02  0.331E-02
   3.030  0.120E+00  0.113E+00  0.339E-02  0.339E-02
   3.040  0.128E+00  0.121E+00  0.336E-02  0.336E-02
   3.050  0.133E+00  0.126E+00  0.322E-02  0.322E-02
   3.060  0.135E+00  0.129E+00  0.300E-02  0.300E-02
   3.070  0.134E+00  0.129E+00  0.274E-02  0.274E-02
   3.080  0.131E+00  0.126E+00  0.249E-02  0.249E-02
   3.090  0.126E+00  0.122E+00  0.228E-02  0.228E-02
   3.100  0.120E+00  0.116E+00  0.213E-02  0.213E-02
   3.110  0.114E+00  0.110E+00  0.204E-02  0.204E-02
   3.120  0.109E+00  0.105E+00  0.200E-02  0.200E-02
   3.130  0.105E+00  0.101E+00  0.198E-02  0.198E-02
   3.140  0.102E+00  0.983E-01  0.196E-02  0.196E-02
   3.150  0.101E+00  0.973E-01  0.191E-02  0.191E-02
   3.160  0.101E+00  0.974E-01  0.183E-02  0.183E-02
   3.170  0.101E+00  0.978E-01  0.171E-02  0.171E-02
   3.180  0.101E+00  0.980E-01  0.158E-02  0.158E-02
   3.190  0.999E-01  0.969E-01  0.146E-02  0.146E-02
   3.200  0.969E-01  0.941E-01  0.137E-02  0.137E-02
   3.210  0.918E-01  0.891E-01  0.132E-02  0.132E-02
   3.220  0.844E-01  0.818E-01  0.133E-02  0.133E-02
   3.230  0.751E-01  0.722E-01  0.141E-02  0.141E-02
   3.240  0.642E-01  0.612E-01  0.154E-02  0.154E-02
   3.250  0.529E-01  0.494E-01  0.174E-02  0.174E-02
   3.260  0.421E-01  0.382E-01  0.199E-02  0.199E-02
   3.270  0.332E-01  0.287E-01  0.228E-02  0.228E-02
   3.280  0.274E-01  0.222E-01  0.260E-02  0.260E-02
   3.290  0.257E-01  0.198E-01  0.292E-02  0.292E-02
   3.300  0.285E-01  0.221E-01  0.320E-02  0.320E-02
   3.310  0.360E-01  0.292E-01  0.342E-02  0.342E-02
   3.320  0.477E-01  0.406E-01  0.353E-02  0.353E-02
   3.330  0.624E-01  0.553E-01  0.351E-02  0.351E-02
   3.340  0.786E-01  0.718E-01  0.337E-02  0.337E-02
   3.350  0.946E-01  0.883E-01  0.312E-02  0.312E-02
   3.360  0.109E+00  0.103E+00  0.279E-02  0.279E-02
   3.370  0.120E+00  0.115E+00  0.242E-02  0.242E-02
   3.380  0.127E+00  0.122E+00  0.207E-02  0.207E-02
   3.390  0.130E+00  0.126E+00  0.176E-02  0.176E-02
   3.400  0.130E+00  0.127E+00  0.153E-02  0.153E-02
   3.410  0.129E+00  0.126E+00  0.140E-02  0.140E-02
   3.420  0.127E+00  0.124E+00  0.137E-02  0.137E-02
   3.430  0.126E+00  0.123E+00  0.141E-02  0.141E-02
   3.440  0.126E+00  0.123E+00  0.150E-02  0.150E-02
   3.450  0.128E+00  0.124E+00  0.161E-02  0.161E-02
   3.460  0.129E+00  0.126E+00  0.170E-02  0.170E-02
   3.470  0.130E+00  0.127E+00  0.175E-02  0.175E-02
   3.480  0.129E+00  0.126E+00  0.174E-02  0.174E-02
   3.490  0.127E+00  0.123E+00  0.169E-02  0.169E-02
   3.500  0.122E+00  0.119E+00  0.161E-02  0.161E-02
   3.510  0.117E+00  0.114E+00  0.154E-02  0.154E-02
   3.520  0.111E+00  0.108E+00  0.150E-02  0.150E-02
   3.530  0.105E+00  0.101E+00  0.152E-02  0.152E-02
   3.540  0.983E-01  0.951E-01  0.160E-02  0.160E-02
   3.550  0.919E-01  0.885E-01  0.174E-02  0.174E-02
   3.560  0.851E-01  0.812E-01  0.194E-02  0.194E-02
   3.570  0.774E-01  0.731E-01  0.217E-02  0.217E-02
   3.580  0.689E-01  0.641E-01  0.240E-02  0.240E-02
   3.590  0.600E-01  0.547E-01  0.262E-02  0.262E-02
   3.600  0.513E-01  0.457E-01  0.280E-02  0.280E-02
   3.610  0.441E-01  0.382E-01  0.293E-02  0.293E-02
   3.620  0.395E-01  0.334E-01  0.301E-02  0.301E-02
   3.630  0.384E-01  0.323E-01  0.302E-02  0.302E-02
   3.640  0.413E-01  0.354E-01  0.298E-02  0.298E-02
   3.650  0.484E-01  0.426E-01  0.289E-02  0.289E-02
   3.660  0.590E-01  0.535E-01  0.275E-02  0.275E-02
   3.670  0.721E-01  0.669E-01  0.258E-02  0.258E-02
   3.680  0.862E-01  0.815E-01  0.238E-02  0.238E-02
   3.690  0.100E+00  0.956E-01  0.215E-02  0.215E-02
   3.700  0.112E+00  0.108E+00  0.192E-02  0.192E-02
   3.710  0.120E+00  0.117E+00  0.168E-02  0.168E-02
   3.720  0.124E+00  0.121E+00  0.147E-02  0.147E-02
   3.730  0.123E+00  0.121E+00  0.128E-02  0.128E-02
   3.740  0.117E+00  0.115E+00  0.114E-02  0.114E-02
   3.750  0.106E+00  0.104E+00  0.106E-02  0.106E-02
   3.760  0.914E-01  0.893E-01  0.105E-02  0.105E-02
   3.770  0.750E-01  0.728E-01  0.110E-02  0.110E-02
   3.780  0.588E-01  0.564E-01  0.119E-02  0.119E-02
   3.790  0.448E-01  0.422E-01  0.130E-02  0.130E-02
   3.800  0.348E-01  0.320E-01  0.141E-02  0.141E-02
   3.810  0.303E-01  0.273E-01  0.151E-02  0.151E-02
   3.820  0.317E-01  0.285E-01  0.158E-02  0.158E-02
   3.830  0.386E-01  0.353E-01  0.162E-02  0.162E-02
   3.840  0.501E-01  0.467E-01  0.165E-02  0.165E-02
   3.850  0.646E-01  0.612E-01  0.169E-02  0.169E-02
   3.860  0.803E-01  0.768E-01  0.175E-02  0.175E-02
   3.870  0.957E-01  0.920E-01  0.185E-02  0.185E-02
   3.880  0.109E+00  0.105E+00  0.199E-02  0.199E-02
   3.890  0.120E+00  0.116E+00  0.217E-02  0.217E-02
   3.900  0.129E+00  0.124E+00  0.236E-02  0.236E-02
   3.910  0.134E+00  0.129E+00  0.253E-02  0.253E-02
   3.920  0.138E+00  0.133E+00  0.265E-02  0.265E-02
   3.930  0.141E+00  0.136E+00  0.270E-02  0.270E-02
   3.940  0.143E+00  0.138E+00  0.267E-02  0.267E-02
   3.950  0.144E+00  0.139E+00  0.257E-02  0.257E-02
   3.960  0.144E+00  0.139E+00  0.242E-02  0.242E-02
   3.970  0.141E+00  0.137E+00  0.225E-02  0.225E-02
   3.980  0.136E+00  0.132E+00  0.210E-02  0.210E-02
   3.990  0.127E+00  0.123E+00  0.197E-02  0.197E-02
   4.000  0.115E+00  0.111E+00  0.187E-02  0.187E-02
   4.010  0.100E+00  0.964E-01  0.182E-02  0.182E-02
   4.020  0.845E-01  0.809E-01  0.178E-02  0.178E-02
   4.030  0.696E-01  0.661E-01  0.176E-02  0.176E-02
   4.040  0.571E-01  0.536E-01  0.172E-02  0.172E-02
   4.050  0.479E-01  0.446E-01  0.166E-02  0.166E-02
   4.060  0.423E-01  0.392E-01  0.156E-02  0.156E-02
   4.070  0.400E-01  0.372E-01  0.142E-02  0.142E-02
   4.080  0.398E-01  0.373E-01  0.126E-02  0.126E-02
   4.090  0.405E-01  0.383E-01  0.109E-02  0.109E-02
   4.100  0.410E-01  0.391E-01  0.945E-03  0.945E-03
   4.110  0.407E-01  0.390E-01  0.836E-03  0.836E-03
   4.120  0.396E-01  0.380E-01  0.785E-03  0.785E-03
   4.130  0.384E-01  0.368E-01  0.800E-03  0.800E-03
   4.140  0.382E-01  0.364E-01  0.878E-03  0.878E-03
   4.150  0.401E-01  0.381E-01  0.100E-02  0.100E-02
   4.160  0.451E-01  0.428E-01  0.116E-02  0.116E-02
   4.170  0.537E-01  0.510E-01  0.134E-02  0.134E-02
   4.180  0.656E-01  0.626E-01  0.151E-02  0.151E-02
   4.190  0.799E-01  0.766E-01  0.168E-02  0.168E-02
   4.200  0.953E-01  0.916E-01  0.183E-02  0.183E-02
   4.210  0.110E+00  0.106E+00  0.197E-02  0.197E-02
   4.220  0.121E+00  0.117E+00  0.210E-02  0.210E-02
   4.230  0.129E+00  0.124E+00  0.223E-02  0.223E-02
   4.240  0.131E+00  0.126E+00  0.233E-02  0.233E-02
   4.250  0.127E+00  0.122E+00  0.240E-02  0.240E-02
   4.260  0.117E+00  0.112E+00  0.244E-02  0.244E-02
   4.270  0.104E+00  0.991E-01  0.243E-02  0.243E-02
   4.280  0.890E-01  0.843E-01  0.237E-02  0.237E-02
   4.290  0.748E-01  0.703E-01  0.226E-02  0.226E-02
   4.300  0.636E-01  0.594E-01  0.209E-02  0.209E-02
   4.310  0.573E-01  0.535E-01  0.191E-02  0.191E-02
   4.320  0.570E-01  0.536E-01  0.171E-02  0.171E-02
   4.330  0.628E-01  0.598E-01  0.152E-02  0.152E-02
   4.340  0.742E-01  0.715E-01  0.136E-02  0.136E-02
   4.350  0.897E-01  0.872E-01  0.124E-02  0.124E-02
   4.360  0.107E+00  0.105E+00  0.118E-02  0.118E-02
   4.370  0.126E+00  0.123E+00  0.116E-02  0.116E-02
   4.380  0.142E+00  0.140E+00  0.118E-02  0.118E-02
   4.390  0.155E+00  0.153E+00  0.124E-02  0.124E-02
   4.400  0.163E+00  0.160E+00  0.130E-02  0.130E-02
   4.410  0.165E+00  0.162E+00  0.137E-02  0.137E-02
   4.420  0.160E+00  0.157E+00  0.142E-02  0.142E-02
   4.430  0.149E+00  0.146E+00  0.143E-02  0.143E-02
   4.440  0.132E+00  0.129E+00  0.140E-02  0.140E-02
   4.450  0.112E+00  0.109E+00  0.133E-02  0.133E-02
   4.460  0.901E-01  0.877E-01  0.120E-02  0.120E-02
   4.470  0.689E-01  0.668E-01  0.105E-02  0.105E-02
   4.480  0.504E-01  0.487E-01  0.887E-03  0.887E-03
   4.490  0.362E-01  0.347E-01  0.741E-03  0.741E-03
   4.500  0.269E-01  0.256E-01  0.637E-03  0.637E-03
   4.510  0.222E-01  0.210E-01  0.596E-03  0.596E-03
   4.520  0.214E-01  0.201E-01  0.627E-03  0.627E-03
   4.530  0.230E-01  0.216E-01  0.733E-03  0.733E-03
   4.540  0.258E-01  0.239E-01  0.906E-03  0.906E-03
   4.550  0.283E-01  0.261E-01  0.113E-02  0.113E-02
   4.560  0.299E-01  0.271E-01  0.138E-02  0.138E-02
   4.570  0.301E-01  0.268E-01  0.163E-02  0.163E-02
   4.580  0.288E-01  0.251E-01  0.186E-02  0.186E-02
   4.590  0.263E-01  0.222E-01  0.206E-02  0.206E-02
   4.600  0.231E-01  0.187E-01  0.220E-02  0.220E-02
   4.610  0.194E-01  0.148E-01  0.228E-02  0.228E-02
   4.620  0.156E-01  0.110E-01  0.229E-02  0.229E-02
   4.630  0.120E-01  0.748E-02  0.225E-02  0.225E-02
   4.640  0.872E-02  0.442E-02  0.215E-02  0.215E-02
   4.650  0.595E-02  0.192E-02  0.202E-02  0.202E-02
   4.660  0.377E-02  0.330E-04  0.187E-02  0.187E-02
   4.670  0.222E-02 -0.119E-02  0.171E-02  0.171E-02
   4.680  0.138E-02 -0.173E-02  0.156E-02  0.156E-02
   4.690  0.129E-02 -0.153E-02  0.141E-02  0.141E-02
   4.700  0.202E-02 -0.543E-03  0.128E-02  0.128E-02
   4.710  0.369E-02  0.137E-02  0.116E-02  0.116E-02
   4.720  0.652E-02  0.443E-02  0.105E-02  0.105E-02
   4.730  0.108E-01  0.893E-02  0.946E-03  0.946E-03
   4.740  0.170E-01  0.153E-01  0.853E-03  0.853E-03
   4.750  0.254E-01  0.239E-01  0.772E-03  0.772E-03
   4.760  0.366E-01  0.351E-01  0.707E-03  0.707E-03
   4.770  0.505E-01  0.492E-01  0.662E-03  0.662E-03
   4.780  0.672E-01  0.659E-01  0.642E-03  0.642E-03
   4.790  0.861E-01  0.848E-01  0.650E-03  0.650E-03
   4.800  0.106E+00  0.105E+00  0.687E-03  0.687E-03
   4.810  0.127E+00  0.125E+00  0.749E-03  0.749E-03
   4.820  0.145E+00  0.144E+00  0.828E-03  0.828E-03
   4.830  0.161E+00  0.159E+00  0.911E-03  0.911E-03
   4.840  0.172E+00  0.170E+00  0.984E-03  0.984E-03
   4.850  0.177E+00  0.175E+00  0.103E-02  0.103E-02
   4.860  0.176E+00  0.174E+00  0.105E-02  0.105E-02
   4.870  0.169E+00  0.167E+00  0.103E-02  0.103E-02
   4.880  0.157E+00  0.155E+00  0.982E-03  0.982E-03
   4.890  0.141E+00  0.139E+00  0.923E-03  0.923E-03
   4.900  0.124E+00  0.122E+00  0.873E-03  0.873E-03
   4.910  0.107E+00  0.105E+00  0.853E-03  0.853E-03
   4.920  0.914E-01  0.896E-01  0.879E-03  0.879E-03
   4.930  0.790E-01  0.771E-01  0.960E-03  0.960E-03
   4.940  0.701E-01  0.679E-01  0.109E-02  0.109E-02
   4.950  0.646E-01  0.621E-01  0.125E-02  0.125E-02
   4.960  0.619E-01  0.591E-01  0.143E-02  0.143E-02
   4.970  0.612E-01  0.581E-01  0.159E-02  0.159E-02
   4.980  0.616E-01  0.582E-01  0.170E-02  0.170E-02
   4.990  0.623E-01  0.587E-01  0.176E-02  0.176E-02
   5.000  0.624E-01  0.589E-01  0.176E-02  0.176E-02
   5.010  0.617E-01  0.583E-01  0.169E-02  0.169E-02
   5.020  0.599E-01  0.567E-01  0.158E-02  0.158E-02
   5.030  0.569E-01  0.540E-01  0.144E-02  0.144E-02
   5.040  0.528E-01  0.502E-01  0.129E-02  0.129E-02
   5.050  0.482E-01  0.459E-01  0.115E-02  0.115E-02
   5.060  0.436E-01  0.416E-01  0.103E-02  0.103E-02
   5.070  0.401E-01  0.382E-01  0.937E-03  0.937E-03
   5.080  0.386E-01  0.368E-01  0.870E-03  0.870E-03
   5.090  0.400E-01  0.384E-01  0.825E-03  0.825E-03
   5.100  0.451E-01  0.435E-01  0.796E-03  0.796E-03
   5.110  0.540E-01  0.524E-01  0.780E-03  0.780E-03
   5.120  0.661E-01  0.645E-01  0.769E-03  0.769E-03
   5.130  0.802E-01  0.786E-01  0.762E-03  0.762E-03
   5.140  0.946E-01  0.931E-01  0.752E-03  0.752E-03
   5.150  0.107E+00  0.106E+00  0.738E-03  0.738E-03
   5.160  0.117E+00  0.116E+00  0.714E-03  0.714E-03
   5.170  0.122E+00  0.121E+00  0.680E-03  0.680E-03
   5.180  0.122E+00  0.121E+00  0.636E-03  0.636E-03
   5.190  0.118E+00  0.116E+00  0.583E-03  0.583E-03
   5.200  0.110E+00  0.109E+00  0.529E-03  0.529E-03
   5.210  0.101E+00  0.999E-01  0.480E-03  0.480E-03
   5.220  0.923E-01  0.914E-01  0.447E-03  0.447E-03
   5.230  0.857E-01  0.848E-01  0.434E-03  0.434E-03
   5.240  0.819E-01  0.810E-01  0.444E-03  0.444E-03
   5.250  0.810E-01  0.801E-01  0.477E-03  0.477E-03
   5.260  0.827E-01  0.817E-01  0.527E-03  0.527E-03
   5.270  0.860E-01  0.848E-01  0.587E-03  0.587E-03
   5.280  0.898E-01  0.885E-01  0.648E-03  0.648E-03
   5.290  0.933E-01  0.919E-01  0.707E-03  0.707E-03
   5.300  0.957E-01  0.941E-01  0.760E-03  0.760E-03
   5.310  0.964E-01  0.948E-01  0.809E-03  0.809E-03
   5.320  0.953E-01  0.936E-01  0.859E-03  0.859E-03
   5.330  0.923E-01  0.905E-01  0.912E-03  0.912E-03
   5.340  0.875E-01  0.856E-01  0.972E-03  0.972E-03
   5.350  0.813E-01  0.792E-01  0.104E-02  0.104E-02
   5.360  0.741E-01  0.719E-01  0.110E-02  0.110E-02
   5.370  0.666E-01  0.642E-01  0.116E-02  0.116E-02
   5.380  0.594E-01  0.570E-01  0.120E-02  0.120E-02
   5.390  0.535E-01  0.511E-01  0.122E-02  0.122E-02
   5.400  0.495E-01  0.470E-01  0.121E-02  0.121E-02
   5.410  0.477E-01  0.453E-01  0.117E-02  0.117E-02
   5.420  0.481E-01  0.458E-01  0.111E-02  0.111E-02
   5.430  0.503E-01  0.482E-01  0.103E-02  0.103E-02
   5.440  0.537E-01  0.518E-01  0.932E-03  0.932E-03
   5.450  0.573E-01  0.557E-01  0.837E-03  0.837E-03
   5.460  0.606E-01  0.591E-01  0.747E-03  0.747E-03
   5.470  0.629E-01  0.616E-01  0.670E-03  0.670E-03
   5.480  0.641E-01  0.628E-01  0.610E-03  0.610E-03
   5.490  0.639E-01  0.628E-01  0.569E-03  0.569E-03
   5.500  0.626E-01  0.615E-01  0.548E-03  0.548E-03
   5.510  0.601E-01  0.590E-01  0.550E-03  0.550E-03
   5.520  0.566E-01  0.554E-01  0.579E-03  0.579E-03
   5.530  0.522E-01  0.509E-01  0.651E-03  0.651E-03
   5.540  0.472E-01  0.456E-01  0.790E-03  0.790E-03
   5.550  0.422E-01  0.401E-01  0.103E-02  0.103E-02
   5.560  0.381E-01  0.352E-01  0.143E-02  0.143E-02
   5.570  0.361E-01  0.320E-01  0.204E-02  0.204E-02
   5.580  0.373E-01  0.315E-01  0.293E-02  0.293E-02
   5.590  0.429E-01  0.345E-01  0.418E-02  0.418E-02
   5.600  0.531E-01  0.415E-01  0.583E-02  0.583E-02
   5.610  0.681E-01  0.523E-01  0.793E-02  0.793E-02
   5.620  0.871E-01  0.661E-01  0.105E-01  0.105E-01
   5.630  0.109E+00  0.817E-01  0.134E-01  0.134E-01
   5.640  0.131E+00  0.974E-01  0.167E-01  0.167E-01
   5.650  0.152E+00  0.112E+00  0.201E-01  0.201E-01
   5.660  0.170E+00  0.123E+00  0.235E-01  0.235E-01
   5.670  0.184E+00  0.131E+00  0.266E-01  0.266E-01
   5.680  0.194E+00  0.135E+00  0.293E-01  0.293E-01
   5.690  0.198E+00  0.135E+00  0.314E-01  0.314E-01
   5.700  0.197E+00  0.132E+00  0.327E-01  0.327E-01
   5.710  0.193E+00  0.126E+00  0.332E-01  0.332E-01
   5.720  0.184E+00  0.118E+00  0.330E-01  0.330E-01
   5.730  0.173E+00  0.108E+00  0.322E-01  0.322E-01
   5.740  0.159E+00  0.968E-01  0.310E-01  0.310E-01
   5.750  0.144E+00  0.840E-01  0.298E-01  0.298E-01
   5.760  0.128E+00  0.706E-01  0.285E-01  0.285E-01
   5.770  0.112E+00  0.573E-01  0.275E-01  0.275E-01
   5.780  0.987E-01  0.453E-01  0.267E-01  0.267E-01
   5.790  0.882E-01  0.355E-01  0.263E-01  0.263E-01
   5.800  0.815E-01  0.291E-01  0.262E-01  0.262E-01
   5.810  0.791E-01  0.263E-01  0.264E-01  0.264E-01
   5.820  0.806E-01  0.271E-01  0.268E-01  0.268E-01
   5.830  0.853E-01  0.307E-01  0.273E-01  0.273E-01
   5.840  0.919E-01  0.361E-01  0.279E-01  0.279E-01
   5.850  0.991E-01  0.418E-01  0.286E-01  0.286E-01
   5.860  0.106E+00  0.467E-01  0.294E-01  0.294E-01
   5.870  0.110E+00  0.500E-01  0.302E-01  0.302E-01
   5.880  0.113E+00  0.516E-01  0.309E-01  0.309E-01
   5.890  0.115E+00  0.519E-01  0.314E-01  0.314E-01
   5.900  0.115E+00  0.515E-01  0.317E-01  0.317E-01
   5.910  0.115E+00  0.514E-01  0.316E-01  0.316E-01
   5.920  0.115E+00  0.524E-01  0.313E-01  0.313E-01
   5.930  0.116E+00  0.548E-01  0.307E-01  0.307E-01
   5.940  0.119E+00  0.585E-01  0.303E-01  0.303E-01
   5.950  0.123E+00  0.630E-01  0.302E-01  0.302E-01
   5.960  0.129E+00  0.675E-01  0.307E-01  0.307E-01
   5.970  0.135E+00  0.710E-01  0.322E-01  0.322E-01
   5.980  0.143E+00  0.730E-01  0.348E-01  0.348E-01
   5.990  0.150E+00  0.730E-01  0.384E-01  0.384E-01
   6.000  0.156E+00  0.707E-01  0.427E-01  0.427E-01
   6.010  0.161E+00  0.666E-01  0.473E-01  0.473E-01
   6.020  0.164E+00  0.611E-01  0.515E-01  0.515E-01
   6.030  0.165E+00  0.551E-01  0.548E-01  0.548E-01
   6.040  0.163E+00  0.496E-01  0.567E-01  0.567E-01
   6.050  0.159E+00  0.458E-01  0.568E-01  0.568E-01
   6.060  0.155E+00  0.449E-01  0.550E-01  0.550E-01
   6.070  0.151E+00  0.477E-01  0.517E-01  0.517E-01
   6.080  0.149E+00  0.546E-01  0.474E-01  0.474E-01
   6.090  0.151E+00  0.655E-01  0.426E-01  0.426E-01
   6.100  0.156E+00  0.795E-01  0.381E-01  0.381E-01
   6.110  0.164E+00  0.951E-01  0.343E-01  0.343E-01
   6.120  0.174E+00  0.111E+00  0.316E-01  0.316E-01
   6.130  0.184E+00  0.124E+00  0.302E-01  0.302E-01
   6.140  0.193E+00  0.133E+00  0.300E-01  0.300E-01
   6.150  0.199E+00  0.138E+00  0.308E-01  0.308E-01
   6.160  0.201E+00  0.136E+00  0.324E-01  0.324E-01
   6.170  0.198E+00  0.129E+00  0.345E-01  0.345E-01
   6.180  0.190E+00  0.116E+00  0.368E-01  0.368E-01
   6.190  0.178E+00  0.994E-01  0.391E-01  0.391E-01
   6.200  0.163E+00  0.804E-01  0.415E-01  0.415E-01
   6.210  0.148E+00  0.606E-01  0.438E-01  0.438E-01
   6.220  0.134E+00  0.416E-01  0.463E-01  0.463E-01
   6.230  0.123E+00  0.248E-01  0.491E-01  0.491E-01
   6.240  0.116E+00  0.109E-01  0.523E-01  0.523E-01
   6.250  0.112E+00  0.627E-03  0.559E-01  0.559E-01
   6.260  0.114E+00 -0.612E-02  0.598E-01  0.598E-01
   6.270  0.118E+00 -0.961E-02  0.639E-01  0.639E-01
   6.280  0.125E+00 -0.104E-01  0.678E-01  0.678E-01
   6.290  0.134E+00 -0.893E-02  0.713E-01  0.713E-01
   6.300  0.142E+00 -0.586E-02  0.741E-01  0.741E-01
   6.310  0.150E+00 -0.153E-02  0.759E-01  0.759E-01
   6.320  0.157E+00  0.388E-02  0.766E-01  0.766E-01
   6.330  0.163E+00  0.103E-01  0.762E-01  0.762E-01
   6.340  0.167E+00  0.177E-01  0.746E-01  0.746E-01
   6.350  0.170E+00  0.260E-01  0.720E-01  0.720E-01
   6.360  0.172E+00  0.351E-01  0.686E-01  0.686E-01
   6.370  0.174E+00  0.444E-01  0.647E-01  0.647E-01
   6.380  0.175E+00  0.533E-01  0.610E-01  0.610E-01
   6.390  0.177E+00  0.610E-01  0.579E-01  0.579E-01
   6.400  0.179E+00  0.668E-01  0.559E-01  0.559E-01
   6.410  0.181E+00  0.703E-01  0.555E-01  0.555E-01
   6.420  0.185E+00  0.714E-01  0.568E-01  0.568E-01
   6.430  0.190E+00  0.707E-01  0.597E-01  0.597E-01
   6.440  0.197E+00  0.692E-01  0.641E-01  0.641E-01
   6.450  0.207E+00  0.682E-01  0.695E-01  0.695E-01
   6.460  0.220E+00  0.691E-01  0.753E-01  0.753E-01
   6.470  0.234E+00  0.725E-01  0.809E-01  0.809E-01
   6.480  0.251E+00  0.788E-01  0.859E-01  0.859E-01
   6.490  0.267E+00  0.873E-01  0.898E-01  0.898E-01
   6.500  0.281E+00  0.967E-01  0.922E-01  0.922E-01
   6.510  0.292E+00  0.106E+00  0.932E-01  0.932E-01
   6.520  0.298E+00  0.112E+00  0.930E-01  0.930E-01
   6.530  0.300E+00  0.116E+00  0.922E-01  0.922E-01
   6.540  0.300E+00  0.116E+00  0.918E-01  0.918E-01
   6.550  0.299E+00  0.113E+00  0.929E-01  0.929E-01
   6.560  0.300E+00  0.107E+00  0.964E-01  0.964E-01
   6.570  0.306E+00  0.999E-01  0.103E+00  0.103E+00
   6.580  0.318E+00  0.919E-01  0.113E+00  0.113E+00
   6.590  0.336E+00  0.836E-01  0.126E+00  0.126E+00
   6.600  0.360E+00  0.753E-01  0.142E+00  0.142E+00
   6.610  0.387E+00  0.671E-01  0.160E+00  0.160E+00
   6.620  0.415E+00  0.591E-01  0.178E+00  0.178E+00
   6.630  0.443E+00  0.517E-01  0.196E+00  0.196E+00
   6.640  0.470E+00  0.454E-01  0.212E+00  0.212E+00
   6.650  0.495E+00  0.410E-01  0.227E+00  0.227E+00
   6.660  0.517E+00  0.388E-01  0.239E+00  0.239E+00
   6.670  0.535E+00  0.391E-01  0.248E+00  0.248E+00
   6.680  0.548E+00  0.415E-01  0.253E+00  0.253E+00
   6.690  0.553E+00  0.453E-01  0.254E+00  0.254E+00
   6.700  0.551E+00  0.495E-01  0.251E+00  0.251E+00
   6.710  0.539E+00  0.529E-01  0.243E+00  0.243E+00
   6.720  0.518E+00  0.549E-01  0.232E+00  0.232E+00
   6.730  0.490E+00  0.549E-01  0.218E+00  0.218E+00
   6.740  0.458E+00  0.530E-01  0.202E+00  0.202E+00
   6.750  0.423E+00  0.497E-01  0.187E+00  0.187E+00
   6.760  0.389E+00  0.456E-01  0.172E+00  0.172E+00
   6.770  0.358E+00  0.416E-01  0.158E+00  0.158E+00
   6.780  0.331E+00  0.384E-01  0.146E+00  0.146E+00
   6.790  0.308E+00  0.365E-01  0.136E+00  0.136E+00
   6.800  0.289E+00  0.363E-01  0.126E+00  0.126E+00
   6.810  0.273E+00  0.377E-01  0.118E+00  0.118E+00
   6.820  0.260E+00  0.404E-01  0.110E+00  0.110E+00
   6.830  0.249E+00  0.440E-01  0.103E+00  0.103E+00
   6.840  0.240E+00  0.476E-01  0.964E-01  0.964E-01
   6.850  0.234E+00  0.506E-01  0.915E-01  0.915E-01
   6.860  0.229E+00  0.522E-01  0.882E-01  0.882E-01
   6.870  0.226E+00  0.523E-01  0.867E-01  0.867E-01
   6.880  0.225E+00  0.509E-01  0.869E-01  0.869E-01
   6.890  0.225E+00  0.488E-01  0.883E-01  0.883E-01
   6.900  0.228E+00  0.469E-01  0.905E-01  0.905E-01
   6.910  0.232E+00  0.461E-01  0.927E-01  0.927E-01
   6.920  0.236E+00  0.472E-01  0.943E-01  0.943E-01
   6.930  0.240E+00  0.505E-01  0.946E-01  0.946E-01
   6.940  0.242E+00  0.558E-01  0.933E-01  0.933E-01
   6.950  0.243E+00  0.624E-01  0.903E-01  0.903E-01
   6.960  0.240E+00  0.691E-01  0.857E-01  0.857E-01
   6.970  0.235E+00  0.749E-01  0.800E-01  0.800E-01
   6.980  0.227E+00  0.786E-01  0.740E-01  0.740E-01
   6.990  0.216E+00  0.796E-01  0.683E-01  0.683E-01
   7.000  0.205E+00  0.775E-01  0.637E-01  0.637E-01
   7.010  0.194E+00  0.723E-01  0.606E-01  0.606E-01
   7.020  0.183E+00  0.645E-01  0.591E-01  0.591E-01
   7.030  0.173E+00  0.546E-01  0.590E-01  0.590E-01
   7.040  0.163E+00  0.436E-01  0.598E-01  0.598E-01
   7.050  0.154E+00  0.322E-01  0.609E-01  0.609E-01
   7.060  0.145E+00  0.214E-01  0.618E-01  0.618E-01
   7.070  0.135E+00  0.118E-01  0.618E-01  0.618E-01
   7.080  0.126E+00  0.415E-02  0.607E-01  0.607E-01
   7.090  0.116E+00 -0.142E-02  0.585E-01  0.585E-01
   7.100  0.106E+00 -0.492E-02  0.554E-01  0.554E-01
   7.110  0.974E-01 -0.659E-02  0.520E-01  0.520E-01
   7.120  0.905E-01 -0.685E-02  0.487E-01  0.487E-01
   7.130  0.861E-01 -0.617E-02  0.461E-01  0.461E-01
   7.140  0.845E-01 -0.499E-02  0.448E-01  0.448E-01
   7.150  0.860E-01 -0.365E-02  0.448E-01  0.448E-01
   7.160  0.903E-01 -0.237E-02  0.463E-01  0.463E-01
   7.170  0.966E-01 -0.129E-02  0.490E-01  0.490E-01
   7.180  0.104E+00 -0.436E-03  0.522E-01  0.522E-01
   7.190  0.111E+00  0.196E-03  0.555E-01  0.555E-01
   7.200  0.117E+00  0.646E-03  0.581E-01  0.581E-01
   7.210  0.120E+00  0.956E-03  0.595E-01  0.595E-01
   7.220  0.120E+00  0.117E-02  0.593E-01  0.593E-01
   7.230  0.116E+00  0.132E-02  0.573E-01  0.573E-01
   7.240  0.109E+00  0.143E-02  0.536E-01  0.536E-01
   7.250  0.984E-01  0.151E-02  0.484E-01  0.484E-01
   7.260  0.859E-01  0.158E-02  0.421E-01  0.421E-01
   7.270  0.721E-01  0.164E-02  0.353E-01  0.353E-01
   7.280  0.582E-01  0.167E-02  0.283E-01  0.283E-01
   7.290  0.450E-01  0.167E-02  0.217E-01  0.217E-01
   7.300  0.336E-01  0.163E-02  0.160E-01  0.160E-01
   7.310  0.246E-01  0.155E-02  0.115E-01  0.115E-01
   7.320  0.185E-01  0.143E-02  0.851E-02  0.851E-02
   7.330  0.153E-01  0.129E-02  0.699E-02  0.699E-02
   7.340  0.148E-01  0.114E-02  0.685E-02  0.685E-02
   7.350  0.168E-01  0.101E-02  0.789E-02  0.789E-02
   7.360  0.205E-01  0.914E-03  0.980E-02  0.980E-02
   7.370  0.254E-01  0.858E-03  0.123E-01  0.123E-01
   7.380  0.309E-01  0.842E-03  0.150E-01  0.150E-01
   7.390  0.366E-01  0.856E-03  0.179E-01  0.179E-01
   7.400  0.423E-01  0.887E-03  0.207E-01  0.207E-01
   7.410  0.477E-01  0.919E-03  0.234E-01  0.234E-01
   7.420  0.530E-01  0.940E-03  0.260E-01  0.260E-01
   7.430  0.581E-01  0.948E-03  0.286E-01  0.286E-01
   7.440  0.634E-01  0.945E-03  0.312E-01  0.312E-01
   7.450  0.688E-01  0.940E-03  0.339E-01  0.339E-01
   7.460  0.746E-01  0.947E-03  0.368E-01  0.368E-01
   7.470  0.807E-01  0.975E-03  0.399E-01  0.399E-01
   7.480  0.871E-01  0.103E-02  0.430E-01  0.430E-01
   7.490  0.937E-01  0.112E-02  0.463E-01  0.463E-01
   7.500  0.999E-01  0.122E-02  0.493E-01  0.493E-01
   7.510  0.105E+00  0.134E-02  0.519E-01  0.519E-01
   7.520  0.109E+00  0.145E-02  0.538E-01  0.538E-01
   7.530  0.111E+00  0.153E-02  0.547E-01  0.547E-01
   7.540  0.110E+00  0.157E-02  0.544E-01  0.544E-01
   7.550  0.107E+00  0.156E-02  0.527E-01  0.527E-01
   7.560  0.101E+00  0.151E-02  0.499E-01  0.499E-01
   7.570  0.936E-01  0.142E-02  0.461E-01  0.461E-01
   7.580  0.846E-01  0.131E-02  0.417E-01  0.417E-01
   7.590  0.753E-01  0.119E-02  0.371E-01  0.371E-01
   7.600  0.665E-01  0.108E-02  0.327E-01  0.327E-01
   7.610  0.588E-01  0.994E-03  0.289E-01  0.289E-01
   7.620  0.525E-01  0.938E-03  0.258E-01  0.258E-01
   7.630  0.479E-01  0.911E-03  0.235E-01  0.235E-01
   7.640  0.447E-01  0.911E-03  0.219E-01  0.219E-01
   7.650  0.427E-01  0.929E-03  0.209E-01  0.209E-01
   7.660  0.413E-01  0.956E-03  0.202E-01  0.202E-01
   7.670  0.404E-01  0.981E-03  0.197E-01  0.197E-01
   7.680  0.395E-01  0.996E-03  0.193E-01  0.193E-01
   7.690  0.385E-01  0.997E-03  0.187E-01  0.187E-01
   7.700  0.372E-01  0.983E-03  0.181E-01  0.181E-01
   7.710  0.357E-01  0.957E-03  0.174E-01  0.174E-01
   7.720  0.340E-01  0.925E-03  0.166E-01  0.166E-01
   7.730  0.323E-01  0.896E-03  0.157E-01  0.157E-01
   7.740  0.308E-01  0.878E-03  0.149E-01  0.149E-01
   7.750  0.297E-01  0.877E-03  0.144E-01  0.144E-01
   7.760  0.293E-01  0.896E-03  0.142E-01  0.142E-01
   7.770  0.297E-01  0.934E-03  0.144E-01  0.144E-01
   7.780  0.311E-01  0.988E-03  0.151E-01  0.151E-01
   7.790  0.333E-01  0.105E-02  0.161E-01  0.161E-01
   7.800  0.363E-01  0.111E-02  0.176E-01  0.176E-01
   7.810  0.400E-01  0.117E-02  0.194E-01  0.194E-01
   7.820  0.442E-01  0.123E-02  0.215E-01  0.215E-01
   7.830  0.489E-01  0.127E-02  0.238E-01  0.238E-01
   7.840  0.540E-01  0.129E-02  0.264E-01  0.264E-01
   7.850  0.594E-01  0.131E-02  0.290E-01  0.290E-01
   7.860  0.649E-01  0.132E-02  0.318E-01  0.318E-01
   7.870  0.704E-01  0.131E-02  0.346E-01  0.346E-01
   7.880  0.755E-01  0.128E-02  0.371E-01  0.371E-01
   7.890  0.798E-01  0.123E-02  0.393E-01  0.393E-01
   7.900  0.830E-01  0.116E-02  0.409E-01  0.409E-01
   7.910  0.847E-01  0.107E-02  0.418E-01  0.418E-01
   7.920  0.849E-01  0.960E-03  0.420E-01  0.420E-01
   7.930  0.834E-01  0.844E-03  0.413E-01  0.413E-01
   7.940  0.806E-01  0.732E-03  0.399E-01  0.399E-01
   7.950  0.767E-01  0.637E-03  0.380E-01  0.380E-01
   7.960  0.721E-01  0.573E-03  0.358E-01  0.358E-01
   7.970  0.672E-01  0.551E-03  0.333E-01  0.333E-01
   7.980  0.622E-01  0.577E-03  0.308E-01  0.308E-01
   7.990  0.574E-01  0.654E-03  0.284E-01  0.284E-01
   8.000  0.529E-01  0.776E-03  0.261E-01  0.261E-01
   8.010  0.487E-01  0.931E-03  0.239E-01  0.239E-01
   8.020  0.449E-01  0.110E-02  0.219E-01  0.219E-01
   8.030  0.416E-01  0.127E-02  0.202E-01  0.202E-01
   8.040  0.392E-01  0.142E-02  0.189E-01  0.189E-01
   8.050  0.377E-01  0.151E-02  0.181E-01  0.181E-01
   8.060  0.373E-01  0.155E-02  0.179E-01  0.179E-01
   8.070  0.379E-01  0.153E-02  0.182E-01  0.182E-01
   8.080  0.394E-01  0.144E-02  0.190E-01  0.190E-01
   8.090  0.413E-01  0.131E-02  0.200E-01  0.200E-01
   8.100  0.432E-01  0.114E-02  0.210E-01  0.210E-01
   8.110  0.447E-01  0.979E-03  0.219E-01  0.219E-01
   8.120  0.455E-01  0.830E-03  0.223E-01  0.223E-01
   8.130  0.455E-01  0.717E-03  0.224E-01  0.224E-01
   8.140  0.448E-01  0.650E-03  0.221E-01  0.221E-01
   8.150  0.437E-01  0.632E-03  0.215E-01  0.215E-01
   8.160  0.426E-01  0.662E-03  0.209E-01  0.209E-01
   8.170  0.417E-01  0.728E-03  0.205E-01  0.205E-01
   8.180  0.413E-01  0.817E-03  0.202E-01  0.202E-01
   8.190  0.415E-01  0.913E-03  0.203E-01  0.203E-01
   8.200  0.423E-01  0.100E-02  0.207E-01  0.207E-01
   8.210  0.437E-01  0.107E-02  0.213E-01  0.213E-01
   8.220  0.453E-01  0.111E-02  0.221E-01  0.221E-01
   8.230  0.471E-01  0.111E-02  0.230E-01  0.230E-01
   8.240  0.490E-01  0.110E-02  0.240E-01  0.240E-01
   8.250  0.510E-01  0.106E-02  0.250E-01  0.250E-01
   8.260  0.533E-01  0.102E-02  0.262E-01  0.262E-01
   8.270  0.561E-01  0.993E-03  0.276E-01  0.276E-01
   8.280  0.596E-01  0.984E-03  0.293E-01  0.293E-01
   8.290  0.637E-01  0.100E-02  0.313E-01  0.313E-01
   8.300  0.682E-01  0.105E-02  0.336E-01  0.336E-01
   8.310  0.726E-01  0.111E-02  0.357E-01  0.357E-01
   8.320  0.761E-01  0.118E-02  0.375E-01  0.375E-01
   8.330  0.778E-01  0.124E-02  0.383E-01  0.383E-01
   8.340  0.771E-01  0.129E-02  0.379E-01  0.379E-01
   8.350  0.733E-01  0.130E-02  0.360E-01  0.360E-01
   8.360  0.665E-01  0.128E-02  0.326E-01  0.326E-01
   8.370  0.570E-01  0.123E-02  0.279E-01  0.279E-01
   8.380  0.459E-01  0.116E-02  0.224E-01  0.224E-01
   8.390  0.342E-01  0.108E-02  0.166E-01  0.166E-01
   8.400  0.232E-01  0.100E-02  0.111E-01  0.111E-01
   8.410  0.141E-01  0.940E-03  0.656E-02  0.656E-02
   8.420  0.760E-02  0.896E-03  0.335E-02  0.335E-02
   8.430  0.426E-02  0.871E-03  0.169E-02  0.169E-02
   8.440  0.408E-02  0.863E-03  0.161E-02  0.161E-02
   8.450  0.678E-02  0.868E-03  0.296E-02  0.296E-02
   8.460  0.118E-01  0.882E-03  0.547E-02  0.547E-02
   8.470  0.185E-01  0.903E-03  0.879E-02  0.879E-02
   8.480  0.260E-01  0.928E-03  0.125E-01  0.125E-01
   8.490  0.336E-01  0.958E-03  0.163E-01  0.163E-01
   8.500  0.405E-01  0.990E-03  0.197E-01  0.197E-01
   8.510  0.462E-01  0.102E-02  0.226E-01  0.226E-01
   8.520  0.503E-01  0.106E-02  0.246E-01  0.246E-01
   8.530  0.527E-01  0.109E-02  0.258E-01  0.258E-01
   8.540  0.537E-01  0.112E-02  0.263E-01  0.263E-01
   8.550  0.537E-01  0.114E-02  0.263E-01  0.263E-01
   8.560  0.531E-01  0.116E-02  0.260E-01  0.260E-01
   8.570  0.523E-01  0.117E-02  0.256E-01  0.256E-01
   8.580  0.517E-01  0.119E-02  0.252E-01  0.252E-01
   8.590  0.511E-01  0.122E-02  0.249E-01  0.249E-01
   8.600  0.505E-01  0.125E-02  0.246E-01  0.246E-01
   8.610  0.497E-01  0.129E-02  0.242E-01  0.242E-01
   8.620  0.483E-01  0.134E-02  0.235E-01  0.235E-01
   8.630  0.463E-01  0.138E-02  0.225E-01  0.225E-01
   8.640  0.440E-01  0.142E-02  0.213E-01  0.213E-01
   8.650  0.415E-01  0.145E-02  0.200E-01  0.200E-01
   8.660  0.396E-01  0.147E-02  0.191E-01  0.191E-01
   8.670  0.387E-01  0.147E-02  0.186E-01  0.186E-01
   8.680  0.394E-01  0.146E-02  0.190E-01  0.190E-01
   8.690  0.418E-01  0.144E-02  0.202E-01  0.202E-01
   8.700  0.459E-01  0.143E-02  0.222E-01  0.222E-01
   8.710  0.514E-01  0.143E-02  0.250E-01  0.250E-01
   8.720  0.576E-01  0.144E-02  0.281E-01  0.281E-01
   8.730  0.638E-01  0.146E-02  0.312E-01  0.312E-01
   8.740  0.695E-01  0.148E-02  0.340E-01  0.340E-01
   8.750  0.740E-01  0.149E-02  0.362E-01  0.362E-01
   8.760  0.769E-01  0.148E-02  0.377E-01  0.377E-01
   8.770  0.782E-01  0.145E-02  0.384E-01  0.384E-01
   8.780  0.776E-01  0.141E-02  0.381E-01  0.381E-01
   8.790  0.750E-01  0.135E-02  0.368E-01  0.368E-01
   8.800  0.705E-01  0.131E-02  0.346E-01  0.346E-01
   8.810  0.640E-01  0.129E-02  0.314E-01  0.314E-01
   8.820  0.559E-01  0.133E-02  0.273E-01  0.273E-01
   8.830  0.464E-01  0.142E-02  0.225E-01  0.225E-01
   8.840  0.362E-01  0.157E-02  0.173E-01  0.173E-01
   8.850  0.260E-01  0.176E-02  0.121E-01  0.121E-01
   8.860  0.166E-01  0.197E-02  0.734E-02  0.734E-02
   8.870  0.874E-02  0.218E-02  0.328E-02  0.328E-02
   8.880  0.271E-02  0.235E-02  0.180E-03  0.180E-03
   8.890 -0.130E-02  0.247E-02 -0.189E-02 -0.189E-02
   8.900 -0.344E-02  0.253E-02 -0.298E-02 -0.298E-02
   8.910 -0.402E-02  0.250E-02 -0.326E-02 -0.326E-02
   8.920 -0.344E-02  0.240E-02 -0.292E-02 -0.292E-02
   8.930 -0.205E-02  0.224E-02 -0.215E-02 -0.215E-02
   8.940 -0.921E-04  0.205E-02 -0.107E-02 -0.107E-02
   8.950  0.234E-02  0.185E-02  0.244E-03  0.244E-03
   8.960  0.526E-02  0.166E-02  0.180E-02  0.180E-02
   8.970  0.877E-02  0.150E-02  0.364E-02  0.364E-02
   8.980  0.130E-01  0.139E-02  0.580E-02  0.580E-02
   8.990  0.180E-01  0.134E-02  0.832E-02  0.832E-02
   9.000  0.236E-01  0.135E-02  0.111E-01  0.111E-01
   9.010  0.298E-01  0.141E-02  0.142E-01  0.142E-01
   9.020  0.361E-01  0.150E-02  0.173E-01  0.173E-01
   9.030  0.422E-01  0.162E-02  0.203E-01  0.203E-01
   9.040  0.476E-01  0.174E-02  0.229E-01  0.229E-01
   9.050  0.521E-01  0.185E-02  0.251E-01  0.251E-01
   9.060  0.554E-01  0.193E-02  0.268E-01  0.268E-01
   9.070  0.577E-01  0.198E-02  0.278E-01  0.278E-01
   9.080  0.588E-01  0.200E-02  0.284E-01  0.284E-01
   9.090  0.589E-01  0.199E-02  0.285E-01  0.285E-01
   9.100  0.582E-01  0.195E-02  0.281E-01  0.281E-01
   9.110  0.567E-01  0.192E-02  0.274E-01  0.274E-01
   9.120  0.543E-01  0.188E-02  0.262E-01  0.262E-01
   9.130  0.511E-01  0.186E-02  0.246E-01  0.246E-01
   9.140  0.473E-01  0.184E-02  0.227E-01  0.227E-01
   9.150  0.434E-01  0.184E-02  0.208E-01  0.208E-01
   9.160  0.398E-01  0.185E-02  0.190E-01  0.190E-01
   9.170  0.373E-01  0.186E-02  0.177E-01  0.177E-01
   9.180  0.366E-01  0.187E-02  0.174E-01  0.174E-01
   9.190  0.381E-01  0.188E-02  0.181E-01  0.181E-01
   9.200  0.421E-01  0.190E-02  0.201E-01  0.201E-01
   9.210  0.483E-01  0.193E-02  0.232E-01  0.232E-01
   9.220  0.559E-01  0.198E-02  0.270E-01  0.270E-01
   9.230  0.640E-01  0.205E-02  0.310E-01  0.310E-01
   9.240  0.713E-01  0.213E-02  0.346E-01  0.346E-01
   9.250  0.767E-01  0.221E-02  0.372E-01  0.372E-01
   9.260  0.793E-01  0.227E-02  0.385E-01  0.385E-01
   9.270  0.787E-01  0.229E-02  0.382E-01  0.382E-01
   9.280  0.748E-01  0.226E-02  0.363E-01  0.363E-01
   9.290  0.680E-01  0.217E-02  0.329E-01  0.329E-01
   9.300  0.588E-01  0.203E-02  0.284E-01  0.284E-01
   9.310  0.482E-01  0.184E-02  0.232E-01  0.232E-01
   9.320  0.371E-01  0.164E-02  0.177E-01  0.177E-01
   9.330  0.264E-01  0.142E-02  0.125E-01  0.125E-01
   9.340  0.167E-01  0.122E-02  0.772E-02  0.772E-02
   9.350  0.855E-02  0.106E-02  0.375E-02  0.375E-02
   9.360  0.237E-02  0.958E-03  0.704E-03  0.704E-03
   9.370 -0.183E-02  0.926E-03 -0.138E-02 -0.138E-02
   9.380 -0.417E-02  0.979E-03 -0.258E-02 -0.258E-02
   9.390 -0.495E-02  0.112E-02 -0.303E-02 -0.303E-02
   9.400 -0.454E-02  0.135E-02 -0.294E-02 -0.294E-02
   9.410 -0.336E-02  0.164E-02 -0.250E-02 -0.250E-02
   9.420 -0.179E-02  0.198E-02 -0.189E-02 -0.189E-02
   9.430 -0.124E-03  0.233E-02 -0.123E-02 -0.123E-02
   9.440  0.146E-02  0.266E-02 -0.599E-03 -0.599E-03
   9.450  0.286E-02  0.291E-02 -0.242E-04 -0.242E-04
   9.460  0.411E-02  0.307E-02  0.520E-03  0.520E-03
   9.470  0.529E-02  0.311E-02  0.109E-02  0.109E-02
   9.480  0.655E-02  0.302E-02  0.176E-02  0.176E-02
   9.490  0.806E-02  0.283E-02  0.262E-02  0.262E-02
   9.500  0.100E-01  0.254E-02  0.374E-02  0.374E-02
   9.510  0.126E-01  0.221E-02  0.518E-02  0.518E-02
   9.520  0.158E-01  0.186E-02  0.697E-02  0.697E-02
   9.530  0.197E-01  0.153E-02  0.910E-02  0.910E-02
   9.540  0.243E-01  0.124E-02  0.115E-01  0.115E-01
   9.550  0.295E-01  0.103E-02  0.142E-01  0.142E-01
   9.560  0.349E-01  0.895E-03  0.170E-01  0.170E-01
   9.570  0.405E-01  0.844E-03  0.199E-01  0.199E-01
   9.580  0.460E-01  0.869E-03  0.225E-01  0.225E-01
   9.590  0.509E-01  0.961E-03  0.250E-01  0.250E-01
   9.600  0.549E-01  0.110E-02  0.269E-01  0.269E-01
   9.610  0.578E-01  0.127E-02  0.283E-01  0.283E-01
   9.620  0.592E-01  0.144E-02  0.289E-01  0.289E-01
   9.630  0.590E-01  0.160E-02  0.287E-01  0.287E-01
   9.640  0.572E-01  0.174E-02  0.277E-01  0.277E-01
   9.650  0.538E-01  0.185E-02  0.260E-01  0.260E-01
   9.660  0.496E-01  0.193E-02  0.238E-01  0.238E-01
   9.670  0.449E-01  0.200E-02  0.215E-01  0.215E-01
   9.680  0.408E-01  0.207E-02  0.194E-01  0.194E-01
   9.690  0.379E-01  0.214E-02  0.179E-01  0.179E-01
   9.700  0.369E-01  0.223E-02  0.173E-01  0.173E-01
   9.710  0.382E-01  0.232E-02  0.179E-01  0.179E-01
   9.720  0.418E-01  0.241E-02  0.197E-01  0.197E-01
   9.730  0.473E-01  0.247E-02  0.224E-01  0.224E-01
   9.740  0.538E-01  0.250E-02  0.257E-01  0.257E-01
   9.750  0.603E-01  0.246E-02  0.289E-01  0.289E-01
   9.760  0.654E-01  0.235E-02  0.315E-01  0.315E-01
   9.770  0.682E-01  0.218E-02  0.330E-01  0.330E-01
   9.780  0.678E-01  0.195E-02  0.329E-01  0.329E-01
   9.790  0.639E-01  0.170E-02  0.311E-01  0.311E-01
   9.800  0.569E-01  0.145E-02  0.277E-01  0.277E-01
   9.810  0.473E-01  0.123E-02  0.230E-01  0.230E-01
   9.820  0.364E-01  0.107E-02  0.176E-01  0.176E-01
   9.830  0.252E-01  0.970E-03  0.121E-01  0.121E-01
   9.840  0.150E-01  0.946E-03  0.702E-02  0.702E-02
   9.850  0.652E-02  0.988E-03  0.277E-02  0.277E-02
   9.860  0.265E-03  0.108E-02 -0.408E-03 -0.408E-03
   9.870 -0.371E-02  0.121E-02 -0.246E-02 -0.246E-02
   9.880 -0.566E-02  0.134E-02 -0.350E-02 -0.350E-02
   9.890 -0.601E-02  0.146E-02 -0.374E-02 -0.374E-02
   9.900 -0.532E-02  0.154E-02 -0.343E-02 -0.343E-02
   9.910 -0.404E-02  0.156E-02 -0.280E-02 -0.280E-02
   9.920 -0.258E-02  0.151E-02 -0.204E-02 -0.204E-02
   9.930 -0.118E-02  0.139E-02 -0.128E-02 -0.128E-02
   9.940  0.690E-04  0.121E-02 -0.573E-03 -0.573E-03
   9.950  0.115E-02  0.100E-02  0.732E-04  0.732E-04
   9.960  0.213E-02  0.776E-03  0.678E-03  0.678E-03
   9.970  0.312E-02  0.558E-03  0.128E-02  0.128E-02
   9.980  0.422E-02  0.371E-03  0.192E-02  0.192E-02
   9.990  0.551E-02  0.229E-03  0.264E-02  0.264E-02
  10.000  0.707E-02  0.141E-03  0.347E-02  0.347E-02
  10.010  0.892E-02  0.108E-03  0.441E-02  0.441E-02
  10.020  0.111E-01  0.125E-03  0.547E-02  0.547E-02
  10.030  0.135E-01  0.182E-03  0.665E-02  0.665E-02
  10.040  0.162E-01  0.267E-03  0.797E-02  0.797E-02
  10.050  0.192E-01  0.366E-03  0.943E-02  0.943E-02
  10.060  0.226E-01  0.466E-03  0.111E-01  0.111E-01
  10.070  0.263E-01  0.555E-03  0.129E-01  0.129E-01
  10.080  0.305E-01  0.623E-03  0.149E-01  0.149E-01
  10.090  0.351E-01  0.665E-03  0.172E-01  0.172E-01
  10.100  0.398E-01  0.681E-03  0.196E-01  0.196E-01
  10.110  0.446E-01  0.674E-03  0.220E-01  0.220E-01
  10.120  0.489E-01  0.650E-03  0.241E-01  0.241E-01
  10.130  0.524E-01  0.617E-03  0.259E-01  0.259E-01
  10.140  0.545E-01  0.582E-03  0.269E-01  0.269E-01
  10.150  0.549E-01  0.552E-03  0.272E-01  0.272E-01
  10.160  0.536E-01  0.530E-03  0.266E-01  0.266E-01
  10.170  0.508E-01  0.518E-03  0.251E-01  0.251E-01
  10.180  0.468E-01  0.512E-03  0.231E-01  0.231E-01
  10.190  0.424E-01  0.512E-03  0.209E-01  0.209E-01
  10.200  0.383E-01  0.513E-03  0.189E-01  0.189E-01
  10.210  0.352E-01  0.512E-03  0.173E-01  0.173E-01
  10.220  0.336E-01  0.506E-03  0.165E-01  0.165E-01
  10.230  0.336E-01  0.496E-03  0.166E-01  0.166E-01
  10.240  0.350E-01  0.481E-03  0.173E-01  0.173E-01
  10.250  0.373E-01  0.467E-03  0.184E-01  0.184E-01
  10.260  0.396E-01  0.458E-03  0.196E-01  0.196E-01
  10.270  0.412E-01  0.461E-03  0.203E-01  0.203E-01
  10.280  0.413E-01  0.483E-03  0.204E-01  0.204E-01
  10.290  0.396E-01  0.530E-03  0.196E-01  0.196E-01
  10.300  0.361E-01  0.606E-03  0.178E-01  0.178E-01
  10.310  0.311E-01  0.710E-03  0.152E-01  0.152E-01
  10.320  0.251E-01  0.838E-03  0.121E-01  0.121E-01
  10.330  0.189E-01  0.980E-03  0.894E-02  0.894E-02
  10.340  0.130E-01  0.113E-02  0.594E-02  0.594E-02
  10.350  0.812E-02  0.126E-02  0.343E-02  0.343E-02
  10.360  0.450E-02  0.138E-02  0.156E-02  0.156E-02
  10.370  0.225E-02  0.146E-02  0.393E-03  0.393E-03
  10.380  0.127E-02  0.150E-02 -0.118E-03 -0.118E-03
  10.390  0.135E-02  0.151E-02 -0.779E-04 -0.779E-04
  10.400  0.224E-02  0.147E-02  0.384E-03  0.384E-03
  10.410  0.368E-02  0.140E-02  0.114E-02  0.114E-02
  10.420  0.548E-02  0.130E-02  0.209E-02  0.209E-02
  10.430  0.748E-02  0.119E-02  0.315E-02  0.315E-02
  10.440  0.958E-02  0.107E-02  0.426E-02  0.426E-02
  10.450  0.117E-01  0.969E-03  0.536E-02  0.536E-02
  10.460  0.137E-01  0.889E-03  0.639E-02  0.639E-02
  10.470  0.155E-01  0.842E-03  0.731E-02  0.731E-02
  10.480  0.169E-01  0.834E-03  0.805E-02  0.805E-02
  10.490  0.180E-01  0.863E-03  0.858E-02  0.858E-02
  10.500  0.188E-01  0.918E-03  0.893E-02  0.893E-02
  10.510  0.193E-01  0.987E-03  0.915E-02  0.915E-02
  10.520  0.198E-01  0.105E-02  0.937E-02  0.937E-02
  10.530  0.205E-01  0.110E-02  0.972E-02  0.972E-02
  10.540  0.218E-01  0.112E-02  0.103E-01  0.103E-01
  10.550  0.237E-01  0.111E-02  0.113E-01  0.113E-01
  10.560  0.262E-01  0.108E-02  0.125E-01  0.125E-01
  10.570  0.291E-01  0.105E-02  0.140E-01  0.140E-01
  10.580  0.321E-01  0.101E-02  0.156E-01  0.156E-01
  10.590  0.347E-01  0.998E-03  0.168E-01  0.168E-01
  10.600  0.364E-01  0.101E-02  0.177E-01  0.177E-01
  10.610  0.369E-01  0.104E-02  0.179E-01  0.179E-01
  10.620  0.361E-01  0.111E-02  0.175E-01  0.175E-01
  10.630  0.344E-01  0.119E-02  0.166E-01  0.166E-01
  10.640  0.320E-01  0.129E-02  0.154E-01  0.154E-01
  10.650  0.297E-01  0.138E-02  0.141E-01  0.141E-01
  10.660  0.279E-01  0.148E-02  0.132E-01  0.132E-01
  10.670  0.273E-01  0.156E-02  0.129E-01  0.129E-01
  10.680  0.279E-01  0.162E-02  0.131E-01  0.131E-01
  10.690  0.297E-01  0.166E-02  0.140E-01  0.140E-01
  10.700  0.322E-01  0.167E-02  0.153E-01  0.153E-01
  10.710  0.349E-01  0.166E-02  0.166E-01  0.166E-01
  10.720  0.371E-01  0.162E-02  0.178E-01  0.178E-01
  10.730  0.384E-01  0.156E-02  0.184E-01  0.184E-01
  10.740  0.383E-01  0.150E-02  0.184E-01  0.184E-01
  10.750  0.368E-01  0.144E-02  0.177E-01  0.177E-01
  10.760  0.341E-01  0.140E-02  0.163E-01  0.163E-01
  10.770  0.306E-01  0.138E-02  0.146E-01  0.146E-01
  10.780  0.270E-01  0.138E-02  0.128E-01  0.128E-01
  10.790  0.236E-01  0.142E-02  0.111E-01  0.111E-01
  10.800  0.209E-01  0.148E-02  0.969E-02  0.969E-02
  10.810  0.191E-01  0.156E-02  0.876E-02  0.876E-02
  10.820  0.182E-01  0.164E-02  0.828E-02  0.828E-02
  10.830  0.181E-01  0.174E-02  0.819E-02  0.819E-02
  10.840  0.186E-01  0.183E-02  0.837E-02  0.837E-02
  10.850  0.193E-01  0.191E-02  0.868E-02  0.868E-02
  10.860  0.200E-01  0.197E-02  0.900E-02  0.900E-02
  10.870  0.205E-01  0.200E-02  0.923E-02  0.923E-02
  10.880  0.207E-01  0.198E-02  0.935E-02  0.935E-02
  10.890  0.207E-01  0.191E-02  0.939E-02  0.939E-02
  10.900  0.206E-01  0.177E-02  0.940E-02  0.940E-02
  10.910  0.205E-01  0.157E-02  0.948E-02  0.948E-02
  10.920  0.207E-01  0.132E-02  0.970E-02  0.970E-02
  10.930  0.212E-01  0.104E-02  0.101E-01  0.101E-01
  10.940  0.221E-01  0.757E-03  0.107E-01  0.107E-01
  10.950  0.233E-01  0.498E-03  0.114E-01  0.114E-01
  10.960  0.248E-01  0.282E-03  0.123E-01  0.123E-01
  10.970  0.264E-01  0.119E-03  0.131E-01  0.131E-01
  10.980  0.279E-01  0.147E-04  0.139E-01  0.139E-01
  10.990  0.292E-01 -0.380E-04  0.146E-01  0.146E-01
  11.000  0.303E-01 -0.491E-04  0.152E-01  0.152E-01
  11.010  0.311E-01 -0.321E-04  0.155E-01  0.155E-01
  11.020  0.314E-01 -0.412E-06  0.157E-01  0.157E-01
  11.030  0.313E-01  0.346E-04  0.157E-01  0.157E-01
  11.040  0.308E-01  0.645E-04  0.154E-01  0.154E-01
  11.050  0.299E-01  0.843E-04  0.149E-01  0.149E-01
  11.060  0.286E-01  0.918E-04  0.143E-01  0.143E-01
  11.070  0.270E-01  0.878E-04  0.135E-01  0.135E-01
  11.080  0.253E-01  0.747E-04  0.126E-01  0.126E-01
  11.090  0.235E-01  0.559E-04  0.117E-01  0.117E-01
  11.100  0.217E-01  0.352E-04  0.109E-01  0.109E-01
  11.110  0.201E-01  0.156E-04  0.100E-01  0.100E-01
  11.120  0.187E-01 -0.348E-06  0.933E-02  0.933E-02
  11.130  0.174E-01 -0.116E-04  0.870E-02  0.870E-02
  11.140  0.162E-01 -0.180E-04  0.812E-02  0.812E-02
  11.150  0.151E-01 -0.202E-04  0.755E-02  0.755E-02
  11.160  0.138E-01 -0.194E-04  0.693E-02  0.693E-02
  11.170  0.124E-01 -0.166E-04  0.622E-02  0.622E-02
  11.180  0.108E-01 -0.131E-04  0.540E-02  0.540E-02
  11.190  0.891E-02 -0.944E-05  0.446E-02  0.446E-02
  11.200  0.691E-02 -0.618E-05  0.346E-02  0.346E-02
  11.210  0.493E-02 -0.343E-05  0.247E-02  0.247E-02
  11.220  0.316E-02 -0.115E-05  0.158E-02  0.158E-02
  11.230  0.177E-02  0.791E-06  0.884E-03  0.884E-03
  11.240  0.925E-03  0.256E-05  0.461E-03  0.461E-03
  11.250  0.730E-03  0.428E-05  0.363E-03  0.363E-03
  11.260  0.122E-02  0.605E-05  0.607E-03  0.607E-03
  11.270  0.237E-02  0.789E-05  0.118E-02  0.118E-02
  11.280  0.408E-02  0.980E-05  0.204E-02  0.204E-02
  11.290  0.623E-02  0.117E-04  0.311E-02  0.311E-02
  11.300  0.862E-02  0.137E-04  0.430E-02  0.430E-02
  11.310  0.111E-01  0.156E-04  0.552E-02  0.552E-02
  11.320  0.133E-01  0.175E-04  0.665E-02  0.665E-02
  11.330  0.152E-01  0.192E-04  0.761E-02  0.761E-02
  11.340  0.167E-01  0.208E-04  0.832E-02  0.832E-02
  11.350  0.175E-01  0.221E-04  0.876E-02  0.876E-02
  11.360  0.178E-01  0.228E-04  0.891E-02  0.891E-02
  11.370  0.176E-01  0.228E-04  0.881E-02  0.881E-02
  11.380  0.170E-01  0.219E-04  0.850E-02  0.850E-02
  11.390  0.160E-01  0.200E-04  0.801E-02  0.801E-02
  11.400  0.148E-01  0.173E-04  0.737E-02  0.737E-02
  11.410  0.132E-01  0.138E-04  0.660E-02  0.660E-02
  11.420  0.114E-01  0.100E-04  0.572E-02  0.572E-02
  11.430  0.948E-02  0.630E-05  0.474E-02  0.474E-02
  11.440  0.739E-02  0.301E-05  0.370E-02  0.370E-02
  11.450  0.530E-02  0.413E-06  0.265E-02  0.265E-02
  11.460  0.332E-02 -0.138E-05  0.166E-02  0.166E-02
  11.470  0.159E-02 -0.238E-05  0.796E-03  0.796E-03
  11.480  0.207E-03 -0.272E-05  0.105E-03  0.105E-03
  11.490 -0.776E-03 -0.258E-05 -0.387E-03 -0.387E-03
  11.500 -0.136E-02 -0.215E-05 -0.681E-03 -0.681E-03
  11.510 -0.161E-02 -0.158E-05 -0.804E-03 -0.804E-03
  11.520 -0.160E-02 -0.101E-05 -0.797E-03 -0.797E-03
  11.530 -0.142E-02 -0.494E-06 -0.708E-03 -0.708E-03
  11.540 -0.115E-02 -0.826E-07 -0.577E-03 -0.577E-03
  11.550 -0.876E-03  0.219E-06 -0.438E-03 -0.438E-03
  11.560 -0.625E-03  0.416E-06 -0.313E-03 -0.313E-03
  11.570 -0.421E-03  0.519E-06 -0.211E-03 -0.211E-03
  11.580 -0.269E-03  0.546E-06 -0.135E-03 -0.135E-03
  11.590 -0.163E-03  0.515E-06 -0.816E-04 -0.816E-04
  11.600 -0.937E-04  0.448E-06 -0.471E-04 -0.471E-04
  11.610 -0.514E-04  0.367E-06 -0.259E-04 -0.259E-04
  11.620 -0.269E-04  0.297E-06 -0.136E-04 -0.136E-04
  11.630 -0.133E-04  0.263E-06 -0.680E-05 -0.680E-05
  11.640 -0.622E-05  0.286E-06 -0.325E-05 -0.325E-05
  11.650 -0.258E-05  0.386E-06 -0.148E-05 -0.148E-05
  11.660 -0.712E-06  0.576E-06 -0.644E-06 -0.644E-06
  11.670  0.343E-06  0.865E-06 -0.261E-06 -0.261E-06
  11.680  0.107E-05  0.125E-05 -0.921E-07 -0.921E-07
  11.690  0.169E-05  0.172E-05 -0.174E-07 -0.174E-07
  11.700  0.229E-05  0.225E-05  0.181E-07  0.181E-07
  11.710  0.288E-05  0.280E-05  0.383E-07  0.383E-07
  11.720  0.344E-05  0.334E-05  0.532E-07  0.532E-07
  11.730  0.394E-05  0.381E-05  0.664E-07  0.664E-07
  11.740  0.434E-05  0.418E-05  0.792E-07  0.792E-07
  11.750  0.462E-05  0.444E-05  0.917E-07  0.917E-07
  11.760  0.478E-05  0.457E-05  0.104E-06  0.104E-06
  11.770  0.482E-05  0.459E-05  0.114E-06  0.114E-06
  11.780  0.475E-05  0.450E-05  0.123E-06  0.123E-06
  11.790  0.458E-05  0.432E-05  0.128E-06  0.128E-06
  11.800  0.432E-05  0.407E-05  0.129E-06  0.129E-06
  11.810  0.398E-05  0.373E-05  0.125E-06  0.125E-06
  11.820  0.354E-05  0.331E-05  0.115E-06  0.115E-06
  11.830  0.302E-05  0.282E-05  0.996E-07  0.996E-07
  11.840  0.243E-05  0.226E-05  0.806E-07  0.806E-07
  11.850  0.180E-05  0.168E-05  0.595E-07  0.595E-07
  11.860  0.119E-05  0.111E-05  0.386E-07  0.386E-07
  11.870  0.629E-06  0.590E-06  0.199E-07  0.199E-07
  11.880  0.171E-06  0.161E-06  0.470E-08  0.470E-08
  11.890 -0.167E-06 -0.154E-06 -0.610E-08 -0.610E-08
  11.900 -0.377E-06 -0.352E-06 -0.125E-07 -0.125E-07
  11.910 -0.473E-06 -0.443E-06 -0.152E-07 -0.152E-07
  11.920 -0.478E-06 -0.447E-06 -0.151E-07 -0.151E-07
  11.930 -0.419E-06 -0.392E-06 -0.133E-07 -0.133E-07
  11.940 -0.319E-06 -0.298E-06 -0.106E-07 -0.106E-07
  11.950 -0.196E-06 -0.181E-06 -0.780E-08 -0.780E-08
  11.960 -0.553E-07 -0.448E-07 -0.522E-08 -0.522E-08
  11.970  0.108E-06  0.114E-06 -0.304E-08 -0.304E-08
  11.980  0.303E-06  0.305E-06 -0.124E-08 -0.124E-08
  11.990  0.543E-06  0.543E-06  0.267E-09  0.267E-09
  12.000  0.841E-06  0.837E-06  0.162E-08  0.162E-08
  12.010  0.120E-05  0.119E-05  0.292E-08  0.292E-08
  12.020  0.160E-05  0.159E-05  0.421E-08  0.421E-08
  12.030  0.203E-05  0.202E-05  0.548E-08  0.548E-08
  12.040  0.245E-05  0.243E-05  0.666E-08  0.666E-08
  12.050  0.279E-05  0.278E-05  0.763E-08  0.763E-08
  12.060  0.302E-05  0.300E-05  0.827E-08  0.827E-08
  12.070  0.308E-05  0.307E-05  0.846E-08  0.846E-08
  12.080  0.297E-05  0.295E-05  0.817E-08  0.817E-08
  12.090  0.267E-05  0.266E-05  0.743E-08  0.743E-08
  12.100  0.224E-05  0.223E-05  0.638E-08  0.638E-08
  12.110  0.174E-05  0.173E-05  0.524E-08  0.524E-08
  12.120  0.123E-05  0.123E-05  0.430E-08  0.430E-08
  12.130  0.804E-06  0.796E-06  0.394E-08  0.394E-08
  12.140  0.519E-06  0.510E-06  0.455E-08  0.455E-08
  12.150  0.434E-06  0.421E-06  0.657E-08  0.657E-08
  12.160  0.586E-06  0.565E-06  0.105E-07  0.105E-07
  12.170  0.998E-06  0.965E-06  0.167E-07  0.167E-07
  12.180  0.168E-05  0.163E-05  0.256E-07  0.256E-07
  12.190  0.261E-05  0.254E-05  0.374E-07  0.374E-07
  12.200  0.377E-05  0.366E-05  0.520E-07  0.520E-07
  12.210  0.509E-05  0.495E-05  0.688E-07  0.688E-07
  12.220  0.648E-05  0.630E-05  0.869E-07  0.869E-07
  12.230  0.782E-05  0.761E-05  0.105E-06  0.105E-06
  12.240  0.897E-05  0.872E-05  0.121E-06  0.121E-06
  12.250  0.979E-05  0.953E-05  0.133E-06  0.133E-06
  12.260  0.102E-04  0.990E-05  0.139E-06  0.139E-06
  12.270  0.101E-04  0.980E-05  0.140E-06  0.140E-06
  12.280  0.949E-05  0.923E-05  0.134E-06  0.134E-06
  12.290  0.847E-05  0.823E-05  0.122E-06  0.122E-06
  12.300  0.714E-05  0.693E-05  0.105E-06  0.105E-06
  12.310  0.563E-05  0.546E-05  0.851E-07  0.851E-07
  12.320  0.410E-05  0.397E-05  0.641E-07  0.641E-07
  12.330  0.266E-05  0.257E-05  0.438E-07  0.438E-07
  12.340  0.143E-05  0.138E-05  0.256E-07  0.256E-07
  12.350  0.454E-06  0.433E-06  0.107E-07  0.107E-07
  12.360 -0.245E-06 -0.244E-06 -0.467E-09 -0.467E-09
  12.370 -0.683E-06 -0.667E-06 -0.790E-08 -0.790E-08
  12.380 -0.898E-06 -0.874E-06 -0.120E-07 -0.120E-07
  12.390 -0.944E-06 -0.917E-06 -0.134E-07 -0.134E-07
  12.400 -0.875E-06 -0.850E-06 -0.129E-07 -0.129E-07
  12.410 -0.743E-06 -0.720E-06 -0.112E-07 -0.112E-07
  12.420 -0.587E-06 -0.569E-06 -0.899E-08 -0.899E-08
  12.430 -0.435E-06 -0.422E-06 -0.676E-08 -0.676E-08
  12.440 -0.305E-06 -0.296E-06 -0.479E-08 -0.479E-08
  12.450 -0.202E-06 -0.196E-06 -0.321E-08 -0.321E-08
  12.460 -0.127E-06 -0.123E-06 -0.204E-08 -0.204E-08
  12.470 -0.739E-07 -0.715E-07 -0.123E-08 -0.123E-08
  12.480 -0.371E-07 -0.357E-07 -0.702E-09 -0.702E-09
  12.490 -0.867E-08 -0.792E-08 -0.372E-09 -0.372E-09
  12.500  0.197E-07  0.201E-07 -0.168E-09 -0.168E-09
  12.510  0.584E-07  0.585E-07 -0.310E-10 -0.310E-10
  12.520  0.121E-06  0.121E-06  0.859E-10  0.859E-10
  12.530  0.226E-06  0.225E-06  0.223E-09  0.223E-09
  12.540  0.396E-06  0.396E-06  0.419E-09  0.419E-09
  12.550  0.663E-06  0.661E-06  0.711E-09  0.711E-09
  12.560  0.106E-05  0.106E-05  0.114E-08  0.114E-08
  12.570  0.161E-05  0.161E-05  0.173E-08  0.173E-08
  12.580  0.233E-05  0.233E-05  0.252E-08  0.252E-08
  12.590  0.323E-05  0.322E-05  0.348E-08  0.348E-08
  12.600  0.425E-05  0.424E-05  0.459E-08  0.459E-08
  12.610  0.533E-05  0.532E-05  0.575E-08  0.575E-08
  12.620  0.635E-05  0.634E-05  0.685E-08  0.685E-08
  12.630  0.718E-05  0.716E-05  0.774E-08  0.774E-08
  12.640  0.769E-05  0.767E-05  0.829E-08  0.829E-08
  12.650  0.777E-05  0.775E-05  0.838E-08  0.838E-08
  12.660  0.739E-05  0.737E-05  0.797E-08  0.797E-08
  12.670  0.657E-05  0.656E-05  0.709E-08  0.709E-08
  12.680  0.541E-05  0.539E-05  0.583E-08  0.583E-08
  12.690  0.405E-05  0.404E-05  0.437E-08  0.437E-08
  12.700  0.266E-05  0.266E-05  0.287E-08  0.287E-08
  12.710  0.140E-05  0.140E-05  0.151E-08  0.151E-08
  12.720  0.380E-06  0.379E-06  0.410E-09  0.410E-09
  12.730 -0.346E-06 -0.345E-06 -0.373E-09 -0.373E-09
  12.740 -0.778E-06 -0.776E-06 -0.839E-09 -0.839E-09
  12.750 -0.957E-06 -0.955E-06 -0.103E-08 -0.103E-08
  12.760 -0.952E-06 -0.950E-06 -0.103E-08 -0.103E-08
  12.770 -0.834E-06 -0.832E-06 -0.899E-09 -0.899E-09
  12.780 -0.665E-06 -0.664E-06 -0.718E-09 -0.718E-09
  12.790 -0.492E-06 -0.491E-06 -0.530E-09 -0.530E-09
  12.800 -0.340E-06 -0.339E-06 -0.367E-09 -0.367E-09
  12.810 -0.221E-06 -0.221E-06 -0.238E-09 -0.238E-09
  12.820 -0.136E-06 -0.136E-06 -0.147E-09 -0.147E-09
  12.830 -0.790E-07 -0.789E-07 -0.853E-10 -0.853E-10
  12.840 -0.437E-07 -0.436E-07 -0.471E-10 -0.471E-10
