# E (eV)   ldos(E)   pdos(E)   
 -21.420  0.836E-07  0.836E-07
 -21.410  0.244E-06  0.244E-06
 -21.400  0.681E-06  0.681E-06
 -21.390  0.183E-05  0.183E-05
 -21.380  0.469E-05  0.469E-05
 -21.370  0.116E-04  0.116E-04
 -21.360  0.273E-04  0.273E-04
 -21.350  0.618E-04  0.618E-04
 -21.340  0.134E-03  0.134E-03
 -21.330  0.279E-03  0.279E-03
 -21.320  0.558E-03  0.558E-03
 -21.310  0.107E-02  0.107E-02
 -21.300  0.196E-02  0.196E-02
 -21.290  0.345E-02  0.345E-02
 -21.280  0.582E-02  0.582E-02
 -21.270  0.943E-02  0.943E-02
 -21.260  0.147E-01  0.147E-01
 -21.250  0.219E-01  0.219E-01
 -21.240  0.314E-01  0.314E-01
 -21.230  0.432E-01  0.432E-01
 -21.220  0.573E-01  0.573E-01
 -21.210  0.733E-01  0.733E-01
 -21.200  0.903E-01  0.903E-01
 -21.190  0.107E+00  0.107E+00
 -21.180  0.124E+00  0.124E+00
 -21.170  0.138E+00  0.138E+00
 -21.160  0.150E+00  0.150E+00
 -21.150  0.158E+00  0.158E+00
 -21.140  0.163E+00  0.163E+00
 -21.130  0.164E+00  0.164E+00
 -21.120  0.163E+00  0.163E+00
 -21.110  0.161E+00  0.161E+00
 -21.100  0.157E+00  0.157E+00
 -21.090  0.154E+00  0.154E+00
 -21.080  0.152E+00  0.152E+00
 -21.070  0.151E+00  0.151E+00
 -21.060  0.150E+00  0.150E+00
 -21.050  0.150E+00  0.150E+00
 -21.040  0.148E+00  0.148E+00
 -21.030  0.145E+00  0.145E+00
 -21.020  0.140E+00  0.140E+00
 -21.010  0.134E+00  0.134E+00
 -21.000  0.129E+00  0.129E+00
 -20.990  0.126E+00  0.126E+00
 -20.980  0.125E+00  0.125E+00
 -20.970  0.128E+00  0.128E+00
 -20.960  0.133E+00  0.133E+00
 -20.950  0.140E+00  0.140E+00
 -20.940  0.146E+00  0.146E+00
 -20.930  0.150E+00  0.150E+00
 -20.920  0.150E+00  0.150E+00
 -20.910  0.145E+00  0.145E+00
 -20.900  0.136E+00  0.136E+00
 -20.890  0.125E+00  0.125E+00
 -20.880  0.114E+00  0.114E+00
 -20.870  0.105E+00  0.105E+00
 -20.860  0.992E-01  0.992E-01
 -20.850  0.985E-01  0.985E-01
 -20.840  0.103E+00  0.103E+00
 -20.830  0.111E+00  0.111E+00
 -20.820  0.123E+00  0.123E+00
 -20.810  0.135E+00  0.135E+00
 -20.800  0.145E+00  0.145E+00
 -20.790  0.153E+00  0.153E+00
 -20.780  0.155E+00  0.155E+00
 -20.770  0.152E+00  0.152E+00
 -20.760  0.143E+00  0.143E+00
 -20.750  0.130E+00  0.130E+00
 -20.740  0.115E+00  0.115E+00
 -20.730  0.995E-01  0.995E-01
 -20.720  0.860E-01  0.860E-01
 -20.710  0.767E-01  0.767E-01
 -20.700  0.730E-01  0.730E-01
 -20.690  0.751E-01  0.751E-01
 -20.680  0.827E-01  0.827E-01
 -20.670  0.945E-01  0.945E-01
 -20.660  0.109E+00  0.109E+00
 -20.650  0.123E+00  0.123E+00
 -20.640  0.135E+00  0.135E+00
 -20.630  0.145E+00  0.145E+00
 -20.620  0.150E+00  0.150E+00
 -20.610  0.150E+00  0.150E+00
 -20.600  0.146E+00  0.146E+00
 -20.590  0.139E+00  0.139E+00
 -20.580  0.128E+00  0.128E+00
 -20.570  0.116E+00  0.116E+00
 -20.560  0.103E+00  0.103E+00
 -20.550  0.905E-01  0.905E-01
 -20.540  0.786E-01  0.786E-01
 -20.530  0.684E-01  0.684E-01
 -20.520  0.610E-01  0.610E-01
 -20.510  0.574E-01  0.574E-01
 -20.500  0.584E-01  0.584E-01
 -20.490  0.645E-01  0.645E-01
 -20.480  0.754E-01  0.754E-01
 -20.470  0.902E-01  0.902E-01
 -20.460  0.107E+00  0.107E+00
 -20.450  0.124E+00  0.124E+00
 -20.440  0.138E+00  0.138E+00
 -20.430  0.148E+00  0.148E+00
 -20.420  0.152E+00  0.152E+00
 -20.410  0.149E+00  0.149E+00
 -20.400  0.142E+00  0.142E+00
 -20.390  0.130E+00  0.130E+00
 -20.380  0.116E+00  0.116E+00
 -20.370  0.101E+00  0.101E+00
 -20.360  0.884E-01  0.884E-01
 -20.350  0.781E-01  0.781E-01
 -20.340  0.707E-01  0.707E-01
 -20.330  0.661E-01  0.661E-01
 -20.320  0.633E-01  0.633E-01
 -20.310  0.616E-01  0.616E-01
 -20.300  0.604E-01  0.604E-01
 -20.290  0.597E-01  0.597E-01
 -20.280  0.599E-01  0.599E-01
 -20.270  0.620E-01  0.620E-01
 -20.260  0.670E-01  0.670E-01
 -20.250  0.756E-01  0.756E-01
 -20.240  0.875E-01  0.875E-01
 -20.230  0.102E+00  0.102E+00
 -20.220  0.117E+00  0.117E+00
 -20.210  0.131E+00  0.131E+00
 -20.200  0.141E+00  0.141E+00
 -20.190  0.145E+00  0.145E+00
 -20.180  0.144E+00  0.144E+00
 -20.170  0.137E+00  0.137E+00
 -20.160  0.126E+00  0.126E+00
 -20.150  0.111E+00  0.111E+00
 -20.140  0.954E-01  0.954E-01
 -20.130  0.800E-01  0.800E-01
 -20.120  0.665E-01  0.665E-01
 -20.110  0.557E-01  0.557E-01
 -20.100  0.484E-01  0.484E-01
 -20.090  0.446E-01  0.446E-01
 -20.080  0.443E-01  0.443E-01
 -20.070  0.468E-01  0.468E-01
 -20.060  0.514E-01  0.514E-01
 -20.050  0.570E-01  0.570E-01
 -20.040  0.628E-01  0.628E-01
 -20.030  0.682E-01  0.682E-01
 -20.020  0.733E-01  0.733E-01
 -20.010  0.781E-01  0.781E-01
 -20.000  0.834E-01  0.834E-01
 -19.990  0.894E-01  0.894E-01
 -19.980  0.964E-01  0.964E-01
 -19.970  0.104E+00  0.104E+00
 -19.960  0.112E+00  0.112E+00
 -19.950  0.118E+00  0.118E+00
 -19.940  0.122E+00  0.122E+00
 -19.930  0.123E+00  0.123E+00
 -19.920  0.120E+00  0.120E+00
 -19.910  0.114E+00  0.114E+00
 -19.900  0.106E+00  0.106E+00
 -19.890  0.956E-01  0.956E-01
 -19.880  0.849E-01  0.849E-01
 -19.870  0.744E-01  0.744E-01
 -19.860  0.645E-01  0.645E-01
 -19.850  0.556E-01  0.556E-01
 -19.840  0.477E-01  0.477E-01
 -19.830  0.412E-01  0.412E-01
 -19.820  0.362E-01  0.362E-01
 -19.810  0.333E-01  0.333E-01
 -19.800  0.330E-01  0.330E-01
 -19.790  0.358E-01  0.358E-01
 -19.780  0.416E-01  0.416E-01
 -19.770  0.502E-01  0.502E-01
 -19.760  0.608E-01  0.608E-01
 -19.750  0.723E-01  0.723E-01
 -19.740  0.837E-01  0.837E-01
 -19.730  0.937E-01  0.937E-01
 -19.720  0.102E+00  0.102E+00
 -19.710  0.107E+00  0.107E+00
 -19.700  0.109E+00  0.109E+00
 -19.690  0.109E+00  0.109E+00
 -19.680  0.107E+00  0.107E+00
 -19.670  0.104E+00  0.104E+00
 -19.660  0.992E-01  0.992E-01
 -19.650  0.940E-01  0.940E-01
 -19.640  0.886E-01  0.886E-01
 -19.630  0.832E-01  0.832E-01
 -19.620  0.780E-01  0.780E-01
 -19.610  0.731E-01  0.731E-01
 -19.600  0.684E-01  0.684E-01
 -19.590  0.641E-01  0.641E-01
 -19.580  0.600E-01  0.600E-01
 -19.570  0.560E-01  0.560E-01
 -19.560  0.522E-01  0.522E-01
 -19.550  0.481E-01  0.481E-01
 -19.540  0.440E-01  0.440E-01
 -19.530  0.397E-01  0.397E-01
 -19.520  0.357E-01  0.357E-01
 -19.510  0.328E-01  0.328E-01
 -19.500  0.318E-01  0.318E-01
 -19.490  0.336E-01  0.336E-01
 -19.480  0.389E-01  0.389E-01
 -19.470  0.477E-01  0.477E-01
 -19.460  0.597E-01  0.597E-01
 -19.450  0.738E-01  0.738E-01
 -19.440  0.881E-01  0.881E-01
 -19.430  0.101E+00  0.101E+00
 -19.420  0.111E+00  0.111E+00
 -19.410  0.116E+00  0.116E+00
 -19.400  0.116E+00  0.116E+00
 -19.390  0.111E+00  0.111E+00
 -19.380  0.102E+00  0.102E+00
 -19.370  0.916E-01  0.916E-01
 -19.360  0.803E-01  0.803E-01
 -19.350  0.701E-01  0.701E-01
 -19.340  0.618E-01  0.618E-01
 -19.330  0.558E-01  0.558E-01
 -19.320  0.521E-01  0.521E-01
 -19.310  0.501E-01  0.501E-01
 -19.300  0.492E-01  0.492E-01
 -19.290  0.487E-01  0.487E-01
 -19.280  0.483E-01  0.483E-01
 -19.270  0.478E-01  0.478E-01
 -19.260  0.470E-01  0.470E-01
 -19.250  0.459E-01  0.459E-01
 -19.240  0.446E-01  0.446E-01
 -19.230  0.430E-01  0.430E-01
 -19.220  0.412E-01  0.412E-01
 -19.210  0.396E-01  0.396E-01
 -19.200  0.385E-01  0.385E-01
 -19.190  0.387E-01  0.387E-01
 -19.180  0.408E-01  0.408E-01
 -19.170  0.454E-01  0.454E-01
 -19.160  0.528E-01  0.528E-01
 -19.150  0.627E-01  0.627E-01
 -19.140  0.741E-01  0.741E-01
 -19.130  0.857E-01  0.857E-01
 -19.120  0.959E-01  0.959E-01
 -19.110  0.103E+00  0.103E+00
 -19.100  0.106E+00  0.106E+00
 -19.090  0.104E+00  0.104E+00
 -19.080  0.983E-01  0.983E-01
 -19.070  0.888E-01  0.888E-01
 -19.060  0.774E-01  0.774E-01
 -19.050  0.657E-01  0.657E-01
 -19.040  0.551E-01  0.551E-01
 -19.030  0.466E-01  0.466E-01
 -19.020  0.408E-01  0.408E-01
 -19.010  0.376E-01  0.376E-01
 -19.000  0.364E-01  0.364E-01
 -18.990  0.366E-01  0.366E-01
 -18.980  0.374E-01  0.374E-01
 -18.970  0.383E-01  0.383E-01
 -18.960  0.391E-01  0.391E-01
 -18.950  0.396E-01  0.396E-01
 -18.940  0.399E-01  0.399E-01
 -18.930  0.401E-01  0.401E-01
 -18.920  0.404E-01  0.404E-01
 -18.910  0.410E-01  0.410E-01
 -18.900  0.420E-01  0.420E-01
 -18.890  0.435E-01  0.435E-01
 -18.880  0.459E-01  0.459E-01
 -18.870  0.494E-01  0.494E-01
 -18.860  0.541E-01  0.541E-01
 -18.850  0.600E-01  0.600E-01
 -18.840  0.668E-01  0.668E-01
 -18.830  0.740E-01  0.740E-01
 -18.820  0.805E-01  0.805E-01
 -18.810  0.855E-01  0.855E-01
 -18.800  0.882E-01  0.882E-01
 -18.790  0.879E-01  0.879E-01
 -18.780  0.846E-01  0.846E-01
 -18.770  0.786E-01  0.786E-01
 -18.760  0.706E-01  0.706E-01
 -18.750  0.616E-01  0.616E-01
 -18.740  0.526E-01  0.526E-01
 -18.730  0.447E-01  0.447E-01
 -18.720  0.384E-01  0.384E-01
 -18.710  0.341E-01  0.341E-01
 -18.700  0.318E-01  0.318E-01
 -18.690  0.310E-01  0.310E-01
 -18.680  0.313E-01  0.313E-01
 -18.670  0.322E-01  0.322E-01
 -18.660  0.332E-01  0.332E-01
 -18.650  0.341E-01  0.341E-01
 -18.640  0.350E-01  0.350E-01
 -18.630  0.358E-01  0.358E-01
 -18.620  0.369E-01  0.369E-01
 -18.610  0.385E-01  0.385E-01
 -18.600  0.407E-01  0.407E-01
 -18.590  0.438E-01  0.438E-01
 -18.580  0.478E-01  0.478E-01
 -18.570  0.527E-01  0.527E-01
 -18.560  0.583E-01  0.583E-01
 -18.550  0.641E-01  0.641E-01
 -18.540  0.697E-01  0.697E-01
 -18.530  0.743E-01  0.743E-01
 -18.520  0.773E-01  0.773E-01
 -18.510  0.781E-01  0.781E-01
 -18.500  0.765E-01  0.765E-01
 -18.490  0.726E-01  0.726E-01
 -18.480  0.669E-01  0.669E-01
 -18.470  0.600E-01  0.600E-01
 -18.460  0.529E-01  0.529E-01
 -18.450  0.462E-01  0.462E-01
 -18.440  0.407E-01  0.407E-01
 -18.430  0.365E-01  0.365E-01
 -18.420  0.338E-01  0.338E-01
 -18.410  0.322E-01  0.322E-01
 -18.400  0.315E-01  0.315E-01
 -18.390  0.312E-01  0.312E-01
 -18.380  0.312E-01  0.312E-01
 -18.370  0.312E-01  0.312E-01
 -18.360  0.315E-01  0.315E-01
 -18.350  0.323E-01  0.323E-01
 -18.340  0.339E-01  0.339E-01
 -18.330  0.366E-01  0.366E-01
 -18.320  0.407E-01  0.407E-01
 -18.310  0.460E-01  0.460E-01
 -18.300  0.525E-01  0.525E-01
 -18.290  0.596E-01  0.596E-01
 -18.280  0.667E-01  0.667E-01
 -18.270  0.729E-01  0.729E-01
 -18.260  0.776E-01  0.776E-01
 -18.250  0.803E-01  0.803E-01
 -18.240  0.808E-01  0.808E-01
 -18.230  0.792E-01  0.792E-01
 -18.220  0.758E-01  0.758E-01
 -18.210  0.710E-01  0.710E-01
 -18.200  0.653E-01  0.653E-01
 -18.190  0.591E-01  0.591E-01
 -18.180  0.529E-01  0.529E-01
 -18.170  0.468E-01  0.468E-01
 -18.160  0.412E-01  0.412E-01
 -18.150  0.362E-01  0.362E-01
 -18.140  0.321E-01  0.321E-01
 -18.130  0.294E-01  0.294E-01
 -18.120  0.282E-01  0.282E-01
 -18.110  0.289E-01  0.289E-01
 -18.100  0.313E-01  0.313E-01
 -18.090  0.352E-01  0.352E-01
 -18.080  0.400E-01  0.400E-01
 -18.070  0.451E-01  0.451E-01
 -18.060  0.494E-01  0.494E-01
 -18.050  0.522E-01  0.522E-01
 -18.040  0.529E-01  0.529E-01
 -18.030  0.510E-01  0.510E-01
 -18.020  0.468E-01  0.468E-01
 -18.010  0.406E-01  0.406E-01
 -18.000  0.332E-01  0.332E-01
 -17.990  0.256E-01  0.256E-01
 -17.980  0.187E-01  0.187E-01
 -17.970  0.130E-01  0.130E-01
 -17.960  0.911E-02  0.911E-02
 -17.950  0.706E-02  0.706E-02
 -17.940  0.667E-02  0.667E-02
 -17.930  0.759E-02  0.759E-02
 -17.920  0.937E-02  0.937E-02
 -17.910  0.116E-01  0.116E-01
 -17.900  0.139E-01  0.139E-01
 -17.890  0.160E-01  0.160E-01
 -17.880  0.177E-01  0.177E-01
 -17.870  0.188E-01  0.188E-01
 -17.860  0.193E-01  0.193E-01
 -17.850  0.190E-01  0.190E-01
 -17.840  0.181E-01  0.181E-01
 -17.830  0.166E-01  0.166E-01
 -17.820  0.146E-01  0.146E-01
 -17.810  0.123E-01  0.123E-01
 -17.800  0.999E-02  0.999E-02
 -17.790  0.792E-02  0.792E-02
 -17.780  0.628E-02  0.628E-02
 -17.770  0.517E-02  0.517E-02
 -17.760  0.459E-02  0.459E-02
 -17.750  0.445E-02  0.445E-02
 -17.740  0.461E-02  0.461E-02
 -17.730  0.490E-02  0.490E-02
 -17.720  0.516E-02  0.516E-02
 -17.710  0.527E-02  0.527E-02
 -17.700  0.518E-02  0.518E-02
 -17.690  0.487E-02  0.487E-02
 -17.680  0.437E-02  0.437E-02
 -17.670  0.374E-02  0.374E-02
 -17.660  0.305E-02  0.305E-02
 -17.650  0.236E-02  0.236E-02
 -17.640  0.173E-02  0.173E-02
 -17.630  0.120E-02  0.120E-02
 -17.620  0.771E-03  0.771E-03
 -17.610  0.448E-03  0.448E-03
 -17.600  0.215E-03  0.215E-03
 -17.590  0.531E-04  0.531E-04
 -17.580 -0.581E-04 -0.581E-04
 -17.570 -0.133E-03 -0.133E-03
 -17.560 -0.181E-03 -0.181E-03
 -17.550 -0.208E-03 -0.208E-03
 -17.540 -0.217E-03 -0.217E-03
 -17.530 -0.210E-03 -0.210E-03
 -17.520 -0.191E-03 -0.191E-03
 -17.510 -0.164E-03 -0.164E-03
 -17.500 -0.134E-03 -0.134E-03
 -17.490 -0.103E-03 -0.103E-03
 -17.480 -0.749E-04 -0.749E-04
 -17.470 -0.519E-04 -0.519E-04
 -17.460 -0.341E-04 -0.341E-04
 -17.450 -0.213E-04 -0.213E-04
 -17.440 -0.127E-04 -0.127E-04
 -17.430 -0.719E-05 -0.719E-05
 -17.420 -0.388E-05 -0.388E-05
 -17.410 -0.200E-05 -0.200E-05
 -17.400 -0.980E-06 -0.980E-06
 -17.390 -0.459E-06 -0.459E-06
 -17.380 -0.205E-06 -0.205E-06
 -17.370 -0.875E-07 -0.875E-07
 -17.360 -0.356E-07 -0.356E-07
 -17.350 -0.139E-07 -0.139E-07
 -17.340 -0.515E-08 -0.515E-08
 -17.330 -0.183E-08 -0.183E-08
 -17.320 -0.619E-09 -0.619E-09
 -17.310 -0.201E-09 -0.201E-09
 -17.300 -0.624E-10 -0.624E-10
 -17.290 -0.185E-10 -0.185E-10
 -17.280 -0.526E-11 -0.526E-11
 -17.270 -0.743E-18 -0.743E-18
 -17.260 -0.222E-18 -0.222E-18
 -17.250 -0.633E-19 -0.633E-19
 -17.240  0.000E+00  0.000E+00
 -17.230  0.000E+00  0.000E+00
 -17.220  0.000E+00  0.000E+00
 -17.210  0.000E+00  0.000E+00
 -17.200  0.000E+00  0.000E+00
 -17.190  0.000E+00  0.000E+00
 -17.180  0.000E+00  0.000E+00
 -17.170  0.000E+00  0.000E+00
 -17.160  0.000E+00  0.000E+00
 -17.150  0.000E+00  0.000E+00
 -17.140  0.000E+00  0.000E+00
 -17.130  0.000E+00  0.000E+00
 -17.120  0.000E+00  0.000E+00
 -17.110  0.000E+00  0.000E+00
 -17.100  0.000E+00  0.000E+00
 -17.090  0.000E+00  0.000E+00
 -17.080  0.000E+00  0.000E+00
 -17.070  0.000E+00  0.000E+00
 -17.060  0.000E+00  0.000E+00
 -17.050  0.000E+00  0.000E+00
 -17.040  0.000E+00  0.000E+00
 -17.030  0.000E+00  0.000E+00
 -17.020  0.000E+00  0.000E+00
 -17.010  0.000E+00  0.000E+00
 -17.000  0.000E+00  0.000E+00
 -16.990  0.000E+00  0.000E+00
 -16.980  0.000E+00  0.000E+00
 -16.970  0.000E+00  0.000E+00
 -16.960  0.000E+00  0.000E+00
 -16.950  0.000E+00  0.000E+00
 -16.940  0.000E+00  0.000E+00
 -16.930  0.000E+00  0.000E+00
 -16.920  0.000E+00  0.000E+00
 -16.910  0.000E+00  0.000E+00
 -16.900  0.000E+00  0.000E+00
 -16.890  0.000E+00  0.000E+00
 -16.880  0.000E+00  0.000E+00
 -16.870  0.000E+00  0.000E+00
 -16.860  0.000E+00  0.000E+00
 -16.850  0.000E+00  0.000E+00
 -16.840  0.000E+00  0.000E+00
 -16.830  0.000E+00  0.000E+00
 -16.820  0.000E+00  0.000E+00
 -16.810  0.000E+00  0.000E+00
 -16.800  0.000E+00  0.000E+00
 -16.790  0.000E+00  0.000E+00
 -16.780  0.000E+00  0.000E+00
 -16.770  0.000E+00  0.000E+00
 -16.760  0.000E+00  0.000E+00
 -16.750  0.000E+00  0.000E+00
 -16.740  0.000E+00  0.000E+00
 -16.730  0.000E+00  0.000E+00
 -16.720  0.000E+00  0.000E+00
 -16.710  0.000E+00  0.000E+00
 -16.700  0.000E+00  0.000E+00
 -16.690  0.000E+00  0.000E+00
 -16.680  0.000E+00  0.000E+00
 -16.670  0.000E+00  0.000E+00
 -16.660  0.000E+00  0.000E+00
 -16.650  0.000E+00  0.000E+00
 -16.640  0.000E+00  0.000E+00
 -16.630  0.000E+00  0.000E+00
 -16.620  0.000E+00  0.000E+00
 -16.610  0.000E+00  0.000E+00
 -16.600  0.000E+00  0.000E+00
 -16.590  0.000E+00  0.000E+00
 -16.580  0.000E+00  0.000E+00
 -16.570  0.000E+00  0.000E+00
 -16.560  0.000E+00  0.000E+00
 -16.550  0.000E+00  0.000E+00
 -16.540  0.000E+00  0.000E+00
 -16.530  0.000E+00  0.000E+00
 -16.520  0.000E+00  0.000E+00
 -16.510  0.000E+00  0.000E+00
 -16.500  0.000E+00  0.000E+00
 -16.490  0.000E+00  0.000E+00
 -16.480  0.000E+00  0.000E+00
 -16.470  0.000E+00  0.000E+00
 -16.460  0.000E+00  0.000E+00
 -16.450  0.000E+00  0.000E+00
 -16.440  0.000E+00  0.000E+00
 -16.430  0.000E+00  0.000E+00
 -16.420  0.000E+00  0.000E+00
 -16.410  0.000E+00  0.000E+00
 -16.400  0.000E+00  0.000E+00
 -16.390  0.000E+00  0.000E+00
 -16.380  0.000E+00  0.000E+00
 -16.370  0.000E+00  0.000E+00
 -16.360  0.000E+00  0.000E+00
 -16.350  0.000E+00  0.000E+00
 -16.340  0.000E+00  0.000E+00
 -16.330  0.000E+00  0.000E+00
 -16.320  0.000E+00  0.000E+00
 -16.310  0.000E+00  0.000E+00
 -16.300  0.000E+00  0.000E+00
 -16.290  0.000E+00  0.000E+00
 -16.280  0.000E+00  0.000E+00
 -16.270  0.000E+00  0.000E+00
 -16.260  0.000E+00  0.000E+00
 -16.250  0.000E+00  0.000E+00
 -16.240  0.000E+00  0.000E+00
 -16.230  0.000E+00  0.000E+00
 -16.220  0.000E+00  0.000E+00
 -16.210  0.000E+00  0.000E+00
 -16.200  0.000E+00  0.000E+00
 -16.190  0.000E+00  0.000E+00
 -16.180  0.000E+00  0.000E+00
 -16.170  0.000E+00  0.000E+00
 -16.160  0.000E+00  0.000E+00
 -16.150  0.000E+00  0.000E+00
 -16.140  0.000E+00  0.000E+00
 -16.130  0.000E+00  0.000E+00
 -16.120  0.000E+00  0.000E+00
 -16.110  0.000E+00  0.000E+00
 -16.100  0.000E+00  0.000E+00
 -16.090  0.000E+00  0.000E+00
 -16.080  0.000E+00  0.000E+00
 -16.070  0.000E+00  0.000E+00
 -16.060  0.000E+00  0.000E+00
 -16.050  0.000E+00  0.000E+00
 -16.040  0.000E+00  0.000E+00
 -16.030  0.000E+00  0.000E+00
 -16.020  0.000E+00  0.000E+00
 -16.010  0.000E+00  0.000E+00
 -16.000  0.000E+00  0.000E+00
 -15.990  0.000E+00  0.000E+00
 -15.980  0.000E+00  0.000E+00
 -15.970  0.000E+00  0.000E+00
 -15.960  0.000E+00  0.000E+00
 -15.950  0.000E+00  0.000E+00
 -15.940  0.000E+00  0.000E+00
 -15.930  0.000E+00  0.000E+00
 -15.920  0.000E+00  0.000E+00
 -15.910  0.000E+00  0.000E+00
 -15.900  0.000E+00  0.000E+00
 -15.890  0.000E+00  0.000E+00
 -15.880  0.000E+00  0.000E+00
 -15.870  0.000E+00  0.000E+00
 -15.860  0.000E+00  0.000E+00
 -15.850  0.000E+00  0.000E+00
 -15.840  0.000E+00  0.000E+00
 -15.830  0.000E+00  0.000E+00
 -15.820  0.000E+00  0.000E+00
 -15.810  0.000E+00  0.000E+00
 -15.800  0.000E+00  0.000E+00
 -15.790  0.000E+00  0.000E+00
 -15.780  0.000E+00  0.000E+00
 -15.770  0.000E+00  0.000E+00
 -15.760  0.000E+00  0.000E+00
 -15.750  0.000E+00  0.000E+00
 -15.740  0.000E+00  0.000E+00
 -15.730  0.000E+00  0.000E+00
 -15.720  0.000E+00  0.000E+00
 -15.710  0.000E+00  0.000E+00
 -15.700  0.000E+00  0.000E+00
 -15.690  0.000E+00  0.000E+00
 -15.680  0.000E+00  0.000E+00
 -15.670  0.000E+00  0.000E+00
 -15.660  0.000E+00  0.000E+00
 -15.650  0.000E+00  0.000E+00
 -15.640  0.000E+00  0.000E+00
 -15.630  0.000E+00  0.000E+00
 -15.620  0.000E+00  0.000E+00
 -15.610  0.000E+00  0.000E+00
 -15.600  0.000E+00  0.000E+00
 -15.590  0.000E+00  0.000E+00
 -15.580  0.000E+00  0.000E+00
 -15.570  0.000E+00  0.000E+00
 -15.560  0.000E+00  0.000E+00
 -15.550  0.000E+00  0.000E+00
 -15.540  0.000E+00  0.000E+00
 -15.530  0.000E+00  0.000E+00
 -15.520  0.000E+00  0.000E+00
 -15.510  0.000E+00  0.000E+00
 -15.500  0.000E+00  0.000E+00
 -15.490  0.000E+00  0.000E+00
 -15.480  0.000E+00  0.000E+00
 -15.470  0.000E+00  0.000E+00
 -15.460  0.000E+00  0.000E+00
 -15.450  0.000E+00  0.000E+00
 -15.440  0.000E+00  0.000E+00
 -15.430  0.000E+00  0.000E+00
 -15.420  0.000E+00  0.000E+00
 -15.410  0.000E+00  0.000E+00
 -15.400  0.000E+00  0.000E+00
 -15.390  0.000E+00  0.000E+00
 -15.380  0.000E+00  0.000E+00
 -15.370  0.000E+00  0.000E+00
 -15.360  0.000E+00  0.000E+00
 -15.350  0.000E+00  0.000E+00
 -15.340  0.000E+00  0.000E+00
 -15.330  0.000E+00  0.000E+00
 -15.320  0.000E+00  0.000E+00
 -15.310  0.000E+00  0.000E+00
 -15.300  0.000E+00  0.000E+00
 -15.290  0.000E+00  0.000E+00
 -15.280  0.000E+00  0.000E+00
 -15.270  0.000E+00  0.000E+00
 -15.260  0.000E+00  0.000E+00
 -15.250  0.000E+00  0.000E+00
 -15.240  0.000E+00  0.000E+00
 -15.230  0.000E+00  0.000E+00
 -15.220  0.000E+00  0.000E+00
 -15.210  0.000E+00  0.000E+00
 -15.200  0.000E+00  0.000E+00
 -15.190  0.000E+00  0.000E+00
 -15.180  0.000E+00  0.000E+00
 -15.170  0.000E+00  0.000E+00
 -15.160  0.000E+00  0.000E+00
 -15.150  0.000E+00  0.000E+00
 -15.140  0.000E+00  0.000E+00
 -15.130  0.000E+00  0.000E+00
 -15.120  0.000E+00  0.000E+00
 -15.110  0.000E+00  0.000E+00
 -15.100  0.000E+00  0.000E+00
 -15.090  0.000E+00  0.000E+00
 -15.080  0.000E+00  0.000E+00
 -15.070  0.000E+00  0.000E+00
 -15.060  0.000E+00  0.000E+00
 -15.050  0.000E+00  0.000E+00
 -15.040  0.000E+00  0.000E+00
 -15.030  0.000E+00  0.000E+00
 -15.020  0.000E+00  0.000E+00
 -15.010  0.000E+00  0.000E+00
 -15.000  0.000E+00  0.000E+00
 -14.990  0.000E+00  0.000E+00
 -14.980  0.000E+00  0.000E+00
 -14.970  0.000E+00  0.000E+00
 -14.960  0.000E+00  0.000E+00
 -14.950  0.000E+00  0.000E+00
 -14.940  0.000E+00  0.000E+00
 -14.930  0.000E+00  0.000E+00
 -14.920  0.000E+00  0.000E+00
 -14.910  0.000E+00  0.000E+00
 -14.900  0.000E+00  0.000E+00
 -14.890  0.000E+00  0.000E+00
 -14.880  0.000E+00  0.000E+00
 -14.870  0.000E+00  0.000E+00
 -14.860  0.000E+00  0.000E+00
 -14.850  0.000E+00  0.000E+00
 -14.840  0.000E+00  0.000E+00
 -14.830  0.000E+00  0.000E+00
 -14.820  0.000E+00  0.000E+00
 -14.810  0.000E+00  0.000E+00
 -14.800  0.000E+00  0.000E+00
 -14.790  0.000E+00  0.000E+00
 -14.780  0.000E+00  0.000E+00
 -14.770  0.000E+00  0.000E+00
 -14.760  0.000E+00  0.000E+00
 -14.750  0.000E+00  0.000E+00
 -14.740  0.000E+00  0.000E+00
 -14.730  0.000E+00  0.000E+00
 -14.720  0.000E+00  0.000E+00
 -14.710  0.000E+00  0.000E+00
 -14.700  0.000E+00  0.000E+00
 -14.690  0.000E+00  0.000E+00
 -14.680  0.000E+00  0.000E+00
 -14.670  0.000E+00  0.000E+00
 -14.660  0.000E+00  0.000E+00
 -14.650  0.000E+00  0.000E+00
 -14.640  0.000E+00  0.000E+00
 -14.630  0.000E+00  0.000E+00
 -14.620  0.000E+00  0.000E+00
 -14.610  0.000E+00  0.000E+00
 -14.600  0.000E+00  0.000E+00
 -14.590  0.000E+00  0.000E+00
 -14.580  0.000E+00  0.000E+00
 -14.570  0.000E+00  0.000E+00
 -14.560  0.000E+00  0.000E+00
 -14.550  0.000E+00  0.000E+00
 -14.540  0.000E+00  0.000E+00
 -14.530  0.000E+00  0.000E+00
 -14.520  0.000E+00  0.000E+00
 -14.510  0.000E+00  0.000E+00
 -14.500  0.000E+00  0.000E+00
 -14.490  0.000E+00  0.000E+00
 -14.480  0.000E+00  0.000E+00
 -14.470  0.000E+00  0.000E+00
 -14.460  0.000E+00  0.000E+00
 -14.450  0.000E+00  0.000E+00
 -14.440  0.000E+00  0.000E+00
 -14.430  0.000E+00  0.000E+00
 -14.420  0.000E+00  0.000E+00
 -14.410  0.000E+00  0.000E+00
 -14.400  0.000E+00  0.000E+00
 -14.390  0.000E+00  0.000E+00
 -14.380  0.000E+00  0.000E+00
 -14.370  0.000E+00  0.000E+00
 -14.360  0.000E+00  0.000E+00
 -14.350  0.000E+00  0.000E+00
 -14.340  0.000E+00  0.000E+00
 -14.330  0.000E+00  0.000E+00
 -14.320  0.000E+00  0.000E+00
 -14.310  0.000E+00  0.000E+00
 -14.300  0.000E+00  0.000E+00
 -14.290  0.000E+00  0.000E+00
 -14.280  0.000E+00  0.000E+00
 -14.270  0.000E+00  0.000E+00
 -14.260  0.000E+00  0.000E+00
 -14.250  0.000E+00  0.000E+00
 -14.240  0.000E+00  0.000E+00
 -14.230  0.000E+00  0.000E+00
 -14.220  0.000E+00  0.000E+00
 -14.210  0.000E+00  0.000E+00
 -14.200  0.000E+00  0.000E+00
 -14.190  0.000E+00  0.000E+00
 -14.180  0.000E+00  0.000E+00
 -14.170  0.000E+00  0.000E+00
 -14.160  0.000E+00  0.000E+00
 -14.150  0.000E+00  0.000E+00
 -14.140  0.000E+00  0.000E+00
 -14.130  0.000E+00  0.000E+00
 -14.120  0.000E+00  0.000E+00
 -14.110  0.000E+00  0.000E+00
 -14.100  0.000E+00  0.000E+00
 -14.090  0.000E+00  0.000E+00
 -14.080  0.000E+00  0.000E+00
 -14.070  0.000E+00  0.000E+00
 -14.060  0.000E+00  0.000E+00
 -14.050  0.000E+00  0.000E+00
 -14.040  0.000E+00  0.000E+00
 -14.030  0.000E+00  0.000E+00
 -14.020  0.000E+00  0.000E+00
 -14.010  0.000E+00  0.000E+00
 -14.000  0.000E+00  0.000E+00
 -13.990  0.000E+00  0.000E+00
 -13.980  0.000E+00  0.000E+00
 -13.970  0.000E+00  0.000E+00
 -13.960  0.000E+00  0.000E+00
 -13.950  0.000E+00  0.000E+00
 -13.940  0.000E+00  0.000E+00
 -13.930  0.000E+00  0.000E+00
 -13.920  0.000E+00  0.000E+00
 -13.910  0.000E+00  0.000E+00
 -13.900  0.000E+00  0.000E+00
 -13.890  0.000E+00  0.000E+00
 -13.880  0.000E+00  0.000E+00
 -13.870  0.000E+00  0.000E+00
 -13.860  0.000E+00  0.000E+00
 -13.850  0.000E+00  0.000E+00
 -13.840  0.000E+00  0.000E+00
 -13.830  0.000E+00  0.000E+00
 -13.820  0.000E+00  0.000E+00
 -13.810  0.000E+00  0.000E+00
 -13.800  0.000E+00  0.000E+00
 -13.790  0.000E+00  0.000E+00
 -13.780  0.000E+00  0.000E+00
 -13.770  0.000E+00  0.000E+00
 -13.760  0.000E+00  0.000E+00
 -13.750  0.000E+00  0.000E+00
 -13.740  0.000E+00  0.000E+00
 -13.730  0.000E+00  0.000E+00
 -13.720  0.000E+00  0.000E+00
 -13.710  0.000E+00  0.000E+00
 -13.700  0.000E+00  0.000E+00
 -13.690  0.000E+00  0.000E+00
 -13.680  0.000E+00  0.000E+00
 -13.670  0.000E+00  0.000E+00
 -13.660  0.000E+00  0.000E+00
 -13.650  0.000E+00  0.000E+00
 -13.640  0.000E+00  0.000E+00
 -13.630  0.000E+00  0.000E+00
 -13.620  0.000E+00  0.000E+00
 -13.610  0.000E+00  0.000E+00
 -13.600  0.000E+00  0.000E+00
 -13.590  0.000E+00  0.000E+00
 -13.580  0.000E+00  0.000E+00
 -13.570  0.000E+00  0.000E+00
 -13.560  0.000E+00  0.000E+00
 -13.550  0.000E+00  0.000E+00
 -13.540  0.000E+00  0.000E+00
 -13.530  0.000E+00  0.000E+00
 -13.520  0.000E+00  0.000E+00
 -13.510  0.000E+00  0.000E+00
 -13.500  0.000E+00  0.000E+00
 -13.490  0.000E+00  0.000E+00
 -13.480  0.000E+00  0.000E+00
 -13.470  0.000E+00  0.000E+00
 -13.460  0.000E+00  0.000E+00
 -13.450  0.000E+00  0.000E+00
 -13.440  0.000E+00  0.000E+00
 -13.430  0.000E+00  0.000E+00
 -13.420  0.000E+00  0.000E+00
 -13.410  0.000E+00  0.000E+00
 -13.400  0.000E+00  0.000E+00
 -13.390  0.000E+00  0.000E+00
 -13.380  0.000E+00  0.000E+00
 -13.370  0.000E+00  0.000E+00
 -13.360  0.000E+00  0.000E+00
 -13.350  0.000E+00  0.000E+00
 -13.340  0.000E+00  0.000E+00
 -13.330  0.000E+00  0.000E+00
 -13.320  0.000E+00  0.000E+00
 -13.310  0.000E+00  0.000E+00
 -13.300  0.000E+00  0.000E+00
 -13.290  0.000E+00  0.000E+00
 -13.280  0.000E+00  0.000E+00
 -13.270  0.000E+00  0.000E+00
 -13.260  0.000E+00  0.000E+00
 -13.250  0.000E+00  0.000E+00
 -13.240  0.000E+00  0.000E+00
 -13.230  0.000E+00  0.000E+00
 -13.220  0.000E+00  0.000E+00
 -13.210  0.000E+00  0.000E+00
 -13.200  0.000E+00  0.000E+00
 -13.190  0.000E+00  0.000E+00
 -13.180  0.000E+00  0.000E+00
 -13.170  0.000E+00  0.000E+00
 -13.160  0.000E+00  0.000E+00
 -13.150  0.000E+00  0.000E+00
 -13.140  0.000E+00  0.000E+00
 -13.130  0.000E+00  0.000E+00
 -13.120  0.000E+00  0.000E+00
 -13.110  0.000E+00  0.000E+00
 -13.100  0.000E+00  0.000E+00
 -13.090  0.000E+00  0.000E+00
 -13.080  0.000E+00  0.000E+00
 -13.070  0.000E+00  0.000E+00
 -13.060  0.000E+00  0.000E+00
 -13.050  0.000E+00  0.000E+00
 -13.040  0.000E+00  0.000E+00
 -13.030  0.000E+00  0.000E+00
 -13.020  0.000E+00  0.000E+00
 -13.010  0.000E+00  0.000E+00
 -13.000  0.000E+00  0.000E+00
 -12.990  0.000E+00  0.000E+00
 -12.980  0.000E+00  0.000E+00
 -12.970  0.000E+00  0.000E+00
 -12.960  0.000E+00  0.000E+00
 -12.950  0.000E+00  0.000E+00
 -12.940  0.000E+00  0.000E+00
 -12.930  0.000E+00  0.000E+00
 -12.920  0.000E+00  0.000E+00
 -12.910  0.000E+00  0.000E+00
 -12.900  0.000E+00  0.000E+00
 -12.890  0.000E+00  0.000E+00
 -12.880  0.000E+00  0.000E+00
 -12.870  0.000E+00  0.000E+00
 -12.860  0.000E+00  0.000E+00
 -12.850  0.000E+00  0.000E+00
 -12.840  0.000E+00  0.000E+00
 -12.830  0.000E+00  0.000E+00
 -12.820  0.919E-16  0.919E-16
 -12.810  0.497E-15  0.497E-15
 -12.800  0.258E-14  0.258E-14
 -12.790  0.128E-13  0.128E-13
 -12.780  0.612E-13  0.612E-13
 -12.770  0.279E-12  0.279E-12
 -12.760  0.122E-11  0.122E-11
 -12.750  0.507E-11  0.507E-11
 -12.740  0.203E-10  0.203E-10
 -12.730  0.775E-10  0.775E-10
 -12.720  0.284E-09  0.284E-09
 -12.710  0.995E-09  0.995E-09
 -12.700  0.334E-08  0.334E-08
 -12.690  0.108E-07  0.108E-07
 -12.680  0.331E-07  0.331E-07
 -12.670  0.979E-07  0.979E-07
 -12.660  0.277E-06  0.277E-06
 -12.650  0.751E-06  0.751E-06
 -12.640  0.195E-05  0.195E-05
 -12.630  0.486E-05  0.486E-05
 -12.620  0.116E-04  0.116E-04
 -12.610  0.267E-04  0.267E-04
 -12.600  0.587E-04  0.587E-04
 -12.590  0.124E-03  0.124E-03
 -12.580  0.252E-03  0.252E-03
 -12.570  0.492E-03  0.492E-03
 -12.560  0.923E-03  0.923E-03
 -12.550  0.167E-02  0.167E-02
 -12.540  0.290E-02  0.290E-02
 -12.530  0.484E-02  0.484E-02
 -12.520  0.780E-02  0.780E-02
 -12.510  0.121E-01  0.121E-01
 -12.500  0.181E-01  0.181E-01
 -12.490  0.260E-01  0.260E-01
 -12.480  0.360E-01  0.360E-01
 -12.470  0.480E-01  0.480E-01
 -12.460  0.616E-01  0.616E-01
 -12.450  0.762E-01  0.762E-01
 -12.440  0.906E-01  0.906E-01
 -12.430  0.104E+00  0.104E+00
 -12.420  0.115E+00  0.115E+00
 -12.410  0.123E+00  0.123E+00
 -12.400  0.127E+00  0.127E+00
 -12.390  0.129E+00  0.129E+00
 -12.380  0.129E+00  0.129E+00
 -12.370  0.128E+00  0.128E+00
 -12.360  0.128E+00  0.128E+00
 -12.350  0.129E+00  0.129E+00
 -12.340  0.132E+00  0.132E+00
 -12.330  0.136E+00  0.136E+00
 -12.320  0.140E+00  0.140E+00
 -12.310  0.142E+00  0.142E+00
 -12.300  0.142E+00  0.142E+00
 -12.290  0.139E+00  0.139E+00
 -12.280  0.134E+00  0.134E+00
 -12.270  0.126E+00  0.126E+00
 -12.260  0.118E+00  0.118E+00
 -12.250  0.110E+00  0.110E+00
 -12.240  0.104E+00  0.104E+00
 -12.230  0.100E+00  0.100E+00
 -12.220  0.988E-01  0.988E-01
 -12.210  0.997E-01  0.997E-01
 -12.200  0.103E+00  0.103E+00
 -12.190  0.108E+00  0.108E+00
 -12.180  0.115E+00  0.115E+00
 -12.170  0.123E+00  0.123E+00
 -12.160  0.132E+00  0.132E+00
 -12.150  0.141E+00  0.141E+00
 -12.140  0.148E+00  0.148E+00
 -12.130  0.153E+00  0.153E+00
 -12.120  0.153E+00  0.153E+00
 -12.110  0.149E+00  0.149E+00
 -12.100  0.141E+00  0.141E+00
 -12.090  0.130E+00  0.130E+00
 -12.080  0.119E+00  0.119E+00
 -12.070  0.108E+00  0.108E+00
 -12.060  0.991E-01  0.991E-01
 -12.050  0.929E-01  0.929E-01
 -12.040  0.895E-01  0.895E-01
 -12.030  0.884E-01  0.884E-01
 -12.020  0.891E-01  0.891E-01
 -12.010  0.908E-01  0.908E-01
 -12.000  0.932E-01  0.932E-01
 -11.990  0.965E-01  0.965E-01
 -11.980  0.101E+00  0.101E+00
 -11.970  0.106E+00  0.106E+00
 -11.960  0.113E+00  0.113E+00
 -11.950  0.121E+00  0.121E+00
 -11.940  0.130E+00  0.130E+00
 -11.930  0.138E+00  0.138E+00
 -11.920  0.145E+00  0.145E+00
 -11.910  0.149E+00  0.149E+00
 -11.900  0.150E+00  0.150E+00
 -11.890  0.149E+00  0.149E+00
 -11.880  0.145E+00  0.145E+00
 -11.870  0.139E+00  0.139E+00
 -11.860  0.131E+00  0.131E+00
 -11.850  0.122E+00  0.122E+00
 -11.840  0.113E+00  0.113E+00
 -11.830  0.105E+00  0.105E+00
 -11.820  0.969E-01  0.969E-01
 -11.810  0.900E-01  0.900E-01
 -11.800  0.846E-01  0.846E-01
 -11.790  0.808E-01  0.808E-01
 -11.780  0.788E-01  0.788E-01
 -11.770  0.788E-01  0.788E-01
 -11.760  0.809E-01  0.809E-01
 -11.750  0.849E-01  0.849E-01
 -11.740  0.906E-01  0.906E-01
 -11.730  0.977E-01  0.977E-01
 -11.720  0.106E+00  0.106E+00
 -11.710  0.114E+00  0.114E+00
 -11.700  0.122E+00  0.122E+00
 -11.690  0.130E+00  0.130E+00
 -11.680  0.137E+00  0.137E+00
 -11.670  0.142E+00  0.142E+00
 -11.660  0.147E+00  0.147E+00
 -11.650  0.149E+00  0.149E+00
 -11.640  0.150E+00  0.150E+00
 -11.630  0.149E+00  0.149E+00
 -11.620  0.144E+00  0.144E+00
 -11.610  0.138E+00  0.138E+00
 -11.600  0.130E+00  0.130E+00
 -11.590  0.121E+00  0.121E+00
 -11.580  0.112E+00  0.112E+00
 -11.570  0.105E+00  0.105E+00
 -11.560  0.992E-01  0.992E-01
 -11.550  0.963E-01  0.963E-01
 -11.540  0.953E-01  0.953E-01
 -11.530  0.955E-01  0.955E-01
 -11.520  0.956E-01  0.956E-01
 -11.510  0.944E-01  0.944E-01
 -11.500  0.912E-01  0.912E-01
 -11.490  0.854E-01  0.854E-01
 -11.480  0.776E-01  0.776E-01
 -11.470  0.687E-01  0.687E-01
 -11.460  0.601E-01  0.601E-01
 -11.450  0.537E-01  0.537E-01
 -11.440  0.509E-01  0.509E-01
 -11.430  0.525E-01  0.525E-01
 -11.420  0.585E-01  0.585E-01
 -11.410  0.682E-01  0.682E-01
 -11.400  0.798E-01  0.798E-01
 -11.390  0.914E-01  0.914E-01
 -11.380  0.101E+00  0.101E+00
 -11.370  0.107E+00  0.107E+00
 -11.360  0.108E+00  0.108E+00
 -11.350  0.105E+00  0.105E+00
 -11.340  0.981E-01  0.981E-01
 -11.330  0.887E-01  0.887E-01
 -11.320  0.783E-01  0.783E-01
 -11.310  0.681E-01  0.681E-01
 -11.300  0.592E-01  0.592E-01
 -11.290  0.523E-01  0.523E-01
 -11.280  0.480E-01  0.480E-01
 -11.270  0.463E-01  0.463E-01
 -11.260  0.471E-01  0.471E-01
 -11.250  0.500E-01  0.500E-01
 -11.240  0.541E-01  0.541E-01
 -11.230  0.584E-01  0.584E-01
 -11.220  0.615E-01  0.615E-01
 -11.210  0.625E-01  0.625E-01
 -11.200  0.606E-01  0.606E-01
 -11.190  0.559E-01  0.559E-01
 -11.180  0.490E-01  0.490E-01
 -11.170  0.412E-01  0.412E-01
 -11.160  0.340E-01  0.340E-01
 -11.150  0.290E-01  0.290E-01
 -11.140  0.272E-01  0.272E-01
 -11.130  0.294E-01  0.294E-01
 -11.120  0.351E-01  0.351E-01
 -11.110  0.438E-01  0.438E-01
 -11.100  0.540E-01  0.540E-01
 -11.090  0.644E-01  0.644E-01
 -11.080  0.737E-01  0.737E-01
 -11.070  0.810E-01  0.810E-01
 -11.060  0.859E-01  0.859E-01
 -11.050  0.882E-01  0.882E-01
 -11.040  0.885E-01  0.885E-01
 -11.030  0.872E-01  0.872E-01
 -11.020  0.846E-01  0.846E-01
 -11.010  0.811E-01  0.811E-01
 -11.000  0.765E-01  0.765E-01
 -10.990  0.706E-01  0.706E-01
 -10.980  0.632E-01  0.632E-01
 -10.970  0.545E-01  0.545E-01
 -10.960  0.449E-01  0.449E-01
 -10.950  0.349E-01  0.349E-01
 -10.940  0.256E-01  0.256E-01
 -10.930  0.178E-01  0.178E-01
 -10.920  0.120E-01  0.120E-01
 -10.910  0.860E-02  0.860E-02
 -10.900  0.734E-02  0.734E-02
 -10.890  0.791E-02  0.791E-02
 -10.880  0.990E-02  0.990E-02
 -10.870  0.130E-01  0.130E-01
 -10.860  0.172E-01  0.172E-01
 -10.850  0.225E-01  0.225E-01
 -10.840  0.295E-01  0.295E-01
 -10.830  0.384E-01  0.384E-01
 -10.820  0.494E-01  0.494E-01
 -10.810  0.622E-01  0.622E-01
 -10.800  0.763E-01  0.763E-01
 -10.790  0.904E-01  0.904E-01
 -10.780  0.103E+00  0.103E+00
 -10.770  0.113E+00  0.113E+00
 -10.760  0.119E+00  0.119E+00
 -10.750  0.119E+00  0.119E+00
 -10.740  0.115E+00  0.115E+00
 -10.730  0.105E+00  0.105E+00
 -10.720  0.914E-01  0.914E-01
 -10.710  0.759E-01  0.759E-01
 -10.700  0.607E-01  0.607E-01
 -10.690  0.476E-01  0.476E-01
 -10.680  0.384E-01  0.384E-01
 -10.670  0.341E-01  0.341E-01
 -10.660  0.351E-01  0.351E-01
 -10.650  0.405E-01  0.405E-01
 -10.640  0.490E-01  0.490E-01
 -10.630  0.588E-01  0.588E-01
 -10.620  0.679E-01  0.679E-01
 -10.610  0.746E-01  0.746E-01
 -10.600  0.778E-01  0.778E-01
 -10.590  0.771E-01  0.771E-01
 -10.580  0.731E-01  0.731E-01
 -10.570  0.667E-01  0.667E-01
 -10.560  0.594E-01  0.594E-01
 -10.550  0.527E-01  0.527E-01
 -10.540  0.479E-01  0.479E-01
 -10.530  0.462E-01  0.462E-01
 -10.520  0.481E-01  0.481E-01
 -10.510  0.540E-01  0.540E-01
 -10.500  0.635E-01  0.635E-01
 -10.490  0.758E-01  0.758E-01
 -10.480  0.896E-01  0.896E-01
 -10.470  0.103E+00  0.103E+00
 -10.460  0.115E+00  0.115E+00
 -10.450  0.122E+00  0.122E+00
 -10.440  0.124E+00  0.124E+00
 -10.430  0.119E+00  0.119E+00
 -10.420  0.109E+00  0.109E+00
 -10.410  0.951E-01  0.951E-01
 -10.400  0.788E-01  0.788E-01
 -10.390  0.627E-01  0.627E-01
 -10.380  0.490E-01  0.490E-01
 -10.370  0.393E-01  0.393E-01
 -10.360  0.343E-01  0.343E-01
 -10.350  0.339E-01  0.339E-01
 -10.340  0.372E-01  0.372E-01
 -10.330  0.430E-01  0.430E-01
 -10.320  0.498E-01  0.498E-01
 -10.310  0.563E-01  0.563E-01
 -10.300  0.614E-01  0.614E-01
 -10.290  0.645E-01  0.645E-01
 -10.280  0.650E-01  0.650E-01
 -10.270  0.632E-01  0.632E-01
 -10.260  0.595E-01  0.595E-01
 -10.250  0.547E-01  0.547E-01
 -10.240  0.500E-01  0.500E-01
 -10.230  0.463E-01  0.463E-01
 -10.220  0.447E-01  0.447E-01
 -10.210  0.460E-01  0.460E-01
 -10.200  0.505E-01  0.505E-01
 -10.190  0.584E-01  0.584E-01
 -10.180  0.694E-01  0.694E-01
 -10.170  0.828E-01  0.828E-01
 -10.160  0.976E-01  0.976E-01
 -10.150  0.112E+00  0.112E+00
 -10.140  0.126E+00  0.126E+00
 -10.130  0.135E+00  0.135E+00
 -10.120  0.140E+00  0.140E+00
 -10.110  0.137E+00  0.137E+00
 -10.100  0.128E+00  0.128E+00
 -10.090  0.112E+00  0.112E+00
 -10.080  0.921E-01  0.921E-01
 -10.070  0.693E-01  0.693E-01
 -10.060  0.466E-01  0.466E-01
 -10.050  0.265E-01  0.265E-01
 -10.040  0.109E-01  0.109E-01
 -10.030  0.793E-03  0.793E-03
 -10.020 -0.360E-02 -0.360E-02
 -10.010 -0.277E-02 -0.277E-02
 -10.000  0.227E-02  0.227E-02
  -9.990  0.103E-01  0.103E-01
  -9.980  0.198E-01  0.198E-01
  -9.970  0.298E-01  0.298E-01
  -9.960  0.392E-01  0.392E-01
  -9.950  0.472E-01  0.472E-01
  -9.940  0.536E-01  0.536E-01
  -9.930  0.584E-01  0.584E-01
  -9.920  0.623E-01  0.623E-01
  -9.910  0.658E-01  0.658E-01
  -9.900  0.700E-01  0.700E-01
  -9.890  0.753E-01  0.753E-01
  -9.880  0.820E-01  0.820E-01
  -9.870  0.900E-01  0.900E-01
  -9.860  0.983E-01  0.983E-01
  -9.850  0.106E+00  0.106E+00
  -9.840  0.112E+00  0.112E+00
  -9.830  0.116E+00  0.116E+00
  -9.820  0.116E+00  0.116E+00
  -9.810  0.112E+00  0.112E+00
  -9.800  0.106E+00  0.106E+00
  -9.790  0.968E-01  0.968E-01
  -9.780  0.860E-01  0.860E-01
  -9.770  0.748E-01  0.748E-01
  -9.760  0.641E-01  0.641E-01
  -9.750  0.553E-01  0.553E-01
  -9.740  0.489E-01  0.489E-01
  -9.730  0.455E-01  0.455E-01
  -9.720  0.447E-01  0.447E-01
  -9.710  0.461E-01  0.461E-01
  -9.700  0.486E-01  0.486E-01
  -9.690  0.508E-01  0.508E-01
  -9.680  0.519E-01  0.519E-01
  -9.670  0.508E-01  0.508E-01
  -9.660  0.474E-01  0.474E-01
  -9.650  0.418E-01  0.418E-01
  -9.640  0.347E-01  0.347E-01
  -9.630  0.269E-01  0.269E-01
  -9.620  0.195E-01  0.195E-01
  -9.610  0.134E-01  0.134E-01
  -9.600  0.939E-02  0.939E-02
  -9.590  0.808E-02  0.808E-02
  -9.580  0.972E-02  0.972E-02
  -9.570  0.144E-01  0.144E-01
  -9.560  0.219E-01  0.219E-01
  -9.550  0.320E-01  0.320E-01
  -9.540  0.443E-01  0.443E-01
  -9.530  0.582E-01  0.582E-01
  -9.520  0.730E-01  0.730E-01
  -9.510  0.881E-01  0.881E-01
  -9.500  0.103E+00  0.103E+00
  -9.490  0.116E+00  0.116E+00
  -9.480  0.127E+00  0.127E+00
  -9.470  0.135E+00  0.135E+00
  -9.460  0.140E+00  0.140E+00
  -9.450  0.140E+00  0.140E+00
  -9.440  0.135E+00  0.135E+00
  -9.430  0.127E+00  0.127E+00
  -9.420  0.114E+00  0.114E+00
  -9.410  0.984E-01  0.984E-01
  -9.400  0.808E-01  0.808E-01
  -9.390  0.624E-01  0.624E-01
  -9.380  0.447E-01  0.447E-01
  -9.370  0.287E-01  0.287E-01
  -9.360  0.153E-01  0.153E-01
  -9.350  0.522E-02  0.522E-02
  -9.340 -0.128E-02 -0.128E-02
  -9.330 -0.417E-02 -0.417E-02
  -9.320 -0.363E-02 -0.363E-02
  -9.310 -0.394E-05 -0.394E-05
  -9.300  0.625E-02  0.625E-02
  -9.290  0.146E-01  0.146E-01
  -9.280  0.243E-01  0.243E-01
  -9.270  0.345E-01  0.345E-01
  -9.260  0.444E-01  0.444E-01
  -9.250  0.528E-01  0.528E-01
  -9.240  0.588E-01  0.588E-01
  -9.230  0.618E-01  0.618E-01
  -9.220  0.615E-01  0.615E-01
  -9.210  0.582E-01  0.582E-01
  -9.200  0.530E-01  0.530E-01
  -9.190  0.471E-01  0.471E-01
  -9.180  0.423E-01  0.423E-01
  -9.170  0.399E-01  0.399E-01
  -9.160  0.412E-01  0.412E-01
  -9.150  0.464E-01  0.464E-01
  -9.140  0.553E-01  0.553E-01
  -9.130  0.668E-01  0.668E-01
  -9.120  0.795E-01  0.795E-01
  -9.110  0.917E-01  0.917E-01
  -9.100  0.102E+00  0.102E+00
  -9.090  0.108E+00  0.108E+00
  -9.080  0.111E+00  0.111E+00
  -9.070  0.110E+00  0.110E+00
  -9.060  0.105E+00  0.105E+00
  -9.050  0.981E-01  0.981E-01
  -9.040  0.894E-01  0.894E-01
  -9.030  0.799E-01  0.799E-01
  -9.020  0.704E-01  0.704E-01
  -9.010  0.612E-01  0.612E-01
  -9.000  0.524E-01  0.524E-01
  -8.990  0.443E-01  0.443E-01
  -8.980  0.370E-01  0.370E-01
  -8.970  0.308E-01  0.308E-01
  -8.960  0.258E-01  0.258E-01
  -8.950  0.224E-01  0.224E-01
  -8.940  0.203E-01  0.203E-01
  -8.930  0.192E-01  0.192E-01
  -8.920  0.189E-01  0.189E-01
  -8.910  0.187E-01  0.187E-01
  -8.900  0.183E-01  0.183E-01
  -8.890  0.178E-01  0.178E-01
  -8.880  0.172E-01  0.172E-01
  -8.870  0.169E-01  0.169E-01
  -8.860  0.175E-01  0.175E-01
  -8.850  0.193E-01  0.193E-01
  -8.840  0.226E-01  0.226E-01
  -8.830  0.273E-01  0.273E-01
  -8.820  0.333E-01  0.333E-01
  -8.810  0.400E-01  0.400E-01
  -8.800  0.472E-01  0.472E-01
  -8.790  0.544E-01  0.544E-01
  -8.780  0.614E-01  0.614E-01
  -8.770  0.682E-01  0.682E-01
  -8.760  0.746E-01  0.746E-01
  -8.750  0.804E-01  0.804E-01
  -8.740  0.854E-01  0.854E-01
  -8.730  0.891E-01  0.891E-01
  -8.720  0.912E-01  0.912E-01
  -8.710  0.912E-01  0.912E-01
  -8.700  0.891E-01  0.891E-01
  -8.690  0.849E-01  0.849E-01
  -8.680  0.791E-01  0.791E-01
  -8.670  0.725E-01  0.725E-01
  -8.660  0.656E-01  0.656E-01
  -8.650  0.592E-01  0.592E-01
  -8.640  0.537E-01  0.537E-01
  -8.630  0.492E-01  0.492E-01
  -8.620  0.457E-01  0.457E-01
  -8.610  0.432E-01  0.432E-01
  -8.600  0.413E-01  0.413E-01
  -8.590  0.400E-01  0.400E-01
  -8.580  0.390E-01  0.390E-01
  -8.570  0.382E-01  0.382E-01
  -8.560  0.373E-01  0.373E-01
  -8.550  0.363E-01  0.363E-01
  -8.540  0.349E-01  0.349E-01
  -8.530  0.330E-01  0.330E-01
  -8.520  0.308E-01  0.308E-01
  -8.510  0.283E-01  0.283E-01
  -8.500  0.260E-01  0.260E-01
  -8.490  0.242E-01  0.242E-01
  -8.480  0.233E-01  0.233E-01
  -8.470  0.236E-01  0.236E-01
  -8.460  0.252E-01  0.252E-01
  -8.450  0.278E-01  0.278E-01
  -8.440  0.313E-01  0.313E-01
  -8.430  0.353E-01  0.353E-01
  -8.420  0.393E-01  0.393E-01
  -8.410  0.432E-01  0.432E-01
  -8.400  0.466E-01  0.466E-01
  -8.390  0.494E-01  0.494E-01
  -8.380  0.516E-01  0.516E-01
  -8.370  0.531E-01  0.531E-01
  -8.360  0.542E-01  0.542E-01
  -8.350  0.549E-01  0.549E-01
  -8.340  0.554E-01  0.554E-01
  -8.330  0.560E-01  0.560E-01
  -8.320  0.568E-01  0.568E-01
  -8.310  0.578E-01  0.578E-01
  -8.300  0.589E-01  0.589E-01
  -8.290  0.597E-01  0.597E-01
  -8.280  0.600E-01  0.600E-01
  -8.270  0.592E-01  0.592E-01
  -8.260  0.570E-01  0.570E-01
  -8.250  0.533E-01  0.533E-01
  -8.240  0.483E-01  0.483E-01
  -8.230  0.424E-01  0.424E-01
  -8.220  0.365E-01  0.365E-01
  -8.210  0.314E-01  0.314E-01
  -8.200  0.278E-01  0.278E-01
  -8.190  0.259E-01  0.259E-01
  -8.180  0.258E-01  0.258E-01
  -8.170  0.271E-01  0.271E-01
  -8.160  0.289E-01  0.289E-01
  -8.150  0.306E-01  0.306E-01
  -8.140  0.317E-01  0.317E-01
  -8.130  0.320E-01  0.320E-01
  -8.120  0.318E-01  0.318E-01
  -8.110  0.315E-01  0.315E-01
  -8.100  0.317E-01  0.317E-01
  -8.090  0.331E-01  0.331E-01
  -8.080  0.359E-01  0.359E-01
  -8.070  0.401E-01  0.401E-01
  -8.060  0.451E-01  0.451E-01
  -8.050  0.504E-01  0.504E-01
  -8.040  0.553E-01  0.553E-01
  -8.030  0.589E-01  0.589E-01
  -8.020  0.608E-01  0.608E-01
  -8.010  0.609E-01  0.609E-01
  -8.000  0.591E-01  0.591E-01
  -7.990  0.557E-01  0.557E-01
  -7.980  0.512E-01  0.512E-01
  -7.970  0.463E-01  0.463E-01
  -7.960  0.415E-01  0.415E-01
  -7.950  0.370E-01  0.370E-01
  -7.940  0.333E-01  0.333E-01
  -7.930  0.302E-01  0.302E-01
  -7.920  0.276E-01  0.276E-01
  -7.910  0.254E-01  0.254E-01
  -7.900  0.234E-01  0.234E-01
  -7.890  0.217E-01  0.217E-01
  -7.880  0.204E-01  0.204E-01
  -7.870  0.198E-01  0.198E-01
  -7.860  0.200E-01  0.200E-01
  -7.850  0.213E-01  0.213E-01
  -7.840  0.233E-01  0.233E-01
  -7.830  0.259E-01  0.259E-01
  -7.820  0.284E-01  0.284E-01
  -7.810  0.306E-01  0.306E-01
  -7.800  0.320E-01  0.320E-01
  -7.790  0.324E-01  0.324E-01
  -7.780  0.319E-01  0.319E-01
  -7.770  0.309E-01  0.309E-01
  -7.760  0.295E-01  0.295E-01
  -7.750  0.284E-01  0.284E-01
  -7.740  0.276E-01  0.276E-01
  -7.730  0.275E-01  0.275E-01
  -7.720  0.278E-01  0.278E-01
  -7.710  0.284E-01  0.284E-01
  -7.700  0.291E-01  0.291E-01
  -7.690  0.297E-01  0.297E-01
  -7.680  0.300E-01  0.300E-01
  -7.670  0.301E-01  0.301E-01
  -7.660  0.301E-01  0.301E-01
  -7.650  0.302E-01  0.302E-01
  -7.640  0.304E-01  0.304E-01
  -7.630  0.306E-01  0.306E-01
  -7.620  0.310E-01  0.310E-01
  -7.610  0.313E-01  0.313E-01
  -7.600  0.317E-01  0.317E-01
  -7.590  0.323E-01  0.323E-01
  -7.580  0.330E-01  0.330E-01
  -7.570  0.341E-01  0.341E-01
  -7.560  0.355E-01  0.355E-01
  -7.550  0.370E-01  0.370E-01
  -7.540  0.384E-01  0.384E-01
  -7.530  0.394E-01  0.394E-01
  -7.520  0.396E-01  0.396E-01
  -7.510  0.389E-01  0.389E-01
  -7.500  0.371E-01  0.371E-01
  -7.490  0.342E-01  0.342E-01
  -7.480  0.306E-01  0.306E-01
  -7.470  0.263E-01  0.263E-01
  -7.460  0.219E-01  0.219E-01
  -7.450  0.175E-01  0.175E-01
  -7.440  0.134E-01  0.134E-01
  -7.430  0.101E-01  0.101E-01
  -7.420  0.777E-02  0.777E-02
  -7.410  0.660E-02  0.660E-02
  -7.400  0.672E-02  0.672E-02
  -7.390  0.812E-02  0.812E-02
  -7.380  0.107E-01  0.107E-01
  -7.370  0.141E-01  0.141E-01
  -7.360  0.181E-01  0.181E-01
  -7.350  0.222E-01  0.222E-01
  -7.340  0.259E-01  0.259E-01
  -7.330  0.288E-01  0.288E-01
  -7.320  0.307E-01  0.307E-01
  -7.310  0.311E-01  0.311E-01
  -7.300  0.302E-01  0.302E-01
  -7.290  0.279E-01  0.279E-01
  -7.280  0.246E-01  0.246E-01
  -7.270  0.206E-01  0.206E-01
  -7.260  0.166E-01  0.166E-01
  -7.250  0.128E-01  0.128E-01
  -7.240  0.972E-02  0.972E-02
  -7.230  0.760E-02  0.760E-02
  -7.220  0.653E-02  0.653E-02
  -7.210  0.648E-02  0.648E-02
  -7.200  0.731E-02  0.731E-02
  -7.190  0.887E-02  0.887E-02
  -7.180  0.110E-01  0.110E-01
  -7.170  0.134E-01  0.134E-01
  -7.160  0.160E-01  0.160E-01
  -7.150  0.186E-01  0.186E-01
  -7.140  0.211E-01  0.211E-01
  -7.130  0.234E-01  0.234E-01
  -7.120  0.255E-01  0.255E-01
  -7.110  0.274E-01  0.274E-01
  -7.100  0.292E-01  0.292E-01
  -7.090  0.307E-01  0.307E-01
  -7.080  0.319E-01  0.319E-01
  -7.070  0.327E-01  0.327E-01
  -7.060  0.327E-01  0.327E-01
  -7.050  0.320E-01  0.320E-01
  -7.040  0.305E-01  0.305E-01
  -7.030  0.284E-01  0.284E-01
  -7.020  0.259E-01  0.259E-01
  -7.010  0.237E-01  0.237E-01
  -7.000  0.220E-01  0.220E-01
  -6.990  0.211E-01  0.211E-01
  -6.980  0.209E-01  0.209E-01
  -6.970  0.212E-01  0.212E-01
  -6.960  0.216E-01  0.216E-01
  -6.950  0.216E-01  0.216E-01
  -6.940  0.208E-01  0.208E-01
  -6.930  0.190E-01  0.190E-01
  -6.920  0.162E-01  0.162E-01
  -6.910  0.128E-01  0.128E-01
  -6.900  0.908E-02  0.908E-02
  -6.890  0.549E-02  0.549E-02
  -6.880  0.244E-02  0.244E-02
  -6.870  0.183E-03  0.183E-03
  -6.860 -0.116E-02 -0.116E-02
  -6.850 -0.159E-02 -0.159E-02
  -6.840 -0.121E-02 -0.121E-02
  -6.830 -0.143E-03 -0.143E-03
  -6.820  0.146E-02  0.146E-02
  -6.810  0.346E-02  0.346E-02
  -6.800  0.575E-02  0.575E-02
  -6.790  0.821E-02  0.821E-02
  -6.780  0.107E-01  0.107E-01
  -6.770  0.132E-01  0.132E-01
  -6.760  0.154E-01  0.154E-01
  -6.750  0.174E-01  0.174E-01
  -6.740  0.191E-01  0.191E-01
  -6.730  0.205E-01  0.205E-01
  -6.720  0.217E-01  0.217E-01
  -6.710  0.228E-01  0.228E-01
  -6.700  0.238E-01  0.238E-01
  -6.690  0.248E-01  0.248E-01
  -6.680  0.255E-01  0.255E-01
  -6.670  0.260E-01  0.260E-01
  -6.660  0.257E-01  0.257E-01
  -6.650  0.246E-01  0.246E-01
  -6.640  0.226E-01  0.226E-01
  -6.630  0.195E-01  0.195E-01
  -6.620  0.157E-01  0.157E-01
  -6.610  0.116E-01  0.116E-01
  -6.600  0.755E-02  0.755E-02
  -6.590  0.408E-02  0.408E-02
  -6.580  0.152E-02  0.152E-02
  -6.570  0.898E-04  0.898E-04
  -6.560 -0.162E-03 -0.162E-03
  -6.550  0.683E-03  0.683E-03
  -6.540  0.244E-02  0.244E-02
  -6.530  0.485E-02  0.485E-02
  -6.520  0.763E-02  0.763E-02
  -6.510  0.105E-01  0.105E-01
  -6.500  0.131E-01  0.131E-01
  -6.490  0.152E-01  0.152E-01
  -6.480  0.166E-01  0.166E-01
  -6.470  0.172E-01  0.172E-01
  -6.460  0.171E-01  0.171E-01
  -6.450  0.164E-01  0.164E-01
  -6.440  0.155E-01  0.155E-01
  -6.430  0.146E-01  0.146E-01
  -6.420  0.140E-01  0.140E-01
  -6.410  0.138E-01  0.138E-01
  -6.400  0.140E-01  0.140E-01
  -6.390  0.145E-01  0.145E-01
  -6.380  0.151E-01  0.151E-01
  -6.370  0.155E-01  0.155E-01
  -6.360  0.157E-01  0.157E-01
  -6.350  0.154E-01  0.154E-01
  -6.340  0.146E-01  0.146E-01
  -6.330  0.135E-01  0.135E-01
  -6.320  0.120E-01  0.120E-01
  -6.310  0.102E-01  0.102E-01
  -6.300  0.825E-02  0.825E-02
  -6.290  0.628E-02  0.628E-02
  -6.280  0.439E-02  0.439E-02
  -6.270  0.266E-02  0.266E-02
  -6.260  0.119E-02  0.119E-02
  -6.250  0.402E-04  0.402E-04
  -6.240 -0.763E-03 -0.763E-03
  -6.230 -0.123E-02 -0.123E-02
  -6.220 -0.138E-02 -0.138E-02
  -6.210 -0.129E-02 -0.129E-02
  -6.200 -0.983E-03 -0.983E-03
  -6.190 -0.506E-03 -0.506E-03
  -6.180  0.148E-03  0.148E-03
  -6.170  0.102E-02  0.102E-02
  -6.160  0.216E-02  0.216E-02
  -6.150  0.367E-02  0.367E-02
  -6.140  0.560E-02  0.560E-02
  -6.130  0.797E-02  0.797E-02
  -6.120  0.107E-01  0.107E-01
  -6.110  0.137E-01  0.137E-01
  -6.100  0.168E-01  0.168E-01
  -6.090  0.195E-01  0.195E-01
  -6.080  0.215E-01  0.215E-01
  -6.070  0.227E-01  0.227E-01
  -6.060  0.227E-01  0.227E-01
  -6.050  0.217E-01  0.217E-01
  -6.040  0.197E-01  0.197E-01
  -6.030  0.170E-01  0.170E-01
  -6.020  0.141E-01  0.141E-01
  -6.010  0.111E-01  0.111E-01
  -6.000  0.852E-02  0.852E-02
  -5.990  0.635E-02  0.635E-02
  -5.980  0.466E-02  0.466E-02
  -5.970  0.336E-02  0.336E-02
  -5.960  0.235E-02  0.235E-02
  -5.950  0.153E-02  0.153E-02
  -5.940  0.841E-03  0.841E-03
  -5.930  0.248E-03  0.248E-03
  -5.920 -0.231E-03 -0.231E-03
  -5.910 -0.567E-03 -0.567E-03
  -5.900 -0.734E-03 -0.734E-03
  -5.890 -0.717E-03 -0.717E-03
  -5.880 -0.511E-03 -0.511E-03
  -5.870 -0.117E-03 -0.117E-03
  -5.860  0.466E-03  0.466E-03
  -5.850  0.124E-02  0.124E-02
  -5.840  0.221E-02  0.221E-02
  -5.830  0.336E-02  0.336E-02
  -5.820  0.466E-02  0.466E-02
  -5.810  0.603E-02  0.603E-02
  -5.800  0.737E-02  0.737E-02
  -5.790  0.852E-02  0.852E-02
  -5.780  0.934E-02  0.934E-02
  -5.770  0.970E-02  0.970E-02
  -5.760  0.951E-02  0.951E-02
  -5.750  0.877E-02  0.877E-02
  -5.740  0.758E-02  0.758E-02
  -5.730  0.609E-02  0.609E-02
  -5.720  0.451E-02  0.451E-02
  -5.710  0.306E-02  0.306E-02
  -5.700  0.192E-02  0.192E-02
  -5.690  0.125E-02  0.125E-02
  -5.680  0.110E-02  0.110E-02
  -5.670  0.148E-02  0.148E-02
  -5.660  0.230E-02  0.230E-02
  -5.650  0.346E-02  0.346E-02
  -5.640  0.479E-02  0.479E-02
  -5.630  0.611E-02  0.611E-02
  -5.620  0.723E-02  0.723E-02
  -5.610  0.800E-02  0.800E-02
  -5.600  0.829E-02  0.829E-02
  -5.590  0.807E-02  0.807E-02
  -5.580  0.738E-02  0.738E-02
  -5.570  0.634E-02  0.634E-02
  -5.560  0.511E-02  0.511E-02
  -5.550  0.386E-02  0.386E-02
  -5.540  0.274E-02  0.274E-02
  -5.530  0.187E-02  0.187E-02
  -5.520  0.127E-02  0.127E-02
  -5.510  0.925E-03  0.925E-03
  -5.500  0.760E-03  0.760E-03
  -5.490  0.700E-03  0.700E-03
  -5.480  0.677E-03  0.677E-03
  -5.470  0.648E-03  0.648E-03
  -5.460  0.605E-03  0.605E-03
  -5.450  0.564E-03  0.564E-03
  -5.440  0.559E-03  0.559E-03
  -5.430  0.625E-03  0.625E-03
  -5.420  0.787E-03  0.787E-03
  -5.410  0.105E-02  0.105E-02
  -5.400  0.141E-02  0.141E-02
  -5.390  0.183E-02  0.183E-02
  -5.380  0.225E-02  0.225E-02
  -5.370  0.264E-02  0.264E-02
  -5.360  0.294E-02  0.294E-02
  -5.350  0.314E-02  0.314E-02
  -5.340  0.321E-02  0.321E-02
  -5.330  0.318E-02  0.318E-02
  -5.320  0.308E-02  0.308E-02
  -5.310  0.294E-02  0.294E-02
  -5.300  0.280E-02  0.280E-02
  -5.290  0.265E-02  0.265E-02
  -5.280  0.251E-02  0.251E-02
  -5.270  0.234E-02  0.234E-02
  -5.260  0.214E-02  0.214E-02
  -5.250  0.187E-02  0.187E-02
  -5.240  0.155E-02  0.155E-02
  -5.230  0.119E-02  0.119E-02
  -5.220  0.812E-03  0.812E-03
  -5.210  0.466E-03  0.466E-03
  -5.200  0.181E-03  0.181E-03
  -5.190 -0.179E-04 -0.179E-04
  -5.180 -0.122E-03 -0.122E-03
  -5.170 -0.135E-03 -0.135E-03
  -5.160 -0.712E-04 -0.712E-04
  -5.150  0.489E-04  0.489E-04
  -5.140  0.202E-03  0.202E-03
  -5.130  0.367E-03  0.367E-03
  -5.120  0.522E-03  0.522E-03
  -5.110  0.650E-03  0.650E-03
  -5.100  0.737E-03  0.737E-03
  -5.090  0.774E-03  0.774E-03
  -5.080  0.757E-03  0.757E-03
  -5.070  0.690E-03  0.690E-03
  -5.060  0.583E-03  0.583E-03
  -5.050  0.451E-03  0.451E-03
  -5.040  0.310E-03  0.310E-03
  -5.030  0.178E-03  0.178E-03
  -5.020  0.667E-04  0.667E-04
  -5.010 -0.160E-04 -0.160E-04
  -5.000 -0.686E-04 -0.686E-04
  -4.990 -0.941E-04 -0.941E-04
  -4.980 -0.988E-04 -0.988E-04
  -4.970 -0.899E-04 -0.899E-04
  -4.960 -0.739E-04 -0.739E-04
  -4.950 -0.561E-04 -0.561E-04
  -4.940 -0.397E-04 -0.397E-04
  -4.930 -0.264E-04 -0.264E-04
  -4.920 -0.166E-04 -0.166E-04
  -4.910 -0.986E-05 -0.986E-05
  -4.900 -0.556E-05 -0.556E-05
  -4.890 -0.298E-05 -0.298E-05
  -4.880 -0.152E-05 -0.152E-05
  -4.870 -0.738E-06 -0.738E-06
  -4.860 -0.341E-06 -0.341E-06
  -4.850 -0.151E-06 -0.151E-06
  -4.840 -0.634E-07 -0.634E-07
  -4.830 -0.255E-07 -0.255E-07
  -4.820 -0.976E-08 -0.976E-08
  -4.810 -0.357E-08 -0.357E-08
  -4.800 -0.125E-08 -0.125E-08
  -4.790 -0.414E-09 -0.414E-09
  -4.780 -0.129E-09 -0.129E-09
  -4.770 -0.358E-10 -0.358E-10
  -4.760 -0.636E-11 -0.636E-11
  -4.750  0.640E-11  0.640E-11
  -4.740  0.744E-11  0.744E-11
  -4.730  0.858E-11  0.858E-11
  -4.720  0.966E-11  0.966E-11
  -4.710  0.105E-10  0.105E-10
  -4.700  0.108E-10  0.108E-10
  -4.690  0.107E-10  0.107E-10
  -4.680  0.100E-10  0.100E-10
  -4.670  0.896E-11  0.896E-11
  -4.660  0.766E-11  0.766E-11
  -4.650  0.633E-11  0.633E-11
  -4.640  0.514E-11  0.514E-11
  -4.630  0.423E-11  0.423E-11
  -4.620  0.366E-11  0.366E-11
  -4.610  0.340E-11  0.340E-11
  -4.600  0.339E-11  0.339E-11
  -4.590  0.355E-11  0.355E-11
  -4.580  0.376E-11  0.376E-11
  -4.570  0.395E-11  0.395E-11
  -4.560  0.407E-11  0.407E-11
  -4.550  0.407E-11  0.407E-11
  -4.540  0.397E-11  0.397E-11
  -4.530  0.378E-11  0.378E-11
  -4.520  0.356E-11  0.356E-11
  -4.510  0.336E-11  0.336E-11
  -4.500  0.327E-11  0.327E-11
  -4.490  0.334E-11  0.334E-11
  -4.480  0.364E-11  0.364E-11
  -4.470  0.421E-11  0.421E-11
  -4.460  0.508E-11  0.508E-11
  -4.450  0.625E-11  0.625E-11
  -4.440  0.773E-11  0.773E-11
  -4.430  0.950E-11  0.950E-11
  -4.420  0.115E-10  0.115E-10
  -4.410  0.137E-10  0.137E-10
  -4.400  0.159E-10  0.159E-10
  -4.390  0.180E-10  0.180E-10
  -4.380  0.197E-10  0.197E-10
  -4.370  0.209E-10  0.209E-10
  -4.360  0.213E-10  0.213E-10
  -4.350  0.207E-10  0.207E-10
  -4.340  0.193E-10  0.193E-10
  -4.330  0.171E-10  0.171E-10
  -4.320  0.143E-10  0.143E-10
  -4.310  0.114E-10  0.114E-10
  -4.300  0.857E-11  0.857E-11
  -4.290  0.610E-11  0.610E-11
  -4.280  0.414E-11  0.414E-11
  -4.270  0.273E-11  0.273E-11
  -4.260  0.183E-11  0.183E-11
  -4.250  0.133E-11  0.133E-11
  -4.240  0.113E-11  0.113E-11
  -4.230  0.114E-11  0.114E-11
  -4.220  0.136E-11  0.136E-11
  -4.210  0.180E-11  0.180E-11
  -4.200  0.254E-11  0.254E-11
  -4.190  0.367E-11  0.367E-11
  -4.180  0.525E-11  0.525E-11
  -4.170  0.735E-11  0.735E-11
  -4.160  0.998E-11  0.998E-11
  -4.150  0.131E-10  0.131E-10
  -4.140  0.165E-10  0.165E-10
  -4.130  0.200E-10  0.200E-10
  -4.120  0.232E-10  0.232E-10
  -4.110  0.259E-10  0.259E-10
  -4.100  0.277E-10  0.277E-10
  -4.090  0.283E-10  0.283E-10
  -4.080  0.276E-10  0.276E-10
  -4.070  0.257E-10  0.257E-10
  -4.060  0.227E-10  0.227E-10
  -4.050  0.191E-10  0.191E-10
  -4.040  0.151E-10  0.151E-10
  -4.030  0.112E-10  0.112E-10
  -4.020  0.767E-11  0.767E-11
  -4.010  0.477E-11  0.477E-11
  -4.000  0.267E-11  0.267E-11
  -3.990  0.145E-11  0.145E-11
  -3.980  0.113E-11  0.113E-11
  -3.970  0.168E-11  0.168E-11
  -3.960  0.302E-11  0.302E-11
  -3.950  0.501E-11  0.501E-11
  -3.940  0.747E-11  0.747E-11
  -3.930  0.101E-10  0.101E-10
  -3.920  0.128E-10  0.128E-10
  -3.910  0.150E-10  0.150E-10
  -3.900  0.166E-10  0.166E-10
  -3.890  0.174E-10  0.174E-10
  -3.880  0.174E-10  0.174E-10
  -3.870  0.166E-10  0.166E-10
  -3.860  0.153E-10  0.153E-10
  -3.850  0.138E-10  0.138E-10
  -3.840  0.126E-10  0.126E-10
  -3.830  0.119E-10  0.119E-10
  -3.820  0.119E-10  0.119E-10
  -3.810  0.127E-10  0.127E-10
  -3.800  0.141E-10  0.141E-10
  -3.790  0.160E-10  0.160E-10
  -3.780  0.181E-10  0.181E-10
  -3.770  0.198E-10  0.198E-10
  -3.760  0.210E-10  0.210E-10
  -3.750  0.213E-10  0.213E-10
  -3.740  0.206E-10  0.206E-10
  -3.730  0.188E-10  0.188E-10
  -3.720  0.162E-10  0.162E-10
  -3.710  0.131E-10  0.131E-10
  -3.700  0.979E-11  0.979E-11
  -3.690  0.676E-11  0.676E-11
  -3.680  0.434E-11  0.434E-11
  -3.670  0.274E-11  0.274E-11
  -3.660  0.199E-11  0.199E-11
  -3.650  0.198E-11  0.198E-11
  -3.640  0.249E-11  0.249E-11
  -3.630  0.323E-11  0.323E-11
  -3.620  0.393E-11  0.393E-11
  -3.610  0.437E-11  0.437E-11
  -3.600  0.444E-11  0.444E-11
  -3.590  0.411E-11  0.411E-11
  -3.580  0.344E-11  0.344E-11
  -3.570  0.258E-11  0.258E-11
  -3.560  0.165E-11  0.165E-11
  -3.550  0.785E-12  0.785E-12
  -3.540  0.900E-13  0.900E-13
  -3.530 -0.394E-12 -0.394E-12
  -3.520 -0.667E-12 -0.667E-12
  -3.510 -0.762E-12 -0.762E-12
  -3.500 -0.730E-12 -0.730E-12
  -3.490 -0.624E-12 -0.624E-12
  -3.480 -0.488E-12 -0.488E-12
  -3.470 -0.355E-12 -0.355E-12
  -3.460 -0.242E-12 -0.242E-12
  -3.450 -0.156E-12 -0.156E-12
  -3.440 -0.944E-13 -0.944E-13
  -3.430 -0.543E-13 -0.543E-13
  -3.420 -0.297E-13 -0.297E-13
  -3.410 -0.154E-13 -0.154E-13
  -3.400 -0.761E-14 -0.761E-14
  -3.390 -0.359E-14 -0.359E-14
  -3.380 -0.161E-14 -0.161E-14
  -3.370 -0.689E-15 -0.689E-15
  -3.360 -0.282E-15 -0.282E-15
  -3.350 -0.110E-15 -0.110E-15
  -3.340 -0.409E-16 -0.409E-16
  -3.330 -0.146E-16 -0.146E-16
  -3.320 -0.495E-17 -0.495E-17
  -3.310 -0.161E-17 -0.161E-17
  -3.300 -0.500E-18 -0.500E-18
  -3.290 -0.148E-18 -0.148E-18
  -3.280 -0.421E-19 -0.421E-19
  -3.270  0.000E+00  0.000E+00
  -3.260  0.000E+00  0.000E+00
  -3.250  0.000E+00  0.000E+00
  -3.240  0.000E+00  0.000E+00
  -3.230  0.000E+00  0.000E+00
  -3.220  0.000E+00  0.000E+00
  -3.210  0.000E+00  0.000E+00
  -3.200  0.000E+00  0.000E+00
  -3.190  0.000E+00  0.000E+00
  -3.180  0.000E+00  0.000E+00
  -3.170  0.000E+00  0.000E+00
  -3.160  0.000E+00  0.000E+00
  -3.150  0.000E+00  0.000E+00
  -3.140  0.000E+00  0.000E+00
  -3.130  0.000E+00  0.000E+00
  -3.120  0.000E+00  0.000E+00
  -3.110  0.000E+00  0.000E+00
  -3.100  0.000E+00  0.000E+00
  -3.090  0.000E+00  0.000E+00
  -3.080  0.000E+00  0.000E+00
  -3.070  0.000E+00  0.000E+00
  -3.060  0.000E+00  0.000E+00
  -3.050  0.000E+00  0.000E+00
  -3.040  0.000E+00  0.000E+00
  -3.030  0.000E+00  0.000E+00
  -3.020  0.000E+00  0.000E+00
  -3.010  0.000E+00  0.000E+00
  -3.000  0.000E+00  0.000E+00
  -2.990  0.000E+00  0.000E+00
  -2.980  0.000E+00  0.000E+00
  -2.970  0.000E+00  0.000E+00
  -2.960  0.000E+00  0.000E+00
  -2.950  0.000E+00  0.000E+00
  -2.940  0.000E+00  0.000E+00
  -2.930  0.000E+00  0.000E+00
  -2.920  0.000E+00  0.000E+00
  -2.910  0.000E+00  0.000E+00
  -2.900  0.000E+00  0.000E+00
  -2.890  0.000E+00  0.000E+00
  -2.880  0.000E+00  0.000E+00
  -2.870  0.000E+00  0.000E+00
  -2.860  0.000E+00  0.000E+00
  -2.850  0.000E+00  0.000E+00
  -2.840  0.000E+00  0.000E+00
  -2.830  0.000E+00  0.000E+00
  -2.820  0.000E+00  0.000E+00
  -2.810  0.000E+00  0.000E+00
  -2.800  0.000E+00  0.000E+00
  -2.790  0.000E+00  0.000E+00
  -2.780  0.000E+00  0.000E+00
  -2.770  0.000E+00  0.000E+00
  -2.760  0.000E+00  0.000E+00
  -2.750  0.000E+00  0.000E+00
  -2.740  0.000E+00  0.000E+00
  -2.730  0.000E+00  0.000E+00
  -2.720  0.000E+00  0.000E+00
  -2.710  0.000E+00  0.000E+00
  -2.700  0.000E+00  0.000E+00
  -2.690  0.000E+00  0.000E+00
  -2.680  0.000E+00  0.000E+00
  -2.670  0.000E+00  0.000E+00
  -2.660  0.000E+00  0.000E+00
  -2.650  0.000E+00  0.000E+00
  -2.640  0.000E+00  0.000E+00
  -2.630  0.000E+00  0.000E+00
  -2.620  0.000E+00  0.000E+00
  -2.610  0.000E+00  0.000E+00
  -2.600  0.000E+00  0.000E+00
  -2.590  0.000E+00  0.000E+00
  -2.580  0.000E+00  0.000E+00
  -2.570  0.000E+00  0.000E+00
  -2.560  0.000E+00  0.000E+00
  -2.550  0.000E+00  0.000E+00
  -2.540  0.000E+00  0.000E+00
  -2.530  0.000E+00  0.000E+00
  -2.520  0.000E+00  0.000E+00
  -2.510  0.000E+00  0.000E+00
  -2.500  0.000E+00  0.000E+00
  -2.490  0.000E+00  0.000E+00
  -2.480  0.000E+00  0.000E+00
  -2.470  0.000E+00  0.000E+00
  -2.460  0.000E+00  0.000E+00
  -2.450  0.000E+00  0.000E+00
  -2.440  0.000E+00  0.000E+00
  -2.430  0.000E+00  0.000E+00
  -2.420  0.000E+00  0.000E+00
  -2.410  0.000E+00  0.000E+00
  -2.400  0.000E+00  0.000E+00
  -2.390  0.000E+00  0.000E+00
  -2.380  0.000E+00  0.000E+00
  -2.370  0.000E+00  0.000E+00
  -2.360  0.000E+00  0.000E+00
  -2.350  0.000E+00  0.000E+00
  -2.340  0.000E+00  0.000E+00
  -2.330  0.000E+00  0.000E+00
  -2.320  0.000E+00  0.000E+00
  -2.310  0.000E+00  0.000E+00
  -2.300  0.000E+00  0.000E+00
  -2.290  0.000E+00  0.000E+00
  -2.280  0.000E+00  0.000E+00
  -2.270  0.000E+00  0.000E+00
  -2.260  0.000E+00  0.000E+00
  -2.250  0.000E+00  0.000E+00
  -2.240  0.000E+00  0.000E+00
  -2.230  0.000E+00  0.000E+00
  -2.220  0.000E+00  0.000E+00
  -2.210  0.000E+00  0.000E+00
  -2.200  0.000E+00  0.000E+00
  -2.190  0.000E+00  0.000E+00
  -2.180  0.000E+00  0.000E+00
  -2.170  0.000E+00  0.000E+00
  -2.160  0.000E+00  0.000E+00
  -2.150  0.000E+00  0.000E+00
  -2.140  0.000E+00  0.000E+00
  -2.130  0.000E+00  0.000E+00
  -2.120  0.000E+00  0.000E+00
  -2.110  0.000E+00  0.000E+00
  -2.100  0.000E+00  0.000E+00
  -2.090  0.000E+00  0.000E+00
  -2.080  0.000E+00  0.000E+00
  -2.070  0.000E+00  0.000E+00
  -2.060  0.000E+00  0.000E+00
  -2.050  0.000E+00  0.000E+00
  -2.040  0.000E+00  0.000E+00
  -2.030  0.000E+00  0.000E+00
  -2.020  0.000E+00  0.000E+00
  -2.010  0.000E+00  0.000E+00
  -2.000  0.000E+00  0.000E+00
  -1.990  0.000E+00  0.000E+00
  -1.980  0.000E+00  0.000E+00
  -1.970  0.000E+00  0.000E+00
  -1.960  0.000E+00  0.000E+00
  -1.950  0.000E+00  0.000E+00
  -1.940  0.000E+00  0.000E+00
  -1.930  0.000E+00  0.000E+00
  -1.920  0.000E+00  0.000E+00
  -1.910  0.000E+00  0.000E+00
  -1.900  0.000E+00  0.000E+00
  -1.890  0.000E+00  0.000E+00
  -1.880  0.000E+00  0.000E+00
  -1.870  0.000E+00  0.000E+00
  -1.860  0.000E+00  0.000E+00
  -1.850  0.000E+00  0.000E+00
  -1.840  0.000E+00  0.000E+00
  -1.830  0.000E+00  0.000E+00
  -1.820  0.000E+00  0.000E+00
  -1.810  0.000E+00  0.000E+00
  -1.800  0.000E+00  0.000E+00
  -1.790  0.000E+00  0.000E+00
  -1.780  0.000E+00  0.000E+00
  -1.770  0.000E+00  0.000E+00
  -1.760  0.000E+00  0.000E+00
  -1.750  0.000E+00  0.000E+00
  -1.740  0.000E+00  0.000E+00
  -1.730  0.000E+00  0.000E+00
  -1.720  0.000E+00  0.000E+00
  -1.710  0.000E+00  0.000E+00
  -1.700  0.000E+00  0.000E+00
  -1.690  0.000E+00  0.000E+00
  -1.680  0.000E+00  0.000E+00
  -1.670  0.000E+00  0.000E+00
  -1.660  0.000E+00  0.000E+00
  -1.650  0.000E+00  0.000E+00
  -1.640  0.000E+00  0.000E+00
  -1.630  0.000E+00  0.000E+00
  -1.620  0.000E+00  0.000E+00
  -1.610  0.000E+00  0.000E+00
  -1.600  0.000E+00  0.000E+00
  -1.590  0.000E+00  0.000E+00
  -1.580  0.000E+00  0.000E+00
  -1.570  0.000E+00  0.000E+00
  -1.560  0.000E+00  0.000E+00
  -1.550  0.000E+00  0.000E+00
  -1.540  0.000E+00  0.000E+00
  -1.530  0.000E+00  0.000E+00
  -1.520  0.000E+00  0.000E+00
  -1.510  0.000E+00  0.000E+00
  -1.500  0.000E+00  0.000E+00
  -1.490  0.000E+00  0.000E+00
  -1.480  0.000E+00  0.000E+00
  -1.470  0.000E+00  0.000E+00
  -1.460  0.000E+00  0.000E+00
  -1.450  0.000E+00  0.000E+00
  -1.440  0.000E+00  0.000E+00
  -1.430  0.000E+00  0.000E+00
  -1.420  0.000E+00  0.000E+00
  -1.410  0.000E+00  0.000E+00
  -1.400  0.000E+00  0.000E+00
  -1.390  0.000E+00  0.000E+00
  -1.380  0.000E+00  0.000E+00
  -1.370  0.000E+00  0.000E+00
  -1.360  0.000E+00  0.000E+00
  -1.350  0.000E+00  0.000E+00
  -1.340  0.000E+00  0.000E+00
  -1.330  0.000E+00  0.000E+00
  -1.320  0.000E+00  0.000E+00
  -1.310  0.000E+00  0.000E+00
  -1.300  0.000E+00  0.000E+00
  -1.290  0.000E+00  0.000E+00
  -1.280  0.000E+00  0.000E+00
  -1.270  0.000E+00  0.000E+00
  -1.260  0.000E+00  0.000E+00
  -1.250  0.000E+00  0.000E+00
  -1.240  0.000E+00  0.000E+00
  -1.230  0.000E+00  0.000E+00
  -1.220  0.000E+00  0.000E+00
  -1.210  0.000E+00  0.000E+00
  -1.200  0.000E+00  0.000E+00
  -1.190  0.000E+00  0.000E+00
  -1.180  0.000E+00  0.000E+00
  -1.170  0.000E+00  0.000E+00
  -1.160  0.000E+00  0.000E+00
  -1.150  0.000E+00  0.000E+00
  -1.140  0.000E+00  0.000E+00
  -1.130  0.000E+00  0.000E+00
  -1.120  0.000E+00  0.000E+00
  -1.110  0.000E+00  0.000E+00
  -1.100  0.000E+00  0.000E+00
  -1.090  0.000E+00  0.000E+00
  -1.080  0.000E+00  0.000E+00
  -1.070  0.000E+00  0.000E+00
  -1.060  0.000E+00  0.000E+00
  -1.050  0.000E+00  0.000E+00
  -1.040  0.000E+00  0.000E+00
  -1.030  0.000E+00  0.000E+00
  -1.020  0.000E+00  0.000E+00
  -1.010  0.000E+00  0.000E+00
  -1.000  0.000E+00  0.000E+00
  -0.990  0.000E+00  0.000E+00
  -0.980  0.000E+00  0.000E+00
  -0.970  0.000E+00  0.000E+00
  -0.960  0.000E+00  0.000E+00
  -0.950  0.000E+00  0.000E+00
  -0.940  0.000E+00  0.000E+00
  -0.930  0.000E+00  0.000E+00
  -0.920  0.000E+00  0.000E+00
  -0.910  0.000E+00  0.000E+00
  -0.900  0.000E+00  0.000E+00
  -0.890  0.000E+00  0.000E+00
  -0.880  0.000E+00  0.000E+00
  -0.870  0.000E+00  0.000E+00
  -0.860  0.000E+00  0.000E+00
  -0.850  0.000E+00  0.000E+00
  -0.840  0.000E+00  0.000E+00
  -0.830  0.000E+00  0.000E+00
  -0.820  0.000E+00  0.000E+00
  -0.810  0.000E+00  0.000E+00
  -0.800  0.000E+00  0.000E+00
  -0.790  0.000E+00  0.000E+00
  -0.780  0.000E+00  0.000E+00
  -0.770  0.000E+00  0.000E+00
  -0.760  0.000E+00  0.000E+00
  -0.750  0.000E+00  0.000E+00
  -0.740  0.000E+00  0.000E+00
  -0.730  0.000E+00  0.000E+00
  -0.720  0.000E+00  0.000E+00
  -0.710  0.000E+00  0.000E+00
  -0.700  0.000E+00  0.000E+00
  -0.690  0.000E+00  0.000E+00
  -0.680  0.000E+00  0.000E+00
  -0.670  0.000E+00  0.000E+00
  -0.660  0.000E+00  0.000E+00
  -0.650  0.000E+00  0.000E+00
  -0.640  0.000E+00  0.000E+00
  -0.630  0.000E+00  0.000E+00
  -0.620  0.000E+00  0.000E+00
  -0.610  0.000E+00  0.000E+00
  -0.600  0.000E+00  0.000E+00
  -0.590  0.000E+00  0.000E+00
  -0.580  0.000E+00  0.000E+00
  -0.570  0.000E+00  0.000E+00
  -0.560  0.000E+00  0.000E+00
  -0.550  0.000E+00  0.000E+00
  -0.540  0.000E+00  0.000E+00
  -0.530  0.000E+00  0.000E+00
  -0.520  0.000E+00  0.000E+00
  -0.510  0.000E+00  0.000E+00
  -0.500  0.000E+00  0.000E+00
  -0.490  0.000E+00  0.000E+00
  -0.480  0.000E+00  0.000E+00
  -0.470  0.000E+00  0.000E+00
  -0.460  0.000E+00  0.000E+00
  -0.450  0.000E+00  0.000E+00
  -0.440  0.000E+00  0.000E+00
  -0.430  0.000E+00  0.000E+00
  -0.420  0.000E+00  0.000E+00
  -0.410  0.000E+00  0.000E+00
  -0.400  0.000E+00  0.000E+00
  -0.390  0.000E+00  0.000E+00
  -0.380  0.000E+00  0.000E+00
  -0.370  0.000E+00  0.000E+00
  -0.360  0.000E+00  0.000E+00
  -0.350  0.000E+00  0.000E+00
  -0.340  0.000E+00  0.000E+00
  -0.330  0.000E+00  0.000E+00
  -0.320  0.000E+00  0.000E+00
  -0.310  0.000E+00  0.000E+00
  -0.300  0.000E+00  0.000E+00
  -0.290  0.000E+00  0.000E+00
  -0.280  0.000E+00  0.000E+00
  -0.270  0.000E+00  0.000E+00
  -0.260  0.000E+00  0.000E+00
  -0.250  0.000E+00  0.000E+00
  -0.240  0.000E+00  0.000E+00
  -0.230  0.000E+00  0.000E+00
  -0.220  0.000E+00  0.000E+00
  -0.210  0.000E+00  0.000E+00
  -0.200  0.000E+00  0.000E+00
  -0.190  0.000E+00  0.000E+00
  -0.180  0.000E+00  0.000E+00
  -0.170  0.000E+00  0.000E+00
  -0.160  0.000E+00  0.000E+00
  -0.150  0.000E+00  0.000E+00
  -0.140  0.000E+00  0.000E+00
  -0.130  0.000E+00  0.000E+00
  -0.120  0.000E+00  0.000E+00
  -0.110  0.000E+00  0.000E+00
  -0.100  0.000E+00  0.000E+00
  -0.090  0.000E+00  0.000E+00
  -0.080  0.000E+00  0.000E+00
  -0.070  0.000E+00  0.000E+00
  -0.060  0.000E+00  0.000E+00
  -0.050  0.000E+00  0.000E+00
  -0.040  0.000E+00  0.000E+00
  -0.030  0.000E+00  0.000E+00
  -0.020  0.000E+00  0.000E+00
  -0.010  0.000E+00  0.000E+00
   0.000  0.000E+00  0.000E+00
   0.010  0.000E+00  0.000E+00
   0.020  0.000E+00  0.000E+00
   0.030  0.000E+00  0.000E+00
   0.040  0.000E+00  0.000E+00
   0.050  0.000E+00  0.000E+00
   0.060  0.000E+00  0.000E+00
   0.070  0.000E+00  0.000E+00
   0.080  0.000E+00  0.000E+00
   0.090  0.000E+00  0.000E+00
   0.100  0.000E+00  0.000E+00
   0.110  0.000E+00  0.000E+00
   0.120  0.000E+00  0.000E+00
   0.130  0.000E+00  0.000E+00
   0.140  0.000E+00  0.000E+00
   0.150  0.000E+00  0.000E+00
   0.160  0.000E+00  0.000E+00
   0.170  0.000E+00  0.000E+00
   0.180  0.000E+00  0.000E+00
   0.190  0.000E+00  0.000E+00
   0.200  0.000E+00  0.000E+00
   0.210  0.000E+00  0.000E+00
   0.220  0.000E+00  0.000E+00
   0.230  0.000E+00  0.000E+00
   0.240  0.000E+00  0.000E+00
   0.250  0.000E+00  0.000E+00
   0.260  0.000E+00  0.000E+00
   0.270  0.000E+00  0.000E+00
   0.280  0.000E+00  0.000E+00
   0.290  0.000E+00  0.000E+00
   0.300  0.000E+00  0.000E+00
   0.310  0.000E+00  0.000E+00
   0.320  0.000E+00  0.000E+00
   0.330  0.000E+00  0.000E+00
   0.340  0.000E+00  0.000E+00
   0.350  0.000E+00  0.000E+00
   0.360  0.000E+00  0.000E+00
   0.370  0.000E+00  0.000E+00
   0.380  0.000E+00  0.000E+00
   0.390  0.000E+00  0.000E+00
   0.400  0.352E-16  0.352E-16
   0.410  0.189E-15  0.189E-15
   0.420  0.969E-15  0.969E-15
   0.430  0.476E-14  0.476E-14
   0.440  0.227E-13  0.227E-13
   0.450  0.102E-12  0.102E-12
   0.460  0.442E-12  0.442E-12
   0.470  0.183E-11  0.183E-11
   0.480  0.723E-11  0.723E-11
   0.490  0.274E-10  0.274E-10
   0.500  0.996E-10  0.996E-10
   0.510  0.347E-09  0.347E-09
   0.520  0.116E-08  0.116E-08
   0.530  0.369E-08  0.369E-08
   0.540  0.113E-07  0.113E-07
   0.550  0.331E-07  0.331E-07
   0.560  0.930E-07  0.930E-07
   0.570  0.251E-06  0.251E-06
   0.580  0.647E-06  0.647E-06
   0.590  0.160E-05  0.160E-05
   0.600  0.382E-05  0.382E-05
   0.610  0.872E-05  0.872E-05
   0.620  0.191E-04  0.191E-04
   0.630  0.402E-04  0.402E-04
   0.640  0.814E-04  0.814E-04
   0.650  0.158E-03  0.158E-03
   0.660  0.296E-03  0.296E-03
   0.670  0.532E-03  0.532E-03
   0.680  0.920E-03  0.920E-03
   0.690  0.153E-02  0.153E-02
   0.700  0.245E-02  0.245E-02
   0.710  0.377E-02  0.377E-02
   0.720  0.557E-02  0.557E-02
   0.730  0.793E-02  0.793E-02
   0.740  0.108E-01  0.108E-01
   0.750  0.143E-01  0.143E-01
   0.760  0.180E-01  0.180E-01
   0.770  0.219E-01  0.219E-01
   0.780  0.256E-01  0.256E-01
   0.790  0.288E-01  0.288E-01
   0.800  0.314E-01  0.314E-01
   0.810  0.332E-01  0.332E-01
   0.820  0.342E-01  0.342E-01
   0.830  0.347E-01  0.347E-01
   0.840  0.350E-01  0.350E-01
   0.850  0.353E-01  0.353E-01
   0.860  0.357E-01  0.357E-01
   0.870  0.363E-01  0.363E-01
   0.880  0.368E-01  0.368E-01
   0.890  0.368E-01  0.368E-01
   0.900  0.362E-01  0.362E-01
   0.910  0.346E-01  0.346E-01
   0.920  0.321E-01  0.321E-01
   0.930  0.289E-01  0.289E-01
   0.940  0.256E-01  0.256E-01
   0.950  0.227E-01  0.227E-01
   0.960  0.209E-01  0.209E-01
   0.970  0.206E-01  0.206E-01
   0.980  0.220E-01  0.220E-01
   0.990  0.248E-01  0.248E-01
   1.000  0.285E-01  0.285E-01
   1.010  0.325E-01  0.325E-01
   1.020  0.358E-01  0.358E-01
   1.030  0.380E-01  0.380E-01
   1.040  0.384E-01  0.384E-01
   1.050  0.372E-01  0.372E-01
   1.060  0.346E-01  0.346E-01
   1.070  0.310E-01  0.310E-01
   1.080  0.268E-01  0.268E-01
   1.090  0.227E-01  0.227E-01
   1.100  0.190E-01  0.190E-01
   1.110  0.158E-01  0.158E-01
   1.120  0.135E-01  0.135E-01
   1.130  0.120E-01  0.120E-01
   1.140  0.116E-01  0.116E-01
   1.150  0.124E-01  0.124E-01
   1.160  0.145E-01  0.145E-01
   1.170  0.178E-01  0.178E-01
   1.180  0.221E-01  0.221E-01
   1.190  0.270E-01  0.270E-01
   1.200  0.320E-01  0.320E-01
   1.210  0.362E-01  0.362E-01
   1.220  0.392E-01  0.392E-01
   1.230  0.404E-01  0.404E-01
   1.240  0.395E-01  0.395E-01
   1.250  0.367E-01  0.367E-01
   1.260  0.323E-01  0.323E-01
   1.270  0.269E-01  0.269E-01
   1.280  0.215E-01  0.215E-01
   1.290  0.166E-01  0.166E-01
   1.300  0.128E-01  0.128E-01
   1.310  0.104E-01  0.104E-01
   1.320  0.926E-02  0.926E-02
   1.330  0.922E-02  0.922E-02
   1.340  0.984E-02  0.984E-02
   1.350  0.107E-01  0.107E-01
   1.360  0.116E-01  0.116E-01
   1.370  0.125E-01  0.125E-01
   1.380  0.133E-01  0.133E-01
   1.390  0.144E-01  0.144E-01
   1.400  0.159E-01  0.159E-01
   1.410  0.180E-01  0.180E-01
   1.420  0.208E-01  0.208E-01
   1.430  0.239E-01  0.239E-01
   1.440  0.270E-01  0.270E-01
   1.450  0.299E-01  0.299E-01
   1.460  0.321E-01  0.321E-01
   1.470  0.334E-01  0.334E-01
   1.480  0.338E-01  0.338E-01
   1.490  0.333E-01  0.333E-01
   1.500  0.319E-01  0.319E-01
   1.510  0.297E-01  0.297E-01
   1.520  0.270E-01  0.270E-01
   1.530  0.236E-01  0.236E-01
   1.540  0.199E-01  0.199E-01
   1.550  0.159E-01  0.159E-01
   1.560  0.119E-01  0.119E-01
   1.570  0.837E-02  0.837E-02
   1.580  0.552E-02  0.552E-02
   1.590  0.366E-02  0.366E-02
   1.600  0.293E-02  0.293E-02
   1.610  0.331E-02  0.331E-02
   1.620  0.462E-02  0.462E-02
   1.630  0.659E-02  0.659E-02
   1.640  0.889E-02  0.889E-02
   1.650  0.112E-01  0.112E-01
   1.660  0.134E-01  0.134E-01
   1.670  0.154E-01  0.154E-01
   1.680  0.172E-01  0.172E-01
   1.690  0.189E-01  0.189E-01
   1.700  0.207E-01  0.207E-01
   1.710  0.226E-01  0.226E-01
   1.720  0.246E-01  0.246E-01
   1.730  0.266E-01  0.266E-01
   1.740  0.282E-01  0.282E-01
   1.750  0.291E-01  0.291E-01
   1.760  0.291E-01  0.291E-01
   1.770  0.281E-01  0.281E-01
   1.780  0.262E-01  0.262E-01
   1.790  0.237E-01  0.237E-01
   1.800  0.210E-01  0.210E-01
   1.810  0.187E-01  0.187E-01
   1.820  0.171E-01  0.171E-01
   1.830  0.164E-01  0.164E-01
   1.840  0.164E-01  0.164E-01
   1.850  0.168E-01  0.168E-01
   1.860  0.173E-01  0.173E-01
   1.870  0.173E-01  0.173E-01
   1.880  0.165E-01  0.165E-01
   1.890  0.148E-01  0.148E-01
   1.900  0.123E-01  0.123E-01
   1.910  0.930E-02  0.930E-02
   1.920  0.624E-02  0.624E-02
   1.930  0.352E-02  0.352E-02
   1.940  0.152E-02  0.152E-02
   1.950  0.459E-03  0.459E-03
   1.960  0.421E-03  0.421E-03
   1.970  0.138E-02  0.138E-02
   1.980  0.324E-02  0.324E-02
   1.990  0.584E-02  0.584E-02
   2.000  0.901E-02  0.901E-02
   2.010  0.126E-01  0.126E-01
   2.020  0.163E-01  0.163E-01
   2.030  0.199E-01  0.199E-01
   2.040  0.232E-01  0.232E-01
   2.050  0.261E-01  0.261E-01
   2.060  0.282E-01  0.282E-01
   2.070  0.296E-01  0.296E-01
   2.080  0.301E-01  0.301E-01
   2.090  0.299E-01  0.299E-01
   2.100  0.291E-01  0.291E-01
   2.110  0.277E-01  0.277E-01
   2.120  0.260E-01  0.260E-01
   2.130  0.240E-01  0.240E-01
   2.140  0.217E-01  0.217E-01
   2.150  0.191E-01  0.191E-01
   2.160  0.164E-01  0.164E-01
   2.170  0.136E-01  0.136E-01
   2.180  0.110E-01  0.110E-01
   2.190  0.878E-02  0.878E-02
   2.200  0.729E-02  0.729E-02
   2.210  0.675E-02  0.675E-02
   2.220  0.724E-02  0.724E-02
   2.230  0.869E-02  0.869E-02
   2.240  0.108E-01  0.108E-01
   2.250  0.133E-01  0.133E-01
   2.260  0.155E-01  0.155E-01
   2.270  0.170E-01  0.170E-01
   2.280  0.175E-01  0.175E-01
   2.290  0.168E-01  0.168E-01
   2.300  0.150E-01  0.150E-01
   2.310  0.123E-01  0.123E-01
   2.320  0.921E-02  0.921E-02
   2.330  0.605E-02  0.605E-02
   2.340  0.329E-02  0.329E-02
   2.350  0.125E-02  0.125E-02
   2.360  0.148E-03  0.148E-03
   2.370  0.591E-04  0.591E-04
   2.380  0.992E-03  0.992E-03
   2.390  0.290E-02  0.290E-02
   2.400  0.572E-02  0.572E-02
   2.410  0.935E-02  0.935E-02
   2.420  0.136E-01  0.136E-01
   2.430  0.184E-01  0.184E-01
   2.440  0.232E-01  0.232E-01
   2.450  0.278E-01  0.278E-01
   2.460  0.316E-01  0.316E-01
   2.470  0.341E-01  0.341E-01
   2.480  0.351E-01  0.351E-01
   2.490  0.345E-01  0.345E-01
   2.500  0.324E-01  0.324E-01
   2.510  0.292E-01  0.292E-01
   2.520  0.255E-01  0.255E-01
   2.530  0.219E-01  0.219E-01
   2.540  0.190E-01  0.190E-01
   2.550  0.172E-01  0.172E-01
   2.560  0.163E-01  0.163E-01
   2.570  0.163E-01  0.163E-01
   2.580  0.166E-01  0.166E-01
   2.590  0.169E-01  0.169E-01
   2.600  0.167E-01  0.167E-01
   2.610  0.159E-01  0.159E-01
   2.620  0.144E-01  0.144E-01
   2.630  0.126E-01  0.126E-01
   2.640  0.107E-01  0.107E-01
   2.650  0.915E-02  0.915E-02
   2.660  0.832E-02  0.832E-02
   2.670  0.844E-02  0.844E-02
   2.680  0.958E-02  0.958E-02
   2.690  0.116E-01  0.116E-01
   2.700  0.144E-01  0.144E-01
   2.710  0.174E-01  0.174E-01
   2.720  0.203E-01  0.203E-01
   2.730  0.225E-01  0.225E-01
   2.740  0.237E-01  0.237E-01
   2.750  0.237E-01  0.237E-01
   2.760  0.224E-01  0.224E-01
   2.770  0.200E-01  0.200E-01
   2.780  0.170E-01  0.170E-01
   2.790  0.138E-01  0.138E-01
   2.800  0.110E-01  0.110E-01
   2.810  0.901E-02  0.901E-02
   2.820  0.816E-02  0.816E-02
   2.830  0.855E-02  0.855E-02
   2.840  0.101E-01  0.101E-01
   2.850  0.126E-01  0.126E-01
   2.860  0.157E-01  0.157E-01
   2.870  0.192E-01  0.192E-01
   2.880  0.227E-01  0.227E-01
   2.890  0.260E-01  0.260E-01
   2.900  0.289E-01  0.289E-01
   2.910  0.314E-01  0.314E-01
   2.920  0.332E-01  0.332E-01
   2.930  0.345E-01  0.345E-01
   2.940  0.350E-01  0.350E-01
   2.950  0.348E-01  0.348E-01
   2.960  0.338E-01  0.338E-01
   2.970  0.321E-01  0.321E-01
   2.980  0.298E-01  0.298E-01
   2.990  0.269E-01  0.269E-01
   3.000  0.240E-01  0.240E-01
   3.010  0.213E-01  0.213E-01
   3.020  0.192E-01  0.192E-01
   3.030  0.179E-01  0.179E-01
   3.040  0.177E-01  0.177E-01
   3.050  0.183E-01  0.183E-01
   3.060  0.193E-01  0.193E-01
   3.070  0.204E-01  0.204E-01
   3.080  0.211E-01  0.211E-01
   3.090  0.209E-01  0.209E-01
   3.100  0.197E-01  0.197E-01
   3.110  0.176E-01  0.176E-01
   3.120  0.146E-01  0.146E-01
   3.130  0.114E-01  0.114E-01
   3.140  0.814E-02  0.814E-02
   3.150  0.539E-02  0.539E-02
   3.160  0.338E-02  0.338E-02
   3.170  0.228E-02  0.228E-02
   3.180  0.215E-02  0.215E-02
   3.190  0.297E-02  0.297E-02
   3.200  0.468E-02  0.468E-02
   3.210  0.718E-02  0.718E-02
   3.220  0.103E-01  0.103E-01
   3.230  0.140E-01  0.140E-01
   3.240  0.178E-01  0.178E-01
   3.250  0.214E-01  0.214E-01
   3.260  0.245E-01  0.245E-01
   3.270  0.266E-01  0.266E-01
   3.280  0.276E-01  0.276E-01
   3.290  0.273E-01  0.273E-01
   3.300  0.259E-01  0.259E-01
   3.310  0.239E-01  0.239E-01
   3.320  0.217E-01  0.217E-01
   3.330  0.198E-01  0.198E-01
   3.340  0.187E-01  0.187E-01
   3.350  0.186E-01  0.186E-01
   3.360  0.193E-01  0.193E-01
   3.370  0.208E-01  0.208E-01
   3.380  0.225E-01  0.225E-01
   3.390  0.240E-01  0.240E-01
   3.400  0.251E-01  0.251E-01
   3.410  0.256E-01  0.256E-01
   3.420  0.253E-01  0.253E-01
   3.430  0.247E-01  0.247E-01
   3.440  0.240E-01  0.240E-01
   3.450  0.235E-01  0.235E-01
   3.460  0.236E-01  0.236E-01
   3.470  0.244E-01  0.244E-01
   3.480  0.258E-01  0.258E-01
   3.490  0.274E-01  0.274E-01
   3.500  0.287E-01  0.287E-01
   3.510  0.295E-01  0.295E-01
   3.520  0.293E-01  0.293E-01
   3.530  0.281E-01  0.281E-01
   3.540  0.259E-01  0.259E-01
   3.550  0.232E-01  0.232E-01
   3.560  0.203E-01  0.203E-01
   3.570  0.178E-01  0.178E-01
   3.580  0.160E-01  0.160E-01
   3.590  0.153E-01  0.153E-01
   3.600  0.156E-01  0.156E-01
   3.610  0.168E-01  0.168E-01
   3.620  0.185E-01  0.185E-01
   3.630  0.204E-01  0.204E-01
   3.640  0.218E-01  0.218E-01
   3.650  0.225E-01  0.225E-01
   3.660  0.221E-01  0.221E-01
   3.670  0.206E-01  0.206E-01
   3.680  0.180E-01  0.180E-01
   3.690  0.148E-01  0.148E-01
   3.700  0.111E-01  0.111E-01
   3.710  0.760E-02  0.760E-02
   3.720  0.447E-02  0.447E-02
   3.730  0.203E-02  0.203E-02
   3.740  0.420E-03  0.420E-03
   3.750 -0.280E-03 -0.280E-03
   3.760 -0.670E-04 -0.670E-04
   3.770  0.104E-02  0.104E-02
   3.780  0.302E-02  0.302E-02
   3.790  0.584E-02  0.584E-02
   3.800  0.945E-02  0.945E-02
   3.810  0.137E-01  0.137E-01
   3.820  0.185E-01  0.185E-01
   3.830  0.235E-01  0.235E-01
   3.840  0.284E-01  0.284E-01
   3.850  0.327E-01  0.327E-01
   3.860  0.362E-01  0.362E-01
   3.870  0.387E-01  0.387E-01
   3.880  0.400E-01  0.400E-01
   3.890  0.403E-01  0.403E-01
   3.900  0.397E-01  0.397E-01
   3.910  0.386E-01  0.386E-01
   3.920  0.372E-01  0.372E-01
   3.930  0.357E-01  0.357E-01
   3.940  0.341E-01  0.341E-01
   3.950  0.325E-01  0.325E-01
   3.960  0.307E-01  0.307E-01
   3.970  0.286E-01  0.286E-01
   3.980  0.261E-01  0.261E-01
   3.990  0.234E-01  0.234E-01
   4.000  0.205E-01  0.205E-01
   4.010  0.178E-01  0.178E-01
   4.020  0.157E-01  0.157E-01
   4.030  0.146E-01  0.146E-01
   4.040  0.148E-01  0.148E-01
   4.050  0.165E-01  0.165E-01
   4.060  0.193E-01  0.193E-01
   4.070  0.230E-01  0.230E-01
   4.080  0.270E-01  0.270E-01
   4.090  0.306E-01  0.306E-01
   4.100  0.331E-01  0.331E-01
   4.110  0.340E-01  0.340E-01
   4.120  0.333E-01  0.333E-01
   4.130  0.308E-01  0.308E-01
   4.140  0.271E-01  0.271E-01
   4.150  0.225E-01  0.225E-01
   4.160  0.179E-01  0.179E-01
   4.170  0.138E-01  0.138E-01
   4.180  0.108E-01  0.108E-01
   4.190  0.929E-02  0.929E-02
   4.200  0.947E-02  0.947E-02
   4.210  0.112E-01  0.112E-01
   4.220  0.143E-01  0.143E-01
   4.230  0.181E-01  0.181E-01
   4.240  0.219E-01  0.219E-01
   4.250  0.253E-01  0.253E-01
   4.260  0.275E-01  0.275E-01
   4.270  0.282E-01  0.282E-01
   4.280  0.273E-01  0.273E-01
   4.290  0.250E-01  0.250E-01
   4.300  0.217E-01  0.217E-01
   4.310  0.177E-01  0.177E-01
   4.320  0.136E-01  0.136E-01
   4.330  0.981E-02  0.981E-02
   4.340  0.669E-02  0.669E-02
   4.350  0.441E-02  0.441E-02
   4.360  0.308E-02  0.308E-02
   4.370  0.273E-02  0.273E-02
   4.380  0.337E-02  0.337E-02
   4.390  0.505E-02  0.505E-02
   4.400  0.780E-02  0.780E-02
   4.410  0.117E-01  0.117E-01
   4.420  0.166E-01  0.166E-01
   4.430  0.226E-01  0.226E-01
   4.440  0.293E-01  0.293E-01
   4.450  0.365E-01  0.365E-01
   4.460  0.436E-01  0.436E-01
   4.470  0.499E-01  0.499E-01
   4.480  0.547E-01  0.547E-01
   4.490  0.576E-01  0.576E-01
   4.500  0.581E-01  0.581E-01
   4.510  0.563E-01  0.563E-01
   4.520  0.523E-01  0.523E-01
   4.530  0.470E-01  0.470E-01
   4.540  0.411E-01  0.411E-01
   4.550  0.354E-01  0.354E-01
   4.560  0.306E-01  0.306E-01
   4.570  0.271E-01  0.271E-01
   4.580  0.248E-01  0.248E-01
   4.590  0.235E-01  0.235E-01
   4.600  0.226E-01  0.226E-01
   4.610  0.216E-01  0.216E-01
   4.620  0.202E-01  0.202E-01
   4.630  0.183E-01  0.183E-01
   4.640  0.162E-01  0.162E-01
   4.650  0.143E-01  0.143E-01
   4.660  0.132E-01  0.132E-01
   4.670  0.134E-01  0.134E-01
   4.680  0.154E-01  0.154E-01
   4.690  0.192E-01  0.192E-01
   4.700  0.244E-01  0.244E-01
   4.710  0.305E-01  0.305E-01
   4.720  0.367E-01  0.367E-01
   4.730  0.420E-01  0.420E-01
   4.740  0.457E-01  0.457E-01
   4.750  0.472E-01  0.472E-01
   4.760  0.463E-01  0.463E-01
   4.770  0.431E-01  0.431E-01
   4.780  0.381E-01  0.381E-01
   4.790  0.321E-01  0.321E-01
   4.800  0.260E-01  0.260E-01
   4.810  0.205E-01  0.205E-01
   4.820  0.164E-01  0.164E-01
   4.830  0.141E-01  0.141E-01
   4.840  0.138E-01  0.138E-01
   4.850  0.154E-01  0.154E-01
   4.860  0.187E-01  0.187E-01
   4.870  0.229E-01  0.229E-01
   4.880  0.275E-01  0.275E-01
   4.890  0.317E-01  0.317E-01
   4.900  0.347E-01  0.347E-01
   4.910  0.361E-01  0.361E-01
   4.920  0.353E-01  0.353E-01
   4.930  0.326E-01  0.326E-01
   4.940  0.281E-01  0.281E-01
   4.950  0.224E-01  0.224E-01
   4.960  0.164E-01  0.164E-01
   4.970  0.105E-01  0.105E-01
   4.980  0.559E-02  0.559E-02
   4.990  0.194E-02  0.194E-02
   5.000 -0.154E-03 -0.154E-03
   5.010 -0.609E-03 -0.609E-03
   5.020  0.605E-03  0.605E-03
   5.030  0.350E-02  0.350E-02
   5.040  0.810E-02  0.810E-02
   5.050  0.144E-01  0.144E-01
   5.060  0.225E-01  0.225E-01
   5.070  0.321E-01  0.321E-01
   5.080  0.428E-01  0.428E-01
   5.090  0.539E-01  0.539E-01
   5.100  0.644E-01  0.644E-01
   5.110  0.734E-01  0.734E-01
   5.120  0.797E-01  0.797E-01
   5.130  0.825E-01  0.825E-01
   5.140  0.815E-01  0.815E-01
   5.150  0.770E-01  0.770E-01
   5.160  0.695E-01  0.695E-01
   5.170  0.600E-01  0.600E-01
   5.180  0.499E-01  0.499E-01
   5.190  0.403E-01  0.403E-01
   5.200  0.321E-01  0.321E-01
   5.210  0.261E-01  0.261E-01
   5.220  0.224E-01  0.224E-01
   5.230  0.212E-01  0.212E-01
   5.240  0.218E-01  0.218E-01
   5.250  0.239E-01  0.239E-01
   5.260  0.266E-01  0.266E-01
   5.270  0.293E-01  0.293E-01
   5.280  0.315E-01  0.315E-01
   5.290  0.330E-01  0.330E-01
   5.300  0.340E-01  0.340E-01
   5.310  0.348E-01  0.348E-01
   5.320  0.360E-01  0.360E-01
   5.330  0.382E-01  0.382E-01
   5.340  0.418E-01  0.418E-01
   5.350  0.465E-01  0.465E-01
   5.360  0.520E-01  0.520E-01
   5.370  0.573E-01  0.573E-01
   5.380  0.614E-01  0.614E-01
   5.390  0.635E-01  0.635E-01
   5.400  0.627E-01  0.627E-01
   5.410  0.589E-01  0.589E-01
   5.420  0.525E-01  0.525E-01
   5.430  0.441E-01  0.441E-01
   5.440  0.351E-01  0.351E-01
   5.450  0.265E-01  0.265E-01
   5.460  0.198E-01  0.198E-01
   5.470  0.158E-01  0.158E-01
   5.480  0.150E-01  0.150E-01
   5.490  0.176E-01  0.176E-01
   5.500  0.231E-01  0.231E-01
   5.510  0.306E-01  0.306E-01
   5.520  0.387E-01  0.387E-01
   5.530  0.463E-01  0.463E-01
   5.540  0.519E-01  0.519E-01
   5.550  0.547E-01  0.547E-01
   5.560  0.542E-01  0.542E-01
   5.570  0.505E-01  0.505E-01
   5.580  0.446E-01  0.446E-01
   5.590  0.377E-01  0.377E-01
   5.600  0.314E-01  0.314E-01
   5.610  0.271E-01  0.271E-01
   5.620  0.260E-01  0.260E-01
   5.630  0.284E-01  0.284E-01
   5.640  0.343E-01  0.343E-01
   5.650  0.426E-01  0.426E-01
   5.660  0.521E-01  0.521E-01
   5.670  0.609E-01  0.609E-01
   5.680  0.675E-01  0.675E-01
   5.690  0.709E-01  0.709E-01
   5.700  0.705E-01  0.705E-01
   5.710  0.666E-01  0.666E-01
   5.720  0.605E-01  0.605E-01
   5.730  0.535E-01  0.535E-01
   5.740  0.474E-01  0.474E-01
   5.750  0.437E-01  0.437E-01
   5.760  0.435E-01  0.435E-01
   5.770  0.469E-01  0.469E-01
   5.780  0.537E-01  0.537E-01
   5.790  0.626E-01  0.626E-01
   5.800  0.724E-01  0.724E-01
   5.810  0.814E-01  0.814E-01
   5.820  0.882E-01  0.882E-01
   5.830  0.918E-01  0.918E-01
   5.840  0.916E-01  0.916E-01
   5.850  0.877E-01  0.877E-01
   5.860  0.807E-01  0.807E-01
   5.870  0.714E-01  0.714E-01
   5.880  0.610E-01  0.610E-01
   5.890  0.507E-01  0.507E-01
   5.900  0.418E-01  0.418E-01
   5.910  0.350E-01  0.350E-01
   5.920  0.311E-01  0.311E-01
   5.930  0.306E-01  0.306E-01
   5.940  0.337E-01  0.337E-01
   5.950  0.404E-01  0.404E-01
   5.960  0.509E-01  0.509E-01
   5.970  0.650E-01  0.650E-01
   5.980  0.828E-01  0.828E-01
   5.990  0.104E+00  0.104E+00
   6.000  0.130E+00  0.130E+00
   6.010  0.158E+00  0.158E+00
   6.020  0.189E+00  0.189E+00
   6.030  0.220E+00  0.220E+00
   6.040  0.249E+00  0.249E+00
   6.050  0.272E+00  0.272E+00
   6.060  0.285E+00  0.285E+00
   6.070  0.287E+00  0.287E+00
   6.080  0.276E+00  0.276E+00
   6.090  0.254E+00  0.254E+00
   6.100  0.223E+00  0.223E+00
   6.110  0.188E+00  0.188E+00
   6.120  0.153E+00  0.153E+00
   6.130  0.122E+00  0.122E+00
   6.140  0.998E-01  0.998E-01
   6.150  0.864E-01  0.864E-01
   6.160  0.817E-01  0.817E-01
   6.170  0.833E-01  0.833E-01
   6.180  0.880E-01  0.880E-01
   6.190  0.924E-01  0.924E-01
   6.200  0.935E-01  0.935E-01
   6.210  0.894E-01  0.894E-01
   6.220  0.799E-01  0.799E-01
   6.230  0.657E-01  0.657E-01
   6.240  0.488E-01  0.488E-01
   6.250  0.316E-01  0.316E-01
   6.260  0.164E-01  0.164E-01
   6.270  0.515E-02  0.515E-02
   6.280 -0.970E-03 -0.970E-03
   6.290 -0.148E-02 -0.148E-02
   6.300  0.354E-02  0.354E-02
   6.310  0.137E-01  0.137E-01
   6.320  0.281E-01  0.281E-01
   6.330  0.460E-01  0.460E-01
   6.340  0.661E-01  0.661E-01
   6.350  0.868E-01  0.868E-01
   6.360  0.106E+00  0.106E+00
   6.370  0.123E+00  0.123E+00
   6.380  0.135E+00  0.135E+00
   6.390  0.141E+00  0.141E+00
   6.400  0.140E+00  0.140E+00
   6.410  0.134E+00  0.134E+00
   6.420  0.124E+00  0.124E+00
   6.430  0.112E+00  0.112E+00
   6.440  0.999E-01  0.999E-01
   6.450  0.896E-01  0.896E-01
   6.460  0.821E-01  0.821E-01
   6.470  0.779E-01  0.779E-01
   6.480  0.769E-01  0.769E-01
   6.490  0.785E-01  0.785E-01
   6.500  0.824E-01  0.824E-01
   6.510  0.884E-01  0.884E-01
   6.520  0.961E-01  0.961E-01
   6.530  0.106E+00  0.106E+00
   6.540  0.117E+00  0.117E+00
   6.550  0.128E+00  0.128E+00
   6.560  0.140E+00  0.140E+00
   6.570  0.151E+00  0.151E+00
   6.580  0.160E+00  0.160E+00
   6.590  0.165E+00  0.165E+00
   6.600  0.167E+00  0.167E+00
   6.610  0.164E+00  0.164E+00
   6.620  0.156E+00  0.156E+00
   6.630  0.145E+00  0.145E+00
   6.640  0.131E+00  0.131E+00
   6.650  0.114E+00  0.114E+00
   6.660  0.964E-01  0.964E-01
   6.670  0.776E-01  0.776E-01
   6.680  0.591E-01  0.591E-01
   6.690  0.420E-01  0.420E-01
   6.700  0.272E-01  0.272E-01
   6.710  0.158E-01  0.158E-01
   6.720  0.882E-02  0.882E-02
   6.730  0.698E-02  0.698E-02
   6.740  0.107E-01  0.107E-01
   6.750  0.200E-01  0.200E-01
   6.760  0.345E-01  0.345E-01
   6.770  0.534E-01  0.534E-01
   6.780  0.754E-01  0.754E-01
   6.790  0.986E-01  0.986E-01
   6.800  0.121E+00  0.121E+00
   6.810  0.140E+00  0.140E+00
   6.820  0.153E+00  0.153E+00
   6.830  0.160E+00  0.160E+00
   6.840  0.158E+00  0.158E+00
   6.850  0.149E+00  0.149E+00
   6.860  0.134E+00  0.134E+00
   6.870  0.114E+00  0.114E+00
   6.880  0.919E-01  0.919E-01
   6.890  0.703E-01  0.703E-01
   6.900  0.511E-01  0.511E-01
   6.910  0.355E-01  0.355E-01
   6.920  0.239E-01  0.239E-01
   6.930  0.161E-01  0.161E-01
   6.940  0.113E-01  0.113E-01
   6.950  0.867E-02  0.867E-02
   6.960  0.713E-02  0.713E-02
   6.970  0.603E-02  0.603E-02
   6.980  0.499E-02  0.499E-02
   6.990  0.393E-02  0.393E-02
   7.000  0.301E-02  0.301E-02
   7.010  0.248E-02  0.248E-02
   7.020  0.259E-02  0.259E-02
   7.030  0.356E-02  0.356E-02
   7.040  0.555E-02  0.555E-02
   7.050  0.873E-02  0.873E-02
   7.060  0.133E-01  0.133E-01
   7.070  0.197E-01  0.197E-01
   7.080  0.283E-01  0.283E-01
   7.090  0.396E-01  0.396E-01
   7.100  0.538E-01  0.538E-01
   7.110  0.709E-01  0.709E-01
   7.120  0.905E-01  0.905E-01
   7.130  0.111E+00  0.111E+00
   7.140  0.132E+00  0.132E+00
   7.150  0.150E+00  0.150E+00
   7.160  0.164E+00  0.164E+00
   7.170  0.173E+00  0.173E+00
   7.180  0.176E+00  0.176E+00
   7.190  0.173E+00  0.173E+00
   7.200  0.165E+00  0.165E+00
   7.210  0.156E+00  0.156E+00
   7.220  0.146E+00  0.146E+00
   7.230  0.140E+00  0.140E+00
   7.240  0.138E+00  0.138E+00
   7.250  0.141E+00  0.141E+00
   7.260  0.150E+00  0.150E+00
   7.270  0.163E+00  0.163E+00
   7.280  0.177E+00  0.177E+00
   7.290  0.191E+00  0.191E+00
   7.300  0.200E+00  0.200E+00
   7.310  0.202E+00  0.202E+00
   7.320  0.195E+00  0.195E+00
   7.330  0.179E+00  0.179E+00
   7.340  0.155E+00  0.155E+00
   7.350  0.126E+00  0.126E+00
   7.360  0.929E-01  0.929E-01
   7.370  0.607E-01  0.607E-01
   7.380  0.319E-01  0.319E-01
   7.390  0.886E-02  0.886E-02
   7.400 -0.752E-02 -0.752E-02
   7.410 -0.172E-01 -0.172E-01
   7.420 -0.209E-01 -0.209E-01
   7.430 -0.199E-01 -0.199E-01
   7.440 -0.157E-01 -0.157E-01
   7.450 -0.940E-02 -0.940E-02
   7.460 -0.210E-02 -0.210E-02
   7.470  0.549E-02  0.549E-02
   7.480  0.128E-01  0.128E-01
   7.490  0.194E-01  0.194E-01
   7.500  0.249E-01  0.249E-01
   7.510  0.290E-01  0.290E-01
   7.520  0.313E-01  0.313E-01
   7.530  0.318E-01  0.318E-01
   7.540  0.308E-01  0.308E-01
   7.550  0.287E-01  0.287E-01
   7.560  0.263E-01  0.263E-01
   7.570  0.245E-01  0.245E-01
   7.580  0.239E-01  0.239E-01
   7.590  0.253E-01  0.253E-01
   7.600  0.288E-01  0.288E-01
   7.610  0.342E-01  0.342E-01
   7.620  0.409E-01  0.409E-01
   7.630  0.478E-01  0.478E-01
   7.640  0.539E-01  0.539E-01
   7.650  0.582E-01  0.582E-01
   7.660  0.600E-01  0.600E-01
   7.670  0.592E-01  0.592E-01
   7.680  0.560E-01  0.560E-01
   7.690  0.516E-01  0.516E-01
   7.700  0.472E-01  0.472E-01
   7.710  0.445E-01  0.445E-01
   7.720  0.447E-01  0.447E-01
   7.730  0.487E-01  0.487E-01
   7.740  0.566E-01  0.566E-01
   7.750  0.677E-01  0.677E-01
   7.760  0.804E-01  0.804E-01
   7.770  0.928E-01  0.928E-01
   7.780  0.103E+00  0.103E+00
   7.790  0.108E+00  0.108E+00
   7.800  0.109E+00  0.109E+00
   7.810  0.105E+00  0.105E+00
   7.820  0.958E-01  0.958E-01
   7.830  0.844E-01  0.844E-01
   7.840  0.722E-01  0.722E-01
   7.850  0.608E-01  0.608E-01
   7.860  0.515E-01  0.515E-01
   7.870  0.445E-01  0.445E-01
   7.880  0.400E-01  0.400E-01
   7.890  0.376E-01  0.376E-01
   7.900  0.370E-01  0.370E-01
   7.910  0.383E-01  0.383E-01
   7.920  0.421E-01  0.421E-01
   7.930  0.490E-01  0.490E-01
   7.940  0.599E-01  0.599E-01
   7.950  0.753E-01  0.753E-01
   7.960  0.948E-01  0.948E-01
   7.970  0.117E+00  0.117E+00
   7.980  0.141E+00  0.141E+00
   7.990  0.162E+00  0.162E+00
   8.000  0.178E+00  0.178E+00
   8.010  0.186E+00  0.186E+00
   8.020  0.185E+00  0.185E+00
   8.030  0.173E+00  0.173E+00
   8.040  0.152E+00  0.152E+00
   8.050  0.125E+00  0.125E+00
   8.060  0.947E-01  0.947E-01
   8.070  0.643E-01  0.643E-01
   8.080  0.370E-01  0.370E-01
   8.090  0.149E-01  0.149E-01
   8.100 -0.838E-03 -0.838E-03
   8.110 -0.101E-01 -0.101E-01
   8.120 -0.134E-01 -0.134E-01
   8.130 -0.118E-01 -0.118E-01
   8.140 -0.664E-02 -0.664E-02
   8.150  0.112E-02  0.112E-02
   8.160  0.104E-01  0.104E-01
   8.170  0.203E-01  0.203E-01
   8.180  0.298E-01  0.298E-01
   8.190  0.383E-01  0.383E-01
   8.200  0.448E-01  0.448E-01
   8.210  0.487E-01  0.487E-01
   8.220  0.496E-01  0.496E-01
   8.230  0.477E-01  0.477E-01
   8.240  0.434E-01  0.434E-01
   8.250  0.378E-01  0.378E-01
   8.260  0.320E-01  0.320E-01
   8.270  0.273E-01  0.273E-01
   8.280  0.247E-01  0.247E-01
   8.290  0.248E-01  0.248E-01
   8.300  0.277E-01  0.277E-01
   8.310  0.327E-01  0.327E-01
   8.320  0.391E-01  0.391E-01
   8.330  0.455E-01  0.455E-01
   8.340  0.507E-01  0.507E-01
   8.350  0.536E-01  0.536E-01
   8.360  0.535E-01  0.535E-01
   8.370  0.501E-01  0.501E-01
   8.380  0.440E-01  0.440E-01
   8.390  0.358E-01  0.358E-01
   8.400  0.268E-01  0.268E-01
   8.410  0.184E-01  0.184E-01
   8.420  0.118E-01  0.118E-01
   8.430  0.784E-02  0.784E-02
   8.440  0.731E-02  0.731E-02
   8.450  0.104E-01  0.104E-01
   8.460  0.171E-01  0.171E-01
   8.470  0.270E-01  0.270E-01
   8.480  0.393E-01  0.393E-01
   8.490  0.530E-01  0.530E-01
   8.500  0.668E-01  0.668E-01
   8.510  0.792E-01  0.792E-01
   8.520  0.888E-01  0.888E-01
   8.530  0.942E-01  0.942E-01
   8.540  0.947E-01  0.947E-01
   8.550  0.904E-01  0.904E-01
   8.560  0.822E-01  0.822E-01
   8.570  0.715E-01  0.715E-01
   8.580  0.606E-01  0.606E-01
   8.590  0.517E-01  0.517E-01
   8.600  0.466E-01  0.466E-01
   8.610  0.464E-01  0.464E-01
   8.620  0.513E-01  0.513E-01
   8.630  0.606E-01  0.606E-01
   8.640  0.728E-01  0.728E-01
   8.650  0.861E-01  0.861E-01
   8.660  0.986E-01  0.986E-01
   8.670  0.109E+00  0.109E+00
   8.680  0.117E+00  0.117E+00
   8.690  0.121E+00  0.121E+00
   8.700  0.123E+00  0.123E+00
   8.710  0.123E+00  0.123E+00
   8.720  0.122E+00  0.122E+00
   8.730  0.119E+00  0.119E+00
   8.740  0.116E+00  0.116E+00
   8.750  0.111E+00  0.111E+00
   8.760  0.104E+00  0.104E+00
   8.770  0.961E-01  0.961E-01
   8.780  0.868E-01  0.868E-01
   8.790  0.768E-01  0.768E-01
   8.800  0.667E-01  0.667E-01
   8.810  0.568E-01  0.568E-01
   8.820  0.474E-01  0.474E-01
   8.830  0.386E-01  0.386E-01
   8.840  0.303E-01  0.303E-01
   8.850  0.226E-01  0.226E-01
   8.860  0.155E-01  0.155E-01
   8.870  0.920E-02  0.920E-02
   8.880  0.408E-02  0.408E-02
   8.890  0.264E-03  0.264E-03
   8.900 -0.219E-02 -0.219E-02
   8.910 -0.340E-02 -0.340E-02
   8.920 -0.360E-02 -0.360E-02
   8.930 -0.304E-02 -0.304E-02
   8.940 -0.196E-02 -0.196E-02
   8.950 -0.514E-03 -0.514E-03
   8.960  0.123E-02  0.123E-02
   8.970  0.326E-02  0.326E-02
   8.980  0.555E-02  0.555E-02
   8.990  0.808E-02  0.808E-02
   9.000  0.107E-01  0.107E-01
   9.010  0.133E-01  0.133E-01
   9.020  0.157E-01  0.157E-01
   9.030  0.178E-01  0.178E-01
   9.040  0.195E-01  0.195E-01
   9.050  0.210E-01  0.210E-01
   9.060  0.227E-01  0.227E-01
   9.070  0.249E-01  0.249E-01
   9.080  0.280E-01  0.280E-01
   9.090  0.323E-01  0.323E-01
   9.100  0.378E-01  0.378E-01
   9.110  0.441E-01  0.441E-01
   9.120  0.506E-01  0.506E-01
   9.130  0.566E-01  0.566E-01
   9.140  0.613E-01  0.613E-01
   9.150  0.644E-01  0.644E-01
   9.160  0.656E-01  0.656E-01
   9.170  0.654E-01  0.654E-01
   9.180  0.645E-01  0.645E-01
   9.190  0.635E-01  0.635E-01
   9.200  0.634E-01  0.634E-01
   9.210  0.646E-01  0.646E-01
   9.220  0.675E-01  0.675E-01
   9.230  0.723E-01  0.723E-01
   9.240  0.789E-01  0.789E-01
   9.250  0.873E-01  0.873E-01
   9.260  0.973E-01  0.973E-01
   9.270  0.108E+00  0.108E+00
   9.280  0.119E+00  0.119E+00
   9.290  0.129E+00  0.129E+00
   9.300  0.137E+00  0.137E+00
   9.310  0.140E+00  0.140E+00
   9.320  0.138E+00  0.138E+00
   9.330  0.131E+00  0.131E+00
   9.340  0.120E+00  0.120E+00
   9.350  0.105E+00  0.105E+00
   9.360  0.874E-01  0.874E-01
   9.370  0.697E-01  0.697E-01
   9.380  0.528E-01  0.528E-01
   9.390  0.376E-01  0.376E-01
   9.400  0.246E-01  0.246E-01
   9.410  0.141E-01  0.141E-01
   9.420  0.619E-02  0.619E-02
   9.430  0.753E-03  0.753E-03
   9.440 -0.226E-02 -0.226E-02
   9.450 -0.300E-02 -0.300E-02
   9.460 -0.175E-02 -0.175E-02
   9.470  0.107E-02  0.107E-02
   9.480  0.490E-02  0.490E-02
   9.490  0.911E-02  0.911E-02
   9.500  0.130E-01  0.130E-01
   9.510  0.161E-01  0.161E-01
   9.520  0.179E-01  0.179E-01
   9.530  0.183E-01  0.183E-01
   9.540  0.171E-01  0.171E-01
   9.550  0.147E-01  0.147E-01
   9.560  0.115E-01  0.115E-01
   9.570  0.800E-02  0.800E-02
   9.580  0.462E-02  0.462E-02
   9.590  0.178E-02  0.178E-02
   9.600 -0.316E-03 -0.316E-03
   9.610 -0.157E-02 -0.157E-02
   9.620 -0.204E-02 -0.204E-02
   9.630 -0.181E-02 -0.181E-02
   9.640 -0.102E-02 -0.102E-02
   9.650  0.258E-03  0.258E-03
   9.660  0.198E-02  0.198E-02
   9.670  0.414E-02  0.414E-02
   9.680  0.676E-02  0.676E-02
   9.690  0.982E-02  0.982E-02
   9.700  0.133E-01  0.133E-01
   9.710  0.169E-01  0.169E-01
   9.720  0.207E-01  0.207E-01
   9.730  0.243E-01  0.243E-01
   9.740  0.278E-01  0.278E-01
   9.750  0.311E-01  0.311E-01
   9.760  0.345E-01  0.345E-01
   9.770  0.382E-01  0.382E-01
   9.780  0.425E-01  0.425E-01
   9.790  0.477E-01  0.477E-01
   9.800  0.534E-01  0.534E-01
   9.810  0.592E-01  0.592E-01
   9.820  0.641E-01  0.641E-01
   9.830  0.671E-01  0.671E-01
   9.840  0.672E-01  0.672E-01
   9.850  0.638E-01  0.638E-01
   9.860  0.569E-01  0.569E-01
   9.870  0.471E-01  0.471E-01
   9.880  0.355E-01  0.355E-01
   9.890  0.236E-01  0.236E-01
   9.900  0.127E-01  0.127E-01
   9.910  0.385E-02  0.385E-02
   9.920 -0.235E-02 -0.235E-02
   9.930 -0.573E-02 -0.573E-02
   9.940 -0.650E-02 -0.650E-02
   9.950 -0.506E-02 -0.506E-02
   9.960 -0.186E-02 -0.186E-02
   9.970  0.272E-02  0.272E-02
   9.980  0.840E-02  0.840E-02
   9.990  0.149E-01  0.149E-01
  10.000  0.220E-01  0.220E-01
  10.010  0.292E-01  0.292E-01
  10.020  0.360E-01  0.360E-01
  10.030  0.416E-01  0.416E-01
  10.040  0.454E-01  0.454E-01
  10.050  0.467E-01  0.467E-01
  10.060  0.454E-01  0.454E-01
  10.070  0.415E-01  0.415E-01
  10.080  0.358E-01  0.358E-01
  10.090  0.293E-01  0.293E-01
  10.100  0.232E-01  0.232E-01
  10.110  0.186E-01  0.186E-01
  10.120  0.165E-01  0.165E-01
  10.130  0.173E-01  0.173E-01
  10.140  0.211E-01  0.211E-01
  10.150  0.272E-01  0.272E-01
  10.160  0.346E-01  0.346E-01
  10.170  0.420E-01  0.420E-01
  10.180  0.481E-01  0.481E-01
  10.190  0.517E-01  0.517E-01
  10.200  0.520E-01  0.520E-01
  10.210  0.489E-01  0.489E-01
  10.220  0.427E-01  0.427E-01
  10.230  0.343E-01  0.343E-01
  10.240  0.247E-01  0.247E-01
  10.250  0.154E-01  0.154E-01
  10.260  0.728E-02  0.728E-02
  10.270  0.113E-02  0.113E-02
  10.280 -0.271E-02 -0.271E-02
  10.290 -0.423E-02 -0.423E-02
  10.300 -0.369E-02 -0.369E-02
  10.310 -0.141E-02 -0.141E-02
  10.320  0.225E-02  0.225E-02
  10.330  0.700E-02  0.700E-02
  10.340  0.126E-01  0.126E-01
  10.350  0.187E-01  0.187E-01
  10.360  0.250E-01  0.250E-01
  10.370  0.312E-01  0.312E-01
  10.380  0.366E-01  0.366E-01
  10.390  0.407E-01  0.407E-01
  10.400  0.432E-01  0.432E-01
  10.410  0.438E-01  0.438E-01
  10.420  0.423E-01  0.423E-01
  10.430  0.391E-01  0.391E-01
  10.440  0.344E-01  0.344E-01
  10.450  0.287E-01  0.287E-01
  10.460  0.227E-01  0.227E-01
  10.470  0.168E-01  0.168E-01
  10.480  0.113E-01  0.113E-01
  10.490  0.656E-02  0.656E-02
  10.500  0.273E-02  0.273E-02
  10.510 -0.140E-03 -0.140E-03
  10.520 -0.208E-02 -0.208E-02
  10.530 -0.318E-02 -0.318E-02
  10.540 -0.360E-02 -0.360E-02
  10.550 -0.352E-02 -0.352E-02
  10.560 -0.312E-02 -0.312E-02
  10.570 -0.256E-02 -0.256E-02
  10.580 -0.196E-02 -0.196E-02
  10.590 -0.142E-02 -0.142E-02
  10.600 -0.968E-03 -0.968E-03
  10.610 -0.627E-03 -0.627E-03
  10.620 -0.385E-03 -0.385E-03
  10.630 -0.225E-03 -0.225E-03
  10.640 -0.125E-03 -0.125E-03
  10.650 -0.664E-04 -0.664E-04
  10.660 -0.335E-04 -0.335E-04
  10.670 -0.161E-04 -0.161E-04
  10.680 -0.741E-05 -0.741E-05
  10.690 -0.325E-05 -0.325E-05
  10.700 -0.136E-05 -0.136E-05
  10.710 -0.543E-06 -0.543E-06
  10.720 -0.207E-06 -0.207E-06
  10.730 -0.756E-07 -0.756E-07
  10.740 -0.263E-07 -0.263E-07
  10.750 -0.875E-08 -0.875E-08
  10.760 -0.279E-08 -0.279E-08
  10.770 -0.848E-09 -0.848E-09
  10.780 -0.246E-09 -0.246E-09
  10.790  0.379E-12  0.379E-12
  10.800 -0.258E-13 -0.258E-13
  10.810 -0.289E-12 -0.289E-12
  10.820 -0.424E-12 -0.424E-12
  10.830 -0.456E-12 -0.456E-12
  10.840 -0.421E-12 -0.421E-12
  10.850 -0.349E-12 -0.349E-12
  10.860 -0.267E-12 -0.267E-12
  10.870 -0.190E-12 -0.190E-12
  10.880 -0.127E-12 -0.127E-12
  10.890 -0.800E-13 -0.800E-13
  10.900 -0.477E-13 -0.477E-13
  10.910 -0.270E-13 -0.270E-13
