# E (eV)   ldos(E)   pdos(E)   
 -21.420  0.830E-07  0.830E-07
 -21.410  0.243E-06  0.243E-06
 -21.400  0.681E-06  0.681E-06
 -21.390  0.183E-05  0.183E-05
 -21.380  0.471E-05  0.471E-05
 -21.370  0.116E-04  0.116E-04
 -21.360  0.274E-04  0.274E-04
 -21.350  0.622E-04  0.622E-04
 -21.340  0.135E-03  0.135E-03
 -21.330  0.281E-03  0.281E-03
 -21.320  0.560E-03  0.560E-03
 -21.310  0.107E-02  0.107E-02
 -21.300  0.196E-02  0.196E-02
 -21.290  0.345E-02  0.345E-02
 -21.280  0.583E-02  0.583E-02
 -21.270  0.944E-02  0.944E-02
 -21.260  0.147E-01  0.147E-01
 -21.250  0.219E-01  0.219E-01
 -21.240  0.314E-01  0.314E-01
 -21.230  0.433E-01  0.433E-01
 -21.220  0.574E-01  0.574E-01
 -21.210  0.734E-01  0.734E-01
 -21.200  0.904E-01  0.904E-01
 -21.190  0.107E+00  0.107E+00
 -21.180  0.124E+00  0.124E+00
 -21.170  0.138E+00  0.138E+00
 -21.160  0.149E+00  0.149E+00
 -21.150  0.157E+00  0.157E+00
 -21.140  0.162E+00  0.162E+00
 -21.130  0.164E+00  0.164E+00
 -21.120  0.164E+00  0.164E+00
 -21.110  0.162E+00  0.162E+00
 -21.100  0.159E+00  0.159E+00
 -21.090  0.156E+00  0.156E+00
 -21.080  0.153E+00  0.153E+00
 -21.070  0.150E+00  0.150E+00
 -21.060  0.147E+00  0.147E+00
 -21.050  0.145E+00  0.145E+00
 -21.040  0.143E+00  0.143E+00
 -21.030  0.141E+00  0.141E+00
 -21.020  0.139E+00  0.139E+00
 -21.010  0.138E+00  0.138E+00
 -21.000  0.137E+00  0.137E+00
 -20.990  0.137E+00  0.137E+00
 -20.980  0.137E+00  0.137E+00
 -20.970  0.136E+00  0.136E+00
 -20.960  0.136E+00  0.136E+00
 -20.950  0.134E+00  0.134E+00
 -20.940  0.132E+00  0.132E+00
 -20.930  0.130E+00  0.130E+00
 -20.920  0.128E+00  0.128E+00
 -20.910  0.127E+00  0.127E+00
 -20.900  0.127E+00  0.127E+00
 -20.890  0.128E+00  0.128E+00
 -20.880  0.130E+00  0.130E+00
 -20.870  0.131E+00  0.131E+00
 -20.860  0.131E+00  0.131E+00
 -20.850  0.129E+00  0.129E+00
 -20.840  0.126E+00  0.126E+00
 -20.830  0.122E+00  0.122E+00
 -20.820  0.118E+00  0.118E+00
 -20.810  0.115E+00  0.115E+00
 -20.800  0.114E+00  0.114E+00
 -20.790  0.115E+00  0.115E+00
 -20.780  0.118E+00  0.118E+00
 -20.770  0.122E+00  0.122E+00
 -20.760  0.126E+00  0.126E+00
 -20.750  0.128E+00  0.128E+00
 -20.740  0.128E+00  0.128E+00
 -20.730  0.125E+00  0.125E+00
 -20.720  0.120E+00  0.120E+00
 -20.710  0.113E+00  0.113E+00
 -20.700  0.107E+00  0.107E+00
 -20.690  0.102E+00  0.102E+00
 -20.680  0.996E-01  0.996E-01
 -20.670  0.100E+00  0.100E+00
 -20.660  0.104E+00  0.104E+00
 -20.650  0.110E+00  0.110E+00
 -20.640  0.116E+00  0.116E+00
 -20.630  0.122E+00  0.122E+00
 -20.620  0.125E+00  0.125E+00
 -20.610  0.126E+00  0.126E+00
 -20.600  0.123E+00  0.123E+00
 -20.590  0.117E+00  0.117E+00
 -20.580  0.109E+00  0.109E+00
 -20.570  0.100E+00  0.100E+00
 -20.560  0.931E-01  0.931E-01
 -20.550  0.883E-01  0.883E-01
 -20.540  0.867E-01  0.867E-01
 -20.530  0.884E-01  0.884E-01
 -20.520  0.932E-01  0.932E-01
 -20.510  0.999E-01  0.999E-01
 -20.500  0.107E+00  0.107E+00
 -20.490  0.114E+00  0.114E+00
 -20.480  0.120E+00  0.120E+00
 -20.470  0.122E+00  0.122E+00
 -20.460  0.121E+00  0.121E+00
 -20.450  0.117E+00  0.117E+00
 -20.440  0.110E+00  0.110E+00
 -20.430  0.102E+00  0.102E+00
 -20.420  0.925E-01  0.925E-01
 -20.410  0.841E-01  0.841E-01
 -20.400  0.780E-01  0.780E-01
 -20.390  0.750E-01  0.750E-01
 -20.380  0.756E-01  0.756E-01
 -20.370  0.797E-01  0.797E-01
 -20.360  0.866E-01  0.866E-01
 -20.350  0.950E-01  0.950E-01
 -20.340  0.103E+00  0.103E+00
 -20.330  0.111E+00  0.111E+00
 -20.320  0.116E+00  0.116E+00
 -20.310  0.117E+00  0.117E+00
 -20.300  0.116E+00  0.116E+00
 -20.290  0.112E+00  0.112E+00
 -20.280  0.105E+00  0.105E+00
 -20.270  0.974E-01  0.974E-01
 -20.260  0.891E-01  0.891E-01
 -20.250  0.811E-01  0.811E-01
 -20.240  0.743E-01  0.743E-01
 -20.230  0.693E-01  0.693E-01
 -20.220  0.669E-01  0.669E-01
 -20.210  0.673E-01  0.673E-01
 -20.200  0.706E-01  0.706E-01
 -20.190  0.768E-01  0.768E-01
 -20.180  0.850E-01  0.850E-01
 -20.170  0.942E-01  0.942E-01
 -20.160  0.103E+00  0.103E+00
 -20.150  0.110E+00  0.110E+00
 -20.140  0.114E+00  0.114E+00
 -20.130  0.114E+00  0.114E+00
 -20.120  0.110E+00  0.110E+00
 -20.110  0.104E+00  0.104E+00
 -20.100  0.955E-01  0.955E-01
 -20.090  0.865E-01  0.865E-01
 -20.080  0.780E-01  0.780E-01
 -20.070  0.710E-01  0.710E-01
 -20.060  0.658E-01  0.658E-01
 -20.050  0.628E-01  0.628E-01
 -20.040  0.617E-01  0.617E-01
 -20.030  0.626E-01  0.626E-01
 -20.020  0.652E-01  0.652E-01
 -20.010  0.695E-01  0.695E-01
 -20.000  0.752E-01  0.752E-01
 -19.990  0.821E-01  0.821E-01
 -19.980  0.897E-01  0.897E-01
 -19.970  0.970E-01  0.970E-01
 -19.960  0.103E+00  0.103E+00
 -19.950  0.107E+00  0.107E+00
 -19.940  0.108E+00  0.108E+00
 -19.930  0.105E+00  0.105E+00
 -19.920  0.993E-01  0.993E-01
 -19.910  0.912E-01  0.912E-01
 -19.900  0.818E-01  0.818E-01
 -19.890  0.723E-01  0.723E-01
 -19.880  0.641E-01  0.641E-01
 -19.870  0.579E-01  0.579E-01
 -19.860  0.543E-01  0.543E-01
 -19.850  0.533E-01  0.533E-01
 -19.840  0.548E-01  0.548E-01
 -19.830  0.582E-01  0.582E-01
 -19.820  0.632E-01  0.632E-01
 -19.810  0.691E-01  0.691E-01
 -19.800  0.754E-01  0.754E-01
 -19.790  0.816E-01  0.816E-01
 -19.780  0.874E-01  0.874E-01
 -19.770  0.921E-01  0.921E-01
 -19.760  0.956E-01  0.956E-01
 -19.750  0.974E-01  0.974E-01
 -19.740  0.973E-01  0.973E-01
 -19.730  0.953E-01  0.953E-01
 -19.720  0.914E-01  0.914E-01
 -19.710  0.857E-01  0.857E-01
 -19.700  0.788E-01  0.788E-01
 -19.690  0.712E-01  0.712E-01
 -19.680  0.636E-01  0.636E-01
 -19.670  0.567E-01  0.567E-01
 -19.660  0.512E-01  0.512E-01
 -19.650  0.478E-01  0.478E-01
 -19.640  0.468E-01  0.468E-01
 -19.630  0.483E-01  0.483E-01
 -19.620  0.521E-01  0.521E-01
 -19.610  0.579E-01  0.579E-01
 -19.600  0.651E-01  0.651E-01
 -19.590  0.728E-01  0.728E-01
 -19.580  0.802E-01  0.802E-01
 -19.570  0.865E-01  0.865E-01
 -19.560  0.908E-01  0.908E-01
 -19.550  0.928E-01  0.928E-01
 -19.540  0.924E-01  0.924E-01
 -19.530  0.898E-01  0.898E-01
 -19.520  0.856E-01  0.856E-01
 -19.510  0.805E-01  0.805E-01
 -19.500  0.750E-01  0.750E-01
 -19.490  0.696E-01  0.696E-01
 -19.480  0.646E-01  0.646E-01
 -19.470  0.599E-01  0.599E-01
 -19.460  0.556E-01  0.556E-01
 -19.450  0.517E-01  0.517E-01
 -19.440  0.484E-01  0.484E-01
 -19.430  0.462E-01  0.462E-01
 -19.420  0.453E-01  0.453E-01
 -19.410  0.463E-01  0.463E-01
 -19.400  0.492E-01  0.492E-01
 -19.390  0.542E-01  0.542E-01
 -19.380  0.607E-01  0.607E-01
 -19.370  0.683E-01  0.683E-01
 -19.360  0.760E-01  0.760E-01
 -19.350  0.827E-01  0.827E-01
 -19.340  0.875E-01  0.875E-01
 -19.330  0.897E-01  0.897E-01
 -19.320  0.890E-01  0.890E-01
 -19.310  0.855E-01  0.855E-01
 -19.300  0.798E-01  0.798E-01
 -19.290  0.730E-01  0.730E-01
 -19.280  0.659E-01  0.659E-01
 -19.270  0.595E-01  0.595E-01
 -19.260  0.544E-01  0.544E-01
 -19.250  0.507E-01  0.507E-01
 -19.240  0.483E-01  0.483E-01
 -19.230  0.468E-01  0.468E-01
 -19.220  0.459E-01  0.459E-01
 -19.210  0.455E-01  0.455E-01
 -19.200  0.455E-01  0.455E-01
 -19.190  0.463E-01  0.463E-01
 -19.180  0.482E-01  0.482E-01
 -19.170  0.513E-01  0.513E-01
 -19.160  0.558E-01  0.558E-01
 -19.150  0.614E-01  0.614E-01
 -19.140  0.676E-01  0.676E-01
 -19.130  0.736E-01  0.736E-01
 -19.120  0.786E-01  0.786E-01
 -19.110  0.818E-01  0.818E-01
 -19.100  0.827E-01  0.827E-01
 -19.090  0.809E-01  0.809E-01
 -19.080  0.768E-01  0.768E-01
 -19.070  0.709E-01  0.709E-01
 -19.060  0.640E-01  0.640E-01
 -19.050  0.569E-01  0.569E-01
 -19.040  0.506E-01  0.506E-01
 -19.030  0.457E-01  0.457E-01
 -19.020  0.424E-01  0.424E-01
 -19.010  0.407E-01  0.407E-01
 -19.000  0.404E-01  0.404E-01
 -18.990  0.411E-01  0.411E-01
 -18.980  0.424E-01  0.424E-01
 -18.970  0.443E-01  0.443E-01
 -18.960  0.467E-01  0.467E-01
 -18.950  0.496E-01  0.496E-01
 -18.940  0.532E-01  0.532E-01
 -18.930  0.573E-01  0.573E-01
 -18.920  0.618E-01  0.618E-01
 -18.910  0.663E-01  0.663E-01
 -18.900  0.703E-01  0.703E-01
 -18.890  0.732E-01  0.732E-01
 -18.880  0.744E-01  0.744E-01
 -18.870  0.738E-01  0.738E-01
 -18.860  0.712E-01  0.712E-01
 -18.850  0.670E-01  0.670E-01
 -18.840  0.617E-01  0.617E-01
 -18.830  0.557E-01  0.557E-01
 -18.820  0.497E-01  0.497E-01
 -18.810  0.445E-01  0.445E-01
 -18.800  0.404E-01  0.404E-01
 -18.790  0.377E-01  0.377E-01
 -18.780  0.365E-01  0.365E-01
 -18.770  0.367E-01  0.367E-01
 -18.760  0.381E-01  0.381E-01
 -18.750  0.403E-01  0.403E-01
 -18.740  0.432E-01  0.432E-01
 -18.730  0.467E-01  0.467E-01
 -18.720  0.505E-01  0.505E-01
 -18.710  0.545E-01  0.545E-01
 -18.700  0.586E-01  0.586E-01
 -18.690  0.624E-01  0.624E-01
 -18.680  0.655E-01  0.655E-01
 -18.670  0.676E-01  0.676E-01
 -18.660  0.682E-01  0.682E-01
 -18.650  0.673E-01  0.673E-01
 -18.640  0.648E-01  0.648E-01
 -18.630  0.610E-01  0.610E-01
 -18.620  0.563E-01  0.563E-01
 -18.610  0.512E-01  0.512E-01
 -18.600  0.461E-01  0.461E-01
 -18.590  0.417E-01  0.417E-01
 -18.580  0.383E-01  0.383E-01
 -18.570  0.360E-01  0.360E-01
 -18.560  0.350E-01  0.350E-01
 -18.550  0.352E-01  0.352E-01
 -18.540  0.366E-01  0.366E-01
 -18.530  0.388E-01  0.388E-01
 -18.520  0.419E-01  0.419E-01
 -18.510  0.456E-01  0.456E-01
 -18.500  0.497E-01  0.497E-01
 -18.490  0.539E-01  0.539E-01
 -18.480  0.579E-01  0.579E-01
 -18.470  0.612E-01  0.612E-01
 -18.460  0.635E-01  0.635E-01
 -18.450  0.644E-01  0.644E-01
 -18.440  0.637E-01  0.637E-01
 -18.430  0.615E-01  0.615E-01
 -18.420  0.580E-01  0.580E-01
 -18.410  0.537E-01  0.537E-01
 -18.400  0.490E-01  0.490E-01
 -18.390  0.446E-01  0.446E-01
 -18.380  0.408E-01  0.408E-01
 -18.370  0.379E-01  0.379E-01
 -18.360  0.361E-01  0.361E-01
 -18.350  0.355E-01  0.355E-01
 -18.340  0.360E-01  0.360E-01
 -18.330  0.377E-01  0.377E-01
 -18.320  0.405E-01  0.405E-01
 -18.310  0.443E-01  0.443E-01
 -18.300  0.487E-01  0.487E-01
 -18.290  0.536E-01  0.536E-01
 -18.280  0.584E-01  0.584E-01
 -18.270  0.626E-01  0.626E-01
 -18.260  0.657E-01  0.657E-01
 -18.250  0.675E-01  0.675E-01
 -18.240  0.677E-01  0.677E-01
 -18.230  0.664E-01  0.664E-01
 -18.220  0.638E-01  0.638E-01
 -18.210  0.604E-01  0.604E-01
 -18.200  0.566E-01  0.566E-01
 -18.190  0.529E-01  0.529E-01
 -18.180  0.497E-01  0.497E-01
 -18.170  0.473E-01  0.473E-01
 -18.160  0.460E-01  0.460E-01
 -18.150  0.458E-01  0.458E-01
 -18.140  0.467E-01  0.467E-01
 -18.130  0.485E-01  0.485E-01
 -18.120  0.507E-01  0.507E-01
 -18.110  0.528E-01  0.528E-01
 -18.100  0.541E-01  0.541E-01
 -18.090  0.540E-01  0.540E-01
 -18.080  0.521E-01  0.521E-01
 -18.070  0.482E-01  0.482E-01
 -18.060  0.428E-01  0.428E-01
 -18.050  0.364E-01  0.364E-01
 -18.040  0.298E-01  0.298E-01
 -18.030  0.239E-01  0.239E-01
 -18.020  0.193E-01  0.193E-01
 -18.010  0.166E-01  0.166E-01
 -18.000  0.157E-01  0.157E-01
 -17.990  0.163E-01  0.163E-01
 -17.980  0.180E-01  0.180E-01
 -17.970  0.203E-01  0.203E-01
 -17.960  0.224E-01  0.224E-01
 -17.950  0.239E-01  0.239E-01
 -17.940  0.246E-01  0.246E-01
 -17.930  0.243E-01  0.243E-01
 -17.920  0.229E-01  0.229E-01
 -17.910  0.209E-01  0.209E-01
 -17.900  0.184E-01  0.184E-01
 -17.890  0.159E-01  0.159E-01
 -17.880  0.136E-01  0.136E-01
 -17.870  0.118E-01  0.118E-01
 -17.860  0.107E-01  0.107E-01
 -17.850  0.102E-01  0.102E-01
 -17.840  0.102E-01  0.102E-01
 -17.830  0.104E-01  0.104E-01
 -17.820  0.108E-01  0.108E-01
 -17.810  0.110E-01  0.110E-01
 -17.800  0.109E-01  0.109E-01
 -17.790  0.105E-01  0.105E-01
 -17.780  0.979E-02  0.979E-02
 -17.770  0.888E-02  0.888E-02
 -17.760  0.788E-02  0.788E-02
 -17.750  0.691E-02  0.691E-02
 -17.740  0.606E-02  0.606E-02
 -17.730  0.539E-02  0.539E-02
 -17.720  0.488E-02  0.488E-02
 -17.710  0.449E-02  0.449E-02
 -17.700  0.418E-02  0.418E-02
 -17.690  0.387E-02  0.387E-02
 -17.680  0.353E-02  0.353E-02
 -17.670  0.314E-02  0.314E-02
 -17.660  0.270E-02  0.270E-02
 -17.650  0.224E-02  0.224E-02
 -17.640  0.178E-02  0.178E-02
 -17.630  0.135E-02  0.135E-02
 -17.620  0.963E-03  0.963E-03
 -17.610  0.637E-03  0.637E-03
 -17.600  0.370E-03  0.370E-03
 -17.590  0.158E-03  0.158E-03
 -17.580 -0.354E-05 -0.354E-05
 -17.570 -0.119E-03 -0.119E-03
 -17.560 -0.194E-03 -0.194E-03
 -17.550 -0.234E-03 -0.234E-03
 -17.540 -0.245E-03 -0.245E-03
 -17.530 -0.233E-03 -0.233E-03
 -17.520 -0.207E-03 -0.207E-03
 -17.510 -0.173E-03 -0.173E-03
 -17.500 -0.136E-03 -0.136E-03
 -17.490 -0.102E-03 -0.102E-03
 -17.480 -0.730E-04 -0.730E-04
 -17.470 -0.498E-04 -0.498E-04
 -17.460 -0.325E-04 -0.325E-04
 -17.450 -0.203E-04 -0.203E-04
 -17.440 -0.121E-04 -0.121E-04
 -17.430 -0.693E-05 -0.693E-05
 -17.420 -0.380E-05 -0.380E-05
 -17.410 -0.200E-05 -0.200E-05
 -17.400 -0.101E-05 -0.101E-05
 -17.390 -0.489E-06 -0.489E-06
 -17.380 -0.227E-06 -0.227E-06
 -17.370 -0.101E-06 -0.101E-06
 -17.360 -0.434E-07 -0.434E-07
 -17.350 -0.178E-07 -0.178E-07
 -17.340 -0.701E-08 -0.701E-08
 -17.330 -0.265E-08 -0.265E-08
 -17.320 -0.959E-09 -0.959E-09
 -17.310 -0.331E-09 -0.331E-09
 -17.300 -0.110E-09 -0.110E-09
 -17.290 -0.322E-10 -0.322E-10
 -17.280 -0.999E-11 -0.999E-11
 -17.270 -0.297E-11 -0.297E-11
 -17.260 -0.580E-12 -0.580E-12
 -17.250  0.000E+00  0.000E+00
 -17.240  0.000E+00  0.000E+00
 -17.230  0.000E+00  0.000E+00
 -17.220  0.000E+00  0.000E+00
 -17.210  0.000E+00  0.000E+00
 -17.200  0.000E+00  0.000E+00
 -17.190  0.000E+00  0.000E+00
 -17.180  0.000E+00  0.000E+00
 -17.170  0.000E+00  0.000E+00
 -17.160  0.000E+00  0.000E+00
 -17.150  0.000E+00  0.000E+00
 -17.140  0.000E+00  0.000E+00
 -17.130  0.000E+00  0.000E+00
 -17.120  0.000E+00  0.000E+00
 -17.110  0.000E+00  0.000E+00
 -17.100  0.000E+00  0.000E+00
 -17.090  0.000E+00  0.000E+00
 -17.080  0.000E+00  0.000E+00
 -17.070  0.000E+00  0.000E+00
 -17.060  0.000E+00  0.000E+00
 -17.050  0.000E+00  0.000E+00
 -17.040  0.000E+00  0.000E+00
 -17.030  0.000E+00  0.000E+00
 -17.020  0.000E+00  0.000E+00
 -17.010  0.000E+00  0.000E+00
 -17.000  0.000E+00  0.000E+00
 -16.990  0.000E+00  0.000E+00
 -16.980  0.000E+00  0.000E+00
 -16.970  0.000E+00  0.000E+00
 -16.960  0.000E+00  0.000E+00
 -16.950  0.000E+00  0.000E+00
 -16.940  0.000E+00  0.000E+00
 -16.930  0.000E+00  0.000E+00
 -16.920  0.000E+00  0.000E+00
 -16.910  0.000E+00  0.000E+00
 -16.900  0.000E+00  0.000E+00
 -16.890  0.000E+00  0.000E+00
 -16.880  0.000E+00  0.000E+00
 -16.870  0.000E+00  0.000E+00
 -16.860  0.000E+00  0.000E+00
 -16.850  0.000E+00  0.000E+00
 -16.840  0.000E+00  0.000E+00
 -16.830  0.000E+00  0.000E+00
 -16.820  0.000E+00  0.000E+00
 -16.810  0.000E+00  0.000E+00
 -16.800  0.000E+00  0.000E+00
 -16.790  0.000E+00  0.000E+00
 -16.780  0.000E+00  0.000E+00
 -16.770  0.000E+00  0.000E+00
 -16.760  0.000E+00  0.000E+00
 -16.750  0.000E+00  0.000E+00
 -16.740  0.000E+00  0.000E+00
 -16.730  0.000E+00  0.000E+00
 -16.720  0.000E+00  0.000E+00
 -16.710  0.000E+00  0.000E+00
 -16.700  0.000E+00  0.000E+00
 -16.690  0.000E+00  0.000E+00
 -16.680  0.000E+00  0.000E+00
 -16.670  0.000E+00  0.000E+00
 -16.660  0.000E+00  0.000E+00
 -16.650  0.000E+00  0.000E+00
 -16.640  0.000E+00  0.000E+00
 -16.630  0.000E+00  0.000E+00
 -16.620  0.000E+00  0.000E+00
 -16.610  0.000E+00  0.000E+00
 -16.600  0.000E+00  0.000E+00
 -16.590  0.000E+00  0.000E+00
 -16.580  0.000E+00  0.000E+00
 -16.570  0.000E+00  0.000E+00
 -16.560  0.000E+00  0.000E+00
 -16.550  0.000E+00  0.000E+00
 -16.540  0.000E+00  0.000E+00
 -16.530  0.000E+00  0.000E+00
 -16.520  0.000E+00  0.000E+00
 -16.510  0.000E+00  0.000E+00
 -16.500  0.000E+00  0.000E+00
 -16.490  0.000E+00  0.000E+00
 -16.480  0.000E+00  0.000E+00
 -16.470  0.000E+00  0.000E+00
 -16.460  0.000E+00  0.000E+00
 -16.450  0.000E+00  0.000E+00
 -16.440  0.000E+00  0.000E+00
 -16.430  0.000E+00  0.000E+00
 -16.420  0.000E+00  0.000E+00
 -16.410  0.000E+00  0.000E+00
 -16.400  0.000E+00  0.000E+00
 -16.390  0.000E+00  0.000E+00
 -16.380  0.000E+00  0.000E+00
 -16.370  0.000E+00  0.000E+00
 -16.360  0.000E+00  0.000E+00
 -16.350  0.000E+00  0.000E+00
 -16.340  0.000E+00  0.000E+00
 -16.330  0.000E+00  0.000E+00
 -16.320  0.000E+00  0.000E+00
 -16.310  0.000E+00  0.000E+00
 -16.300  0.000E+00  0.000E+00
 -16.290  0.000E+00  0.000E+00
 -16.280  0.000E+00  0.000E+00
 -16.270  0.000E+00  0.000E+00
 -16.260  0.000E+00  0.000E+00
 -16.250  0.000E+00  0.000E+00
 -16.240  0.000E+00  0.000E+00
 -16.230  0.000E+00  0.000E+00
 -16.220  0.000E+00  0.000E+00
 -16.210  0.000E+00  0.000E+00
 -16.200  0.000E+00  0.000E+00
 -16.190  0.000E+00  0.000E+00
 -16.180  0.000E+00  0.000E+00
 -16.170  0.000E+00  0.000E+00
 -16.160  0.000E+00  0.000E+00
 -16.150  0.000E+00  0.000E+00
 -16.140  0.000E+00  0.000E+00
 -16.130  0.000E+00  0.000E+00
 -16.120  0.000E+00  0.000E+00
 -16.110  0.000E+00  0.000E+00
 -16.100  0.000E+00  0.000E+00
 -16.090  0.000E+00  0.000E+00
 -16.080  0.000E+00  0.000E+00
 -16.070  0.000E+00  0.000E+00
 -16.060  0.000E+00  0.000E+00
 -16.050  0.000E+00  0.000E+00
 -16.040  0.000E+00  0.000E+00
 -16.030  0.000E+00  0.000E+00
 -16.020  0.000E+00  0.000E+00
 -16.010  0.000E+00  0.000E+00
 -16.000  0.000E+00  0.000E+00
 -15.990  0.000E+00  0.000E+00
 -15.980  0.000E+00  0.000E+00
 -15.970  0.000E+00  0.000E+00
 -15.960  0.000E+00  0.000E+00
 -15.950  0.000E+00  0.000E+00
 -15.940  0.000E+00  0.000E+00
 -15.930  0.000E+00  0.000E+00
 -15.920  0.000E+00  0.000E+00
 -15.910  0.000E+00  0.000E+00
 -15.900  0.000E+00  0.000E+00
 -15.890  0.000E+00  0.000E+00
 -15.880  0.000E+00  0.000E+00
 -15.870  0.000E+00  0.000E+00
 -15.860  0.000E+00  0.000E+00
 -15.850  0.000E+00  0.000E+00
 -15.840  0.000E+00  0.000E+00
 -15.830  0.000E+00  0.000E+00
 -15.820  0.000E+00  0.000E+00
 -15.810  0.000E+00  0.000E+00
 -15.800  0.000E+00  0.000E+00
 -15.790  0.000E+00  0.000E+00
 -15.780  0.000E+00  0.000E+00
 -15.770  0.000E+00  0.000E+00
 -15.760  0.000E+00  0.000E+00
 -15.750  0.000E+00  0.000E+00
 -15.740  0.000E+00  0.000E+00
 -15.730  0.000E+00  0.000E+00
 -15.720  0.000E+00  0.000E+00
 -15.710  0.000E+00  0.000E+00
 -15.700  0.000E+00  0.000E+00
 -15.690  0.000E+00  0.000E+00
 -15.680  0.000E+00  0.000E+00
 -15.670  0.000E+00  0.000E+00
 -15.660  0.000E+00  0.000E+00
 -15.650  0.000E+00  0.000E+00
 -15.640  0.000E+00  0.000E+00
 -15.630  0.000E+00  0.000E+00
 -15.620  0.000E+00  0.000E+00
 -15.610  0.000E+00  0.000E+00
 -15.600  0.000E+00  0.000E+00
 -15.590  0.000E+00  0.000E+00
 -15.580  0.000E+00  0.000E+00
 -15.570  0.000E+00  0.000E+00
 -15.560  0.000E+00  0.000E+00
 -15.550  0.000E+00  0.000E+00
 -15.540  0.000E+00  0.000E+00
 -15.530  0.000E+00  0.000E+00
 -15.520  0.000E+00  0.000E+00
 -15.510  0.000E+00  0.000E+00
 -15.500  0.000E+00  0.000E+00
 -15.490  0.000E+00  0.000E+00
 -15.480  0.000E+00  0.000E+00
 -15.470  0.000E+00  0.000E+00
 -15.460  0.000E+00  0.000E+00
 -15.450  0.000E+00  0.000E+00
 -15.440  0.000E+00  0.000E+00
 -15.430  0.000E+00  0.000E+00
 -15.420  0.000E+00  0.000E+00
 -15.410  0.000E+00  0.000E+00
 -15.400  0.000E+00  0.000E+00
 -15.390  0.000E+00  0.000E+00
 -15.380  0.000E+00  0.000E+00
 -15.370  0.000E+00  0.000E+00
 -15.360  0.000E+00  0.000E+00
 -15.350  0.000E+00  0.000E+00
 -15.340  0.000E+00  0.000E+00
 -15.330  0.000E+00  0.000E+00
 -15.320  0.000E+00  0.000E+00
 -15.310  0.000E+00  0.000E+00
 -15.300  0.000E+00  0.000E+00
 -15.290  0.000E+00  0.000E+00
 -15.280  0.000E+00  0.000E+00
 -15.270  0.000E+00  0.000E+00
 -15.260  0.000E+00  0.000E+00
 -15.250  0.000E+00  0.000E+00
 -15.240  0.000E+00  0.000E+00
 -15.230  0.000E+00  0.000E+00
 -15.220  0.000E+00  0.000E+00
 -15.210  0.000E+00  0.000E+00
 -15.200  0.000E+00  0.000E+00
 -15.190  0.000E+00  0.000E+00
 -15.180  0.000E+00  0.000E+00
 -15.170  0.000E+00  0.000E+00
 -15.160  0.000E+00  0.000E+00
 -15.150  0.000E+00  0.000E+00
 -15.140  0.000E+00  0.000E+00
 -15.130  0.000E+00  0.000E+00
 -15.120  0.000E+00  0.000E+00
 -15.110  0.000E+00  0.000E+00
 -15.100  0.000E+00  0.000E+00
 -15.090  0.000E+00  0.000E+00
 -15.080  0.000E+00  0.000E+00
 -15.070  0.000E+00  0.000E+00
 -15.060  0.000E+00  0.000E+00
 -15.050  0.000E+00  0.000E+00
 -15.040  0.000E+00  0.000E+00
 -15.030  0.000E+00  0.000E+00
 -15.020  0.000E+00  0.000E+00
 -15.010  0.000E+00  0.000E+00
 -15.000  0.000E+00  0.000E+00
 -14.990  0.000E+00  0.000E+00
 -14.980  0.000E+00  0.000E+00
 -14.970  0.000E+00  0.000E+00
 -14.960  0.000E+00  0.000E+00
 -14.950  0.000E+00  0.000E+00
 -14.940  0.000E+00  0.000E+00
 -14.930  0.000E+00  0.000E+00
 -14.920  0.000E+00  0.000E+00
 -14.910  0.000E+00  0.000E+00
 -14.900  0.000E+00  0.000E+00
 -14.890  0.000E+00  0.000E+00
 -14.880  0.000E+00  0.000E+00
 -14.870  0.000E+00  0.000E+00
 -14.860  0.000E+00  0.000E+00
 -14.850  0.000E+00  0.000E+00
 -14.840  0.000E+00  0.000E+00
 -14.830  0.000E+00  0.000E+00
 -14.820  0.000E+00  0.000E+00
 -14.810  0.000E+00  0.000E+00
 -14.800  0.000E+00  0.000E+00
 -14.790  0.000E+00  0.000E+00
 -14.780  0.000E+00  0.000E+00
 -14.770  0.000E+00  0.000E+00
 -14.760  0.000E+00  0.000E+00
 -14.750  0.000E+00  0.000E+00
 -14.740  0.000E+00  0.000E+00
 -14.730  0.000E+00  0.000E+00
 -14.720  0.000E+00  0.000E+00
 -14.710  0.000E+00  0.000E+00
 -14.700  0.000E+00  0.000E+00
 -14.690  0.000E+00  0.000E+00
 -14.680  0.000E+00  0.000E+00
 -14.670  0.000E+00  0.000E+00
 -14.660  0.000E+00  0.000E+00
 -14.650  0.000E+00  0.000E+00
 -14.640  0.000E+00  0.000E+00
 -14.630  0.000E+00  0.000E+00
 -14.620  0.000E+00  0.000E+00
 -14.610  0.000E+00  0.000E+00
 -14.600  0.000E+00  0.000E+00
 -14.590  0.000E+00  0.000E+00
 -14.580  0.000E+00  0.000E+00
 -14.570  0.000E+00  0.000E+00
 -14.560  0.000E+00  0.000E+00
 -14.550  0.000E+00  0.000E+00
 -14.540  0.000E+00  0.000E+00
 -14.530  0.000E+00  0.000E+00
 -14.520  0.000E+00  0.000E+00
 -14.510  0.000E+00  0.000E+00
 -14.500  0.000E+00  0.000E+00
 -14.490  0.000E+00  0.000E+00
 -14.480  0.000E+00  0.000E+00
 -14.470  0.000E+00  0.000E+00
 -14.460  0.000E+00  0.000E+00
 -14.450  0.000E+00  0.000E+00
 -14.440  0.000E+00  0.000E+00
 -14.430  0.000E+00  0.000E+00
 -14.420  0.000E+00  0.000E+00
 -14.410  0.000E+00  0.000E+00
 -14.400  0.000E+00  0.000E+00
 -14.390  0.000E+00  0.000E+00
 -14.380  0.000E+00  0.000E+00
 -14.370  0.000E+00  0.000E+00
 -14.360  0.000E+00  0.000E+00
 -14.350  0.000E+00  0.000E+00
 -14.340  0.000E+00  0.000E+00
 -14.330  0.000E+00  0.000E+00
 -14.320  0.000E+00  0.000E+00
 -14.310  0.000E+00  0.000E+00
 -14.300  0.000E+00  0.000E+00
 -14.290  0.000E+00  0.000E+00
 -14.280  0.000E+00  0.000E+00
 -14.270  0.000E+00  0.000E+00
 -14.260  0.000E+00  0.000E+00
 -14.250  0.000E+00  0.000E+00
 -14.240  0.000E+00  0.000E+00
 -14.230  0.000E+00  0.000E+00
 -14.220  0.000E+00  0.000E+00
 -14.210  0.000E+00  0.000E+00
 -14.200  0.000E+00  0.000E+00
 -14.190  0.000E+00  0.000E+00
 -14.180  0.000E+00  0.000E+00
 -14.170  0.000E+00  0.000E+00
 -14.160  0.000E+00  0.000E+00
 -14.150  0.000E+00  0.000E+00
 -14.140  0.000E+00  0.000E+00
 -14.130  0.000E+00  0.000E+00
 -14.120  0.000E+00  0.000E+00
 -14.110  0.000E+00  0.000E+00
 -14.100  0.000E+00  0.000E+00
 -14.090  0.000E+00  0.000E+00
 -14.080  0.000E+00  0.000E+00
 -14.070  0.000E+00  0.000E+00
 -14.060  0.000E+00  0.000E+00
 -14.050  0.000E+00  0.000E+00
 -14.040  0.000E+00  0.000E+00
 -14.030  0.000E+00  0.000E+00
 -14.020  0.000E+00  0.000E+00
 -14.010  0.000E+00  0.000E+00
 -14.000  0.000E+00  0.000E+00
 -13.990  0.000E+00  0.000E+00
 -13.980  0.000E+00  0.000E+00
 -13.970  0.000E+00  0.000E+00
 -13.960  0.000E+00  0.000E+00
 -13.950  0.000E+00  0.000E+00
 -13.940  0.000E+00  0.000E+00
 -13.930  0.000E+00  0.000E+00
 -13.920  0.000E+00  0.000E+00
 -13.910  0.000E+00  0.000E+00
 -13.900  0.000E+00  0.000E+00
 -13.890  0.000E+00  0.000E+00
 -13.880  0.000E+00  0.000E+00
 -13.870  0.000E+00  0.000E+00
 -13.860  0.000E+00  0.000E+00
 -13.850  0.000E+00  0.000E+00
 -13.840  0.000E+00  0.000E+00
 -13.830  0.000E+00  0.000E+00
 -13.820  0.000E+00  0.000E+00
 -13.810  0.000E+00  0.000E+00
 -13.800  0.000E+00  0.000E+00
 -13.790  0.000E+00  0.000E+00
 -13.780  0.000E+00  0.000E+00
 -13.770  0.000E+00  0.000E+00
 -13.760  0.000E+00  0.000E+00
 -13.750  0.000E+00  0.000E+00
 -13.740  0.000E+00  0.000E+00
 -13.730  0.000E+00  0.000E+00
 -13.720  0.000E+00  0.000E+00
 -13.710  0.000E+00  0.000E+00
 -13.700  0.000E+00  0.000E+00
 -13.690  0.000E+00  0.000E+00
 -13.680  0.000E+00  0.000E+00
 -13.670  0.000E+00  0.000E+00
 -13.660  0.000E+00  0.000E+00
 -13.650  0.000E+00  0.000E+00
 -13.640  0.000E+00  0.000E+00
 -13.630  0.000E+00  0.000E+00
 -13.620  0.000E+00  0.000E+00
 -13.610  0.000E+00  0.000E+00
 -13.600  0.000E+00  0.000E+00
 -13.590  0.000E+00  0.000E+00
 -13.580  0.000E+00  0.000E+00
 -13.570  0.000E+00  0.000E+00
 -13.560  0.000E+00  0.000E+00
 -13.550  0.000E+00  0.000E+00
 -13.540  0.000E+00  0.000E+00
 -13.530  0.000E+00  0.000E+00
 -13.520  0.000E+00  0.000E+00
 -13.510  0.000E+00  0.000E+00
 -13.500  0.000E+00  0.000E+00
 -13.490  0.000E+00  0.000E+00
 -13.480  0.000E+00  0.000E+00
 -13.470  0.000E+00  0.000E+00
 -13.460  0.000E+00  0.000E+00
 -13.450  0.000E+00  0.000E+00
 -13.440  0.000E+00  0.000E+00
 -13.430  0.000E+00  0.000E+00
 -13.420  0.000E+00  0.000E+00
 -13.410  0.000E+00  0.000E+00
 -13.400  0.000E+00  0.000E+00
 -13.390  0.000E+00  0.000E+00
 -13.380  0.000E+00  0.000E+00
 -13.370  0.000E+00  0.000E+00
 -13.360  0.000E+00  0.000E+00
 -13.350  0.000E+00  0.000E+00
 -13.340  0.000E+00  0.000E+00
 -13.330  0.000E+00  0.000E+00
 -13.320  0.000E+00  0.000E+00
 -13.310  0.000E+00  0.000E+00
 -13.300  0.000E+00  0.000E+00
 -13.290  0.000E+00  0.000E+00
 -13.280  0.000E+00  0.000E+00
 -13.270  0.000E+00  0.000E+00
 -13.260  0.000E+00  0.000E+00
 -13.250  0.000E+00  0.000E+00
 -13.240  0.000E+00  0.000E+00
 -13.230  0.000E+00  0.000E+00
 -13.220  0.000E+00  0.000E+00
 -13.210  0.000E+00  0.000E+00
 -13.200  0.000E+00  0.000E+00
 -13.190  0.000E+00  0.000E+00
 -13.180  0.000E+00  0.000E+00
 -13.170  0.000E+00  0.000E+00
 -13.160  0.000E+00  0.000E+00
 -13.150  0.000E+00  0.000E+00
 -13.140  0.000E+00  0.000E+00
 -13.130  0.000E+00  0.000E+00
 -13.120  0.000E+00  0.000E+00
 -13.110  0.000E+00  0.000E+00
 -13.100  0.000E+00  0.000E+00
 -13.090  0.000E+00  0.000E+00
 -13.080  0.000E+00  0.000E+00
 -13.070  0.000E+00  0.000E+00
 -13.060  0.000E+00  0.000E+00
 -13.050  0.000E+00  0.000E+00
 -13.040  0.000E+00  0.000E+00
 -13.030  0.000E+00  0.000E+00
 -13.020  0.000E+00  0.000E+00
 -13.010  0.000E+00  0.000E+00
 -13.000  0.000E+00  0.000E+00
 -12.990  0.000E+00  0.000E+00
 -12.980  0.000E+00  0.000E+00
 -12.970  0.000E+00  0.000E+00
 -12.960  0.000E+00  0.000E+00
 -12.950  0.000E+00  0.000E+00
 -12.940  0.000E+00  0.000E+00
 -12.930  0.000E+00  0.000E+00
 -12.920  0.000E+00  0.000E+00
 -12.910  0.000E+00  0.000E+00
 -12.900  0.000E+00  0.000E+00
 -12.890  0.000E+00  0.000E+00
 -12.880  0.000E+00  0.000E+00
 -12.870  0.000E+00  0.000E+00
 -12.860  0.000E+00  0.000E+00
 -12.850  0.000E+00  0.000E+00
 -12.840  0.000E+00  0.000E+00
 -12.830  0.000E+00  0.000E+00
 -12.820  0.517E-16  0.517E-16
 -12.810  0.280E-15  0.280E-15
 -12.800  0.163E-14  0.163E-14
 -12.790  0.828E-14  0.828E-14
 -12.780  0.398E-13  0.398E-13
 -12.770  0.184E-12  0.184E-12
 -12.760  0.811E-12  0.811E-12
 -12.750  0.343E-11  0.343E-11
 -12.740  0.139E-10  0.139E-10
 -12.730  0.541E-10  0.541E-10
 -12.720  0.202E-09  0.202E-09
 -12.710  0.721E-09  0.721E-09
 -12.700  0.247E-08  0.247E-08
 -12.690  0.811E-08  0.811E-08
 -12.680  0.255E-07  0.255E-07
 -12.670  0.770E-07  0.770E-07
 -12.660  0.223E-06  0.223E-06
 -12.650  0.619E-06  0.619E-06
 -12.640  0.165E-05  0.165E-05
 -12.630  0.420E-05  0.420E-05
 -12.620  0.103E-04  0.103E-04
 -12.610  0.241E-04  0.241E-04
 -12.600  0.543E-04  0.543E-04
 -12.590  0.117E-03  0.117E-03
 -12.580  0.243E-03  0.243E-03
 -12.570  0.482E-03  0.482E-03
 -12.560  0.919E-03  0.919E-03
 -12.550  0.168E-02  0.168E-02
 -12.540  0.294E-02  0.294E-02
 -12.530  0.495E-02  0.495E-02
 -12.520  0.798E-02  0.798E-02
 -12.510  0.124E-01  0.124E-01
 -12.500  0.184E-01  0.184E-01
 -12.490  0.262E-01  0.262E-01
 -12.480  0.360E-01  0.360E-01
 -12.470  0.476E-01  0.476E-01
 -12.460  0.606E-01  0.606E-01
 -12.450  0.744E-01  0.744E-01
 -12.440  0.882E-01  0.882E-01
 -12.430  0.101E+00  0.101E+00
 -12.420  0.113E+00  0.113E+00
 -12.410  0.123E+00  0.123E+00
 -12.400  0.130E+00  0.130E+00
 -12.390  0.134E+00  0.134E+00
 -12.380  0.137E+00  0.137E+00
 -12.370  0.137E+00  0.137E+00
 -12.360  0.135E+00  0.135E+00
 -12.350  0.133E+00  0.133E+00
 -12.340  0.130E+00  0.130E+00
 -12.330  0.127E+00  0.127E+00
 -12.320  0.125E+00  0.125E+00
 -12.310  0.124E+00  0.124E+00
 -12.300  0.125E+00  0.125E+00
 -12.290  0.126E+00  0.126E+00
 -12.280  0.128E+00  0.128E+00
 -12.270  0.129E+00  0.129E+00
 -12.260  0.129E+00  0.129E+00
 -12.250  0.127E+00  0.127E+00
 -12.240  0.124E+00  0.124E+00
 -12.230  0.120E+00  0.120E+00
 -12.220  0.116E+00  0.116E+00
 -12.210  0.112E+00  0.112E+00
 -12.200  0.110E+00  0.110E+00
 -12.190  0.110E+00  0.110E+00
 -12.180  0.113E+00  0.113E+00
 -12.170  0.117E+00  0.117E+00
 -12.160  0.123E+00  0.123E+00
 -12.150  0.128E+00  0.128E+00
 -12.140  0.133E+00  0.133E+00
 -12.130  0.136E+00  0.136E+00
 -12.120  0.136E+00  0.136E+00
 -12.110  0.133E+00  0.133E+00
 -12.100  0.127E+00  0.127E+00
 -12.090  0.119E+00  0.119E+00
 -12.080  0.111E+00  0.111E+00
 -12.070  0.102E+00  0.102E+00
 -12.060  0.962E-01  0.962E-01
 -12.050  0.932E-01  0.932E-01
 -12.040  0.941E-01  0.941E-01
 -12.030  0.989E-01  0.989E-01
 -12.020  0.107E+00  0.107E+00
 -12.010  0.118E+00  0.118E+00
 -12.000  0.129E+00  0.129E+00
 -11.990  0.139E+00  0.139E+00
 -11.980  0.145E+00  0.145E+00
 -11.970  0.148E+00  0.148E+00
 -11.960  0.145E+00  0.145E+00
 -11.950  0.137E+00  0.137E+00
 -11.940  0.126E+00  0.126E+00
 -11.930  0.113E+00  0.113E+00
 -11.920  0.100E+00  0.100E+00
 -11.910  0.899E-01  0.899E-01
 -11.900  0.831E-01  0.831E-01
 -11.890  0.808E-01  0.808E-01
 -11.880  0.830E-01  0.830E-01
 -11.870  0.892E-01  0.892E-01
 -11.860  0.984E-01  0.984E-01
 -11.850  0.109E+00  0.109E+00
 -11.840  0.120E+00  0.120E+00
 -11.830  0.130E+00  0.130E+00
 -11.820  0.138E+00  0.138E+00
 -11.810  0.143E+00  0.143E+00
 -11.800  0.145E+00  0.145E+00
 -11.790  0.143E+00  0.143E+00
 -11.780  0.137E+00  0.137E+00
 -11.770  0.129E+00  0.129E+00
 -11.760  0.118E+00  0.118E+00
 -11.750  0.106E+00  0.106E+00
 -11.740  0.948E-01  0.948E-01
 -11.730  0.857E-01  0.857E-01
 -11.720  0.801E-01  0.801E-01
 -11.710  0.789E-01  0.789E-01
 -11.700  0.822E-01  0.822E-01
 -11.690  0.898E-01  0.898E-01
 -11.680  0.101E+00  0.101E+00
 -11.670  0.113E+00  0.113E+00
 -11.660  0.125E+00  0.125E+00
 -11.650  0.136E+00  0.136E+00
 -11.640  0.143E+00  0.143E+00
 -11.630  0.146E+00  0.146E+00
 -11.620  0.146E+00  0.146E+00
 -11.610  0.142E+00  0.142E+00
 -11.600  0.136E+00  0.136E+00
 -11.590  0.129E+00  0.129E+00
 -11.580  0.122E+00  0.122E+00
 -11.570  0.115E+00  0.115E+00
 -11.560  0.109E+00  0.109E+00
 -11.550  0.103E+00  0.103E+00
 -11.540  0.973E-01  0.973E-01
 -11.530  0.919E-01  0.919E-01
 -11.520  0.871E-01  0.871E-01
 -11.510  0.833E-01  0.833E-01
 -11.500  0.810E-01  0.810E-01
 -11.490  0.803E-01  0.803E-01
 -11.480  0.813E-01  0.813E-01
 -11.470  0.834E-01  0.834E-01
 -11.460  0.861E-01  0.861E-01
 -11.450  0.886E-01  0.886E-01
 -11.440  0.903E-01  0.903E-01
 -11.430  0.908E-01  0.908E-01
 -11.420  0.902E-01  0.902E-01
 -11.410  0.883E-01  0.883E-01
 -11.400  0.855E-01  0.855E-01
 -11.390  0.819E-01  0.819E-01
 -11.380  0.775E-01  0.775E-01
 -11.370  0.725E-01  0.725E-01
 -11.360  0.668E-01  0.668E-01
 -11.350  0.608E-01  0.608E-01
 -11.340  0.547E-01  0.547E-01
 -11.330  0.493E-01  0.493E-01
 -11.320  0.451E-01  0.451E-01
 -11.310  0.428E-01  0.428E-01
 -11.300  0.431E-01  0.431E-01
 -11.290  0.460E-01  0.460E-01
 -11.280  0.514E-01  0.514E-01
 -11.270  0.586E-01  0.586E-01
 -11.260  0.667E-01  0.667E-01
 -11.250  0.745E-01  0.745E-01
 -11.240  0.809E-01  0.809E-01
 -11.230  0.849E-01  0.849E-01
 -11.220  0.860E-01  0.860E-01
 -11.210  0.842E-01  0.842E-01
 -11.200  0.799E-01  0.799E-01
 -11.190  0.737E-01  0.737E-01
 -11.180  0.667E-01  0.667E-01
 -11.170  0.597E-01  0.597E-01
 -11.160  0.533E-01  0.533E-01
 -11.150  0.481E-01  0.481E-01
 -11.140  0.442E-01  0.442E-01
 -11.130  0.416E-01  0.416E-01
 -11.120  0.401E-01  0.401E-01
 -11.110  0.392E-01  0.392E-01
 -11.100  0.388E-01  0.388E-01
 -11.090  0.386E-01  0.386E-01
 -11.080  0.388E-01  0.388E-01
 -11.070  0.395E-01  0.395E-01
 -11.060  0.412E-01  0.412E-01
 -11.050  0.443E-01  0.443E-01
 -11.040  0.487E-01  0.487E-01
 -11.030  0.545E-01  0.545E-01
 -11.020  0.611E-01  0.611E-01
 -11.010  0.678E-01  0.678E-01
 -11.000  0.737E-01  0.737E-01
 -10.990  0.778E-01  0.778E-01
 -10.980  0.797E-01  0.797E-01
 -10.970  0.788E-01  0.788E-01
 -10.960  0.754E-01  0.754E-01
 -10.950  0.696E-01  0.696E-01
 -10.940  0.621E-01  0.621E-01
 -10.930  0.535E-01  0.535E-01
 -10.920  0.444E-01  0.444E-01
 -10.910  0.353E-01  0.353E-01
 -10.900  0.269E-01  0.269E-01
 -10.890  0.196E-01  0.196E-01
 -10.880  0.139E-01  0.139E-01
 -10.870  0.104E-01  0.104E-01
 -10.860  0.946E-02  0.946E-02
 -10.850  0.115E-01  0.115E-01
 -10.840  0.167E-01  0.167E-01
 -10.830  0.250E-01  0.250E-01
 -10.820  0.361E-01  0.361E-01
 -10.810  0.494E-01  0.494E-01
 -10.800  0.639E-01  0.639E-01
 -10.790  0.784E-01  0.784E-01
 -10.780  0.917E-01  0.917E-01
 -10.770  0.102E+00  0.102E+00
 -10.760  0.110E+00  0.110E+00
 -10.750  0.112E+00  0.112E+00
 -10.740  0.110E+00  0.110E+00
 -10.730  0.103E+00  0.103E+00
 -10.720  0.930E-01  0.930E-01
 -10.710  0.801E-01  0.801E-01
 -10.700  0.663E-01  0.663E-01
 -10.690  0.530E-01  0.530E-01
 -10.680  0.418E-01  0.418E-01
 -10.670  0.336E-01  0.336E-01
 -10.660  0.293E-01  0.293E-01
 -10.650  0.289E-01  0.289E-01
 -10.640  0.322E-01  0.322E-01
 -10.630  0.386E-01  0.386E-01
 -10.620  0.474E-01  0.474E-01
 -10.610  0.577E-01  0.577E-01
 -10.600  0.688E-01  0.688E-01
 -10.590  0.799E-01  0.799E-01
 -10.580  0.901E-01  0.901E-01
 -10.570  0.985E-01  0.985E-01
 -10.560  0.104E+00  0.104E+00
 -10.550  0.107E+00  0.107E+00
 -10.540  0.106E+00  0.106E+00
 -10.530  0.102E+00  0.102E+00
 -10.520  0.939E-01  0.939E-01
 -10.510  0.841E-01  0.841E-01
 -10.500  0.734E-01  0.734E-01
 -10.490  0.636E-01  0.636E-01
 -10.480  0.559E-01  0.559E-01
 -10.470  0.514E-01  0.514E-01
 -10.460  0.503E-01  0.503E-01
 -10.450  0.522E-01  0.522E-01
 -10.440  0.561E-01  0.561E-01
 -10.430  0.608E-01  0.608E-01
 -10.420  0.648E-01  0.648E-01
 -10.410  0.673E-01  0.673E-01
 -10.400  0.681E-01  0.681E-01
 -10.390  0.675E-01  0.675E-01
 -10.380  0.665E-01  0.665E-01
 -10.370  0.661E-01  0.661E-01
 -10.360  0.672E-01  0.672E-01
 -10.350  0.701E-01  0.701E-01
 -10.340  0.747E-01  0.747E-01
 -10.330  0.801E-01  0.801E-01
 -10.320  0.850E-01  0.850E-01
 -10.310  0.882E-01  0.882E-01
 -10.300  0.886E-01  0.886E-01
 -10.290  0.856E-01  0.856E-01
 -10.280  0.793E-01  0.793E-01
 -10.270  0.706E-01  0.706E-01
 -10.260  0.607E-01  0.607E-01
 -10.250  0.513E-01  0.513E-01
 -10.240  0.438E-01  0.438E-01
 -10.230  0.393E-01  0.393E-01
 -10.220  0.384E-01  0.384E-01
 -10.210  0.409E-01  0.409E-01
 -10.200  0.461E-01  0.461E-01
 -10.190  0.530E-01  0.530E-01
 -10.180  0.603E-01  0.603E-01
 -10.170  0.670E-01  0.670E-01
 -10.160  0.722E-01  0.722E-01
 -10.150  0.757E-01  0.757E-01
 -10.140  0.775E-01  0.775E-01
 -10.130  0.780E-01  0.780E-01
 -10.120  0.781E-01  0.781E-01
 -10.110  0.785E-01  0.785E-01
 -10.100  0.798E-01  0.798E-01
 -10.090  0.823E-01  0.823E-01
 -10.080  0.859E-01  0.859E-01
 -10.070  0.899E-01  0.899E-01
 -10.060  0.931E-01  0.931E-01
 -10.050  0.945E-01  0.945E-01
 -10.040  0.929E-01  0.929E-01
 -10.030  0.878E-01  0.878E-01
 -10.020  0.793E-01  0.793E-01
 -10.010  0.682E-01  0.682E-01
 -10.000  0.558E-01  0.558E-01
  -9.990  0.437E-01  0.437E-01
  -9.980  0.334E-01  0.334E-01
  -9.970  0.259E-01  0.259E-01
  -9.960  0.218E-01  0.218E-01
  -9.950  0.213E-01  0.213E-01
  -9.940  0.237E-01  0.237E-01
  -9.930  0.284E-01  0.284E-01
  -9.920  0.345E-01  0.345E-01
  -9.910  0.414E-01  0.414E-01
  -9.900  0.482E-01  0.482E-01
  -9.890  0.548E-01  0.548E-01
  -9.880  0.609E-01  0.609E-01
  -9.870  0.666E-01  0.666E-01
  -9.860  0.721E-01  0.721E-01
  -9.850  0.777E-01  0.777E-01
  -9.840  0.835E-01  0.835E-01
  -9.830  0.893E-01  0.893E-01
  -9.820  0.949E-01  0.949E-01
  -9.810  0.995E-01  0.995E-01
  -9.800  0.103E+00  0.103E+00
  -9.790  0.104E+00  0.104E+00
  -9.780  0.102E+00  0.102E+00
  -9.770  0.986E-01  0.986E-01
  -9.760  0.928E-01  0.928E-01
  -9.750  0.854E-01  0.854E-01
  -9.740  0.770E-01  0.770E-01
  -9.730  0.681E-01  0.681E-01
  -9.720  0.590E-01  0.590E-01
  -9.710  0.500E-01  0.500E-01
  -9.700  0.413E-01  0.413E-01
  -9.690  0.330E-01  0.330E-01
  -9.680  0.257E-01  0.257E-01
  -9.670  0.197E-01  0.197E-01
  -9.660  0.159E-01  0.159E-01
  -9.650  0.146E-01  0.146E-01
  -9.640  0.161E-01  0.161E-01
  -9.630  0.206E-01  0.206E-01
  -9.620  0.274E-01  0.274E-01
  -9.610  0.360E-01  0.360E-01
  -9.600  0.456E-01  0.456E-01
  -9.590  0.553E-01  0.553E-01
  -9.580  0.645E-01  0.645E-01
  -9.570  0.726E-01  0.726E-01
  -9.560  0.793E-01  0.793E-01
  -9.550  0.845E-01  0.845E-01
  -9.540  0.882E-01  0.882E-01
  -9.530  0.902E-01  0.902E-01
  -9.520  0.906E-01  0.906E-01
  -9.510  0.895E-01  0.895E-01
  -9.500  0.870E-01  0.870E-01
  -9.490  0.834E-01  0.834E-01
  -9.480  0.791E-01  0.791E-01
  -9.470  0.747E-01  0.747E-01
  -9.460  0.704E-01  0.704E-01
  -9.450  0.666E-01  0.666E-01
  -9.440  0.633E-01  0.633E-01
  -9.430  0.604E-01  0.604E-01
  -9.420  0.577E-01  0.577E-01
  -9.410  0.549E-01  0.549E-01
  -9.400  0.520E-01  0.520E-01
  -9.390  0.488E-01  0.488E-01
  -9.380  0.454E-01  0.454E-01
  -9.370  0.419E-01  0.419E-01
  -9.360  0.388E-01  0.388E-01
  -9.350  0.362E-01  0.362E-01
  -9.340  0.346E-01  0.346E-01
  -9.330  0.342E-01  0.342E-01
  -9.320  0.352E-01  0.352E-01
  -9.310  0.378E-01  0.378E-01
  -9.300  0.416E-01  0.416E-01
  -9.290  0.465E-01  0.465E-01
  -9.280  0.520E-01  0.520E-01
  -9.270  0.575E-01  0.575E-01
  -9.260  0.626E-01  0.626E-01
  -9.250  0.667E-01  0.667E-01
  -9.240  0.697E-01  0.697E-01
  -9.230  0.713E-01  0.713E-01
  -9.220  0.717E-01  0.717E-01
  -9.210  0.708E-01  0.708E-01
  -9.200  0.690E-01  0.690E-01
  -9.190  0.665E-01  0.665E-01
  -9.180  0.634E-01  0.634E-01
  -9.170  0.601E-01  0.601E-01
  -9.160  0.568E-01  0.568E-01
  -9.150  0.537E-01  0.537E-01
  -9.140  0.511E-01  0.511E-01
  -9.130  0.493E-01  0.493E-01
  -9.120  0.482E-01  0.482E-01
  -9.110  0.478E-01  0.478E-01
  -9.100  0.482E-01  0.482E-01
  -9.090  0.490E-01  0.490E-01
  -9.080  0.503E-01  0.503E-01
  -9.070  0.521E-01  0.521E-01
  -9.060  0.542E-01  0.542E-01
  -9.050  0.566E-01  0.566E-01
  -9.040  0.593E-01  0.593E-01
  -9.030  0.620E-01  0.620E-01
  -9.020  0.640E-01  0.640E-01
  -9.010  0.650E-01  0.650E-01
  -9.000  0.643E-01  0.643E-01
  -8.990  0.617E-01  0.617E-01
  -8.980  0.573E-01  0.573E-01
  -8.970  0.516E-01  0.516E-01
  -8.960  0.455E-01  0.455E-01
  -8.950  0.400E-01  0.400E-01
  -8.940  0.360E-01  0.360E-01
  -8.930  0.344E-01  0.344E-01
  -8.920  0.354E-01  0.354E-01
  -8.910  0.389E-01  0.389E-01
  -8.900  0.441E-01  0.441E-01
  -8.890  0.501E-01  0.501E-01
  -8.880  0.558E-01  0.558E-01
  -8.870  0.603E-01  0.603E-01
  -8.860  0.628E-01  0.628E-01
  -8.850  0.631E-01  0.631E-01
  -8.840  0.612E-01  0.612E-01
  -8.830  0.575E-01  0.575E-01
  -8.820  0.530E-01  0.530E-01
  -8.810  0.483E-01  0.483E-01
  -8.800  0.443E-01  0.443E-01
  -8.790  0.415E-01  0.415E-01
  -8.780  0.405E-01  0.405E-01
  -8.770  0.411E-01  0.411E-01
  -8.760  0.433E-01  0.433E-01
  -8.750  0.465E-01  0.465E-01
  -8.740  0.502E-01  0.502E-01
  -8.730  0.535E-01  0.535E-01
  -8.720  0.560E-01  0.560E-01
  -8.710  0.572E-01  0.572E-01
  -8.700  0.572E-01  0.572E-01
  -8.690  0.561E-01  0.561E-01
  -8.680  0.543E-01  0.543E-01
  -8.670  0.524E-01  0.524E-01
  -8.660  0.506E-01  0.506E-01
  -8.650  0.491E-01  0.491E-01
  -8.640  0.480E-01  0.480E-01
  -8.630  0.470E-01  0.470E-01
  -8.620  0.460E-01  0.460E-01
  -8.610  0.449E-01  0.449E-01
  -8.600  0.438E-01  0.438E-01
  -8.590  0.429E-01  0.429E-01
  -8.580  0.426E-01  0.426E-01
  -8.570  0.432E-01  0.432E-01
  -8.560  0.449E-01  0.449E-01
  -8.550  0.476E-01  0.476E-01
  -8.540  0.509E-01  0.509E-01
  -8.530  0.544E-01  0.544E-01
  -8.520  0.573E-01  0.573E-01
  -8.510  0.590E-01  0.590E-01
  -8.500  0.591E-01  0.591E-01
  -8.490  0.575E-01  0.575E-01
  -8.480  0.542E-01  0.542E-01
  -8.470  0.496E-01  0.496E-01
  -8.460  0.444E-01  0.444E-01
  -8.450  0.391E-01  0.391E-01
  -8.440  0.343E-01  0.343E-01
  -8.430  0.304E-01  0.304E-01
  -8.420  0.276E-01  0.276E-01
  -8.410  0.261E-01  0.261E-01
  -8.400  0.259E-01  0.259E-01
  -8.390  0.270E-01  0.270E-01
  -8.380  0.294E-01  0.294E-01
  -8.370  0.330E-01  0.330E-01
  -8.360  0.375E-01  0.375E-01
  -8.350  0.426E-01  0.426E-01
  -8.340  0.478E-01  0.478E-01
  -8.330  0.525E-01  0.525E-01
  -8.320  0.562E-01  0.562E-01
  -8.310  0.583E-01  0.583E-01
  -8.300  0.585E-01  0.585E-01
  -8.290  0.569E-01  0.569E-01
  -8.280  0.539E-01  0.539E-01
  -8.270  0.500E-01  0.500E-01
  -8.260  0.461E-01  0.461E-01
  -8.250  0.431E-01  0.431E-01
  -8.240  0.416E-01  0.416E-01
  -8.230  0.420E-01  0.420E-01
  -8.220  0.440E-01  0.440E-01
  -8.210  0.473E-01  0.473E-01
  -8.200  0.509E-01  0.509E-01
  -8.190  0.539E-01  0.539E-01
  -8.180  0.553E-01  0.553E-01
  -8.170  0.546E-01  0.546E-01
  -8.160  0.515E-01  0.515E-01
  -8.150  0.464E-01  0.464E-01
  -8.140  0.399E-01  0.399E-01
  -8.130  0.329E-01  0.329E-01
  -8.120  0.264E-01  0.264E-01
  -8.110  0.212E-01  0.212E-01
  -8.100  0.178E-01  0.178E-01
  -8.090  0.166E-01  0.166E-01
  -8.080  0.175E-01  0.175E-01
  -8.070  0.201E-01  0.201E-01
  -8.060  0.240E-01  0.240E-01
  -8.050  0.288E-01  0.288E-01
  -8.040  0.339E-01  0.339E-01
  -8.030  0.388E-01  0.388E-01
  -8.020  0.432E-01  0.432E-01
  -8.010  0.468E-01  0.468E-01
  -8.000  0.492E-01  0.492E-01
  -7.990  0.505E-01  0.505E-01
  -7.980  0.504E-01  0.504E-01
  -7.970  0.493E-01  0.493E-01
  -7.960  0.472E-01  0.472E-01
  -7.950  0.445E-01  0.445E-01
  -7.940  0.416E-01  0.416E-01
  -7.930  0.387E-01  0.387E-01
  -7.920  0.362E-01  0.362E-01
  -7.910  0.341E-01  0.341E-01
  -7.900  0.326E-01  0.326E-01
  -7.890  0.318E-01  0.318E-01
  -7.880  0.317E-01  0.317E-01
  -7.870  0.321E-01  0.321E-01
  -7.860  0.330E-01  0.330E-01
  -7.850  0.341E-01  0.341E-01
  -7.840  0.352E-01  0.352E-01
  -7.830  0.359E-01  0.359E-01
  -7.820  0.360E-01  0.360E-01
  -7.810  0.352E-01  0.352E-01
  -7.800  0.336E-01  0.336E-01
  -7.790  0.314E-01  0.314E-01
  -7.780  0.290E-01  0.290E-01
  -7.770  0.269E-01  0.269E-01
  -7.760  0.254E-01  0.254E-01
  -7.750  0.249E-01  0.249E-01
  -7.740  0.256E-01  0.256E-01
  -7.730  0.275E-01  0.275E-01
  -7.720  0.301E-01  0.301E-01
  -7.710  0.331E-01  0.331E-01
  -7.700  0.360E-01  0.360E-01
  -7.690  0.382E-01  0.382E-01
  -7.680  0.395E-01  0.395E-01
  -7.670  0.396E-01  0.396E-01
  -7.660  0.384E-01  0.384E-01
  -7.650  0.362E-01  0.362E-01
  -7.640  0.331E-01  0.331E-01
  -7.630  0.296E-01  0.296E-01
  -7.620  0.259E-01  0.259E-01
  -7.610  0.223E-01  0.223E-01
  -7.600  0.191E-01  0.191E-01
  -7.590  0.163E-01  0.163E-01
  -7.580  0.142E-01  0.142E-01
  -7.570  0.127E-01  0.127E-01
  -7.560  0.119E-01  0.119E-01
  -7.550  0.120E-01  0.120E-01
  -7.540  0.130E-01  0.130E-01
  -7.530  0.147E-01  0.147E-01
  -7.520  0.170E-01  0.170E-01
  -7.510  0.197E-01  0.197E-01
  -7.500  0.226E-01  0.226E-01
  -7.490  0.253E-01  0.253E-01
  -7.480  0.276E-01  0.276E-01
  -7.470  0.295E-01  0.295E-01
  -7.460  0.311E-01  0.311E-01
  -7.450  0.324E-01  0.324E-01
  -7.440  0.336E-01  0.336E-01
  -7.430  0.350E-01  0.350E-01
  -7.420  0.365E-01  0.365E-01
  -7.410  0.381E-01  0.381E-01
  -7.400  0.395E-01  0.395E-01
  -7.390  0.401E-01  0.401E-01
  -7.380  0.397E-01  0.397E-01
  -7.370  0.380E-01  0.380E-01
  -7.360  0.347E-01  0.347E-01
  -7.350  0.303E-01  0.303E-01
  -7.340  0.250E-01  0.250E-01
  -7.330  0.196E-01  0.196E-01
  -7.320  0.145E-01  0.145E-01
  -7.310  0.103E-01  0.103E-01
  -7.300  0.726E-02  0.726E-02
  -7.290  0.543E-02  0.543E-02
  -7.280  0.464E-02  0.464E-02
  -7.270  0.465E-02  0.465E-02
  -7.260  0.522E-02  0.522E-02
  -7.250  0.616E-02  0.616E-02
  -7.240  0.744E-02  0.744E-02
  -7.230  0.909E-02  0.909E-02
  -7.220  0.112E-01  0.112E-01
  -7.210  0.138E-01  0.138E-01
  -7.200  0.168E-01  0.168E-01
  -7.190  0.201E-01  0.201E-01
  -7.180  0.235E-01  0.235E-01
  -7.170  0.265E-01  0.265E-01
  -7.160  0.290E-01  0.290E-01
  -7.150  0.305E-01  0.305E-01
  -7.140  0.311E-01  0.311E-01
  -7.130  0.306E-01  0.306E-01
  -7.120  0.292E-01  0.292E-01
  -7.110  0.272E-01  0.272E-01
  -7.100  0.248E-01  0.248E-01
  -7.090  0.224E-01  0.224E-01
  -7.080  0.203E-01  0.203E-01
  -7.070  0.187E-01  0.187E-01
  -7.060  0.177E-01  0.177E-01
  -7.050  0.172E-01  0.172E-01
  -7.040  0.172E-01  0.172E-01
  -7.030  0.174E-01  0.174E-01
  -7.020  0.176E-01  0.176E-01
  -7.010  0.175E-01  0.175E-01
  -7.000  0.172E-01  0.172E-01
  -6.990  0.165E-01  0.165E-01
  -6.980  0.155E-01  0.155E-01
  -6.970  0.144E-01  0.144E-01
  -6.960  0.133E-01  0.133E-01
  -6.950  0.125E-01  0.125E-01
  -6.940  0.121E-01  0.121E-01
  -6.930  0.121E-01  0.121E-01
  -6.920  0.128E-01  0.128E-01
  -6.910  0.139E-01  0.139E-01
  -6.900  0.154E-01  0.154E-01
  -6.890  0.171E-01  0.171E-01
  -6.880  0.187E-01  0.187E-01
  -6.870  0.199E-01  0.199E-01
  -6.860  0.205E-01  0.205E-01
  -6.850  0.203E-01  0.203E-01
  -6.840  0.193E-01  0.193E-01
  -6.830  0.178E-01  0.178E-01
  -6.820  0.158E-01  0.158E-01
  -6.810  0.138E-01  0.138E-01
  -6.800  0.118E-01  0.118E-01
  -6.790  0.103E-01  0.103E-01
  -6.780  0.924E-02  0.924E-02
  -6.770  0.879E-02  0.879E-02
  -6.760  0.889E-02  0.889E-02
  -6.750  0.945E-02  0.945E-02
  -6.740  0.103E-01  0.103E-01
  -6.730  0.113E-01  0.113E-01
  -6.720  0.123E-01  0.123E-01
  -6.710  0.131E-01  0.131E-01
  -6.700  0.136E-01  0.136E-01
  -6.690  0.137E-01  0.137E-01
  -6.680  0.137E-01  0.137E-01
  -6.670  0.136E-01  0.136E-01
  -6.660  0.135E-01  0.135E-01
  -6.650  0.138E-01  0.138E-01
  -6.640  0.144E-01  0.144E-01
  -6.630  0.155E-01  0.155E-01
  -6.620  0.169E-01  0.169E-01
  -6.610  0.184E-01  0.184E-01
  -6.600  0.197E-01  0.197E-01
  -6.590  0.205E-01  0.205E-01
  -6.580  0.207E-01  0.207E-01
  -6.570  0.201E-01  0.201E-01
  -6.560  0.188E-01  0.188E-01
  -6.550  0.169E-01  0.169E-01
  -6.540  0.146E-01  0.146E-01
  -6.530  0.122E-01  0.122E-01
  -6.520  0.978E-02  0.978E-02
  -6.510  0.766E-02  0.766E-02
  -6.500  0.595E-02  0.595E-02
  -6.490  0.473E-02  0.473E-02
  -6.480  0.405E-02  0.405E-02
  -6.470  0.392E-02  0.392E-02
  -6.460  0.429E-02  0.429E-02
  -6.450  0.506E-02  0.506E-02
  -6.440  0.609E-02  0.609E-02
  -6.430  0.719E-02  0.719E-02
  -6.420  0.817E-02  0.817E-02
  -6.410  0.886E-02  0.886E-02
  -6.400  0.917E-02  0.917E-02
  -6.390  0.911E-02  0.911E-02
  -6.380  0.877E-02  0.877E-02
  -6.370  0.836E-02  0.836E-02
  -6.360  0.810E-02  0.810E-02
  -6.350  0.820E-02  0.820E-02
  -6.340  0.880E-02  0.880E-02
  -6.330  0.993E-02  0.993E-02
  -6.320  0.115E-01  0.115E-01
  -6.310  0.133E-01  0.133E-01
  -6.300  0.150E-01  0.150E-01
  -6.290  0.163E-01  0.163E-01
  -6.280  0.172E-01  0.172E-01
  -6.270  0.173E-01  0.173E-01
  -6.260  0.167E-01  0.167E-01
  -6.250  0.155E-01  0.155E-01
  -6.240  0.139E-01  0.139E-01
  -6.230  0.121E-01  0.121E-01
  -6.220  0.103E-01  0.103E-01
  -6.210  0.869E-02  0.869E-02
  -6.200  0.732E-02  0.732E-02
  -6.190  0.623E-02  0.623E-02
  -6.180  0.537E-02  0.537E-02
  -6.170  0.468E-02  0.468E-02
  -6.160  0.410E-02  0.410E-02
  -6.150  0.363E-02  0.363E-02
  -6.140  0.326E-02  0.326E-02
  -6.130  0.306E-02  0.306E-02
  -6.120  0.308E-02  0.308E-02
  -6.110  0.337E-02  0.337E-02
  -6.100  0.394E-02  0.394E-02
  -6.090  0.476E-02  0.476E-02
  -6.080  0.575E-02  0.575E-02
  -6.070  0.681E-02  0.681E-02
  -6.060  0.780E-02  0.780E-02
  -6.050  0.864E-02  0.864E-02
  -6.040  0.926E-02  0.926E-02
  -6.030  0.961E-02  0.961E-02
  -6.020  0.969E-02  0.969E-02
  -6.010  0.952E-02  0.952E-02
  -6.000  0.914E-02  0.914E-02
  -5.990  0.858E-02  0.858E-02
  -5.980  0.790E-02  0.790E-02
  -5.970  0.716E-02  0.716E-02
  -5.960  0.645E-02  0.645E-02
  -5.950  0.586E-02  0.586E-02
  -5.940  0.548E-02  0.548E-02
  -5.930  0.537E-02  0.537E-02
  -5.920  0.554E-02  0.554E-02
  -5.910  0.595E-02  0.595E-02
  -5.900  0.648E-02  0.648E-02
  -5.890  0.703E-02  0.703E-02
  -5.880  0.746E-02  0.746E-02
  -5.870  0.770E-02  0.770E-02
  -5.860  0.770E-02  0.770E-02
  -5.850  0.747E-02  0.747E-02
  -5.840  0.706E-02  0.706E-02
  -5.830  0.653E-02  0.653E-02
  -5.820  0.596E-02  0.596E-02
  -5.810  0.539E-02  0.539E-02
  -5.800  0.483E-02  0.483E-02
  -5.790  0.429E-02  0.429E-02
  -5.780  0.376E-02  0.376E-02
  -5.770  0.323E-02  0.323E-02
  -5.760  0.270E-02  0.270E-02
  -5.750  0.219E-02  0.219E-02
  -5.740  0.175E-02  0.175E-02
  -5.730  0.143E-02  0.143E-02
  -5.720  0.128E-02  0.128E-02
  -5.710  0.137E-02  0.137E-02
  -5.700  0.174E-02  0.174E-02
  -5.690  0.239E-02  0.239E-02
  -5.680  0.328E-02  0.328E-02
  -5.670  0.435E-02  0.435E-02
  -5.660  0.550E-02  0.550E-02
  -5.650  0.658E-02  0.658E-02
  -5.640  0.746E-02  0.746E-02
  -5.630  0.802E-02  0.802E-02
  -5.620  0.819E-02  0.819E-02
  -5.610  0.792E-02  0.792E-02
  -5.600  0.727E-02  0.727E-02
  -5.590  0.631E-02  0.631E-02
  -5.580  0.515E-02  0.515E-02
  -5.570  0.393E-02  0.393E-02
  -5.560  0.278E-02  0.278E-02
  -5.550  0.180E-02  0.180E-02
  -5.540  0.105E-02  0.105E-02
  -5.530  0.573E-03  0.573E-03
  -5.520  0.366E-03  0.366E-03
  -5.510  0.410E-03  0.410E-03
  -5.500  0.661E-03  0.661E-03
  -5.490  0.106E-02  0.106E-02
  -5.480  0.154E-02  0.154E-02
  -5.470  0.203E-02  0.203E-02
  -5.460  0.246E-02  0.246E-02
  -5.450  0.278E-02  0.278E-02
  -5.440  0.297E-02  0.297E-02
  -5.430  0.302E-02  0.302E-02
  -5.420  0.297E-02  0.297E-02
  -5.410  0.286E-02  0.286E-02
  -5.400  0.274E-02  0.274E-02
  -5.390  0.267E-02  0.267E-02
  -5.380  0.266E-02  0.266E-02
  -5.370  0.270E-02  0.270E-02
  -5.360  0.276E-02  0.276E-02
  -5.350  0.279E-02  0.279E-02
  -5.340  0.275E-02  0.275E-02
  -5.330  0.259E-02  0.259E-02
  -5.320  0.232E-02  0.232E-02
  -5.310  0.197E-02  0.197E-02
  -5.300  0.156E-02  0.156E-02
  -5.290  0.117E-02  0.117E-02
  -5.280  0.828E-03  0.828E-03
  -5.270  0.582E-03  0.582E-03
  -5.260  0.449E-03  0.449E-03
  -5.250  0.428E-03  0.428E-03
  -5.240  0.501E-03  0.501E-03
  -5.230  0.642E-03  0.642E-03
  -5.220  0.818E-03  0.818E-03
  -5.210  0.998E-03  0.998E-03
  -5.200  0.115E-02  0.115E-02
  -5.190  0.126E-02  0.126E-02
  -5.180  0.131E-02  0.131E-02
  -5.170  0.130E-02  0.130E-02
  -5.160  0.122E-02  0.122E-02
  -5.150  0.110E-02  0.110E-02
  -5.140  0.940E-03  0.940E-03
  -5.130  0.763E-03  0.763E-03
  -5.120  0.588E-03  0.588E-03
  -5.110  0.429E-03  0.429E-03
  -5.100  0.300E-03  0.300E-03
  -5.090  0.205E-03  0.205E-03
  -5.080  0.147E-03  0.147E-03
  -5.070  0.119E-03  0.119E-03
  -5.060  0.113E-03  0.113E-03
  -5.050  0.118E-03  0.118E-03
  -5.040  0.124E-03  0.124E-03
  -5.030  0.123E-03  0.123E-03
  -5.020  0.111E-03  0.111E-03
  -5.010  0.908E-04  0.908E-04
  -5.000  0.636E-04  0.636E-04
  -4.990  0.345E-04  0.345E-04
  -4.980  0.800E-05  0.800E-05
  -4.970 -0.127E-04 -0.127E-04
  -4.960 -0.261E-04 -0.261E-04
  -4.950 -0.324E-04 -0.324E-04
  -4.940 -0.329E-04 -0.329E-04
  -4.930 -0.295E-04 -0.295E-04
  -4.920 -0.241E-04 -0.241E-04
  -4.910 -0.182E-04 -0.182E-04
  -4.900 -0.129E-04 -0.129E-04
  -4.890 -0.856E-05 -0.856E-05
  -4.880 -0.537E-05 -0.537E-05
  -4.870 -0.319E-05 -0.319E-05
  -4.860 -0.180E-05 -0.180E-05
  -4.850 -0.965E-06 -0.965E-06
  -4.840 -0.492E-06 -0.492E-06
  -4.830 -0.239E-06 -0.239E-06
  -4.820 -0.110E-06 -0.110E-06
  -4.810 -0.487E-07 -0.487E-07
  -4.800 -0.205E-07 -0.205E-07
  -4.790 -0.823E-08 -0.823E-08
  -4.780 -0.315E-08 -0.315E-08
  -4.770 -0.115E-08 -0.115E-08
  -4.760 -0.397E-09 -0.397E-09
  -4.750 -0.125E-09 -0.125E-09
  -4.740 -0.317E-10 -0.317E-10
  -4.730 -0.712E-13 -0.712E-13
  -4.720  0.104E-10  0.104E-10
  -4.710  0.149E-10  0.149E-10
  -4.700  0.150E-10  0.150E-10
  -4.690  0.145E-10  0.145E-10
  -4.680  0.136E-10  0.136E-10
  -4.670  0.124E-10  0.124E-10
  -4.660  0.110E-10  0.110E-10
  -4.650  0.968E-11  0.968E-11
  -4.640  0.850E-11  0.850E-11
  -4.630  0.754E-11  0.754E-11
  -4.620  0.683E-11  0.683E-11
  -4.610  0.635E-11  0.635E-11
  -4.600  0.606E-11  0.606E-11
  -4.590  0.591E-11  0.591E-11
  -4.580  0.587E-11  0.587E-11
  -4.570  0.591E-11  0.591E-11
  -4.560  0.600E-11  0.600E-11
  -4.550  0.612E-11  0.612E-11
  -4.540  0.627E-11  0.627E-11
  -4.530  0.646E-11  0.646E-11
  -4.520  0.670E-11  0.670E-11
  -4.510  0.700E-11  0.700E-11
  -4.500  0.739E-11  0.739E-11
  -4.490  0.789E-11  0.789E-11
  -4.480  0.848E-11  0.848E-11
  -4.470  0.913E-11  0.913E-11
  -4.460  0.978E-11  0.978E-11
  -4.450  0.103E-10  0.103E-10
  -4.440  0.107E-10  0.107E-10
  -4.430  0.108E-10  0.108E-10
  -4.420  0.106E-10  0.106E-10
  -4.410  0.101E-10  0.101E-10
  -4.400  0.939E-11  0.939E-11
  -4.390  0.859E-11  0.859E-11
  -4.380  0.785E-11  0.785E-11
  -4.370  0.731E-11  0.731E-11
  -4.360  0.710E-11  0.710E-11
  -4.350  0.725E-11  0.725E-11
  -4.340  0.778E-11  0.778E-11
  -4.330  0.860E-11  0.860E-11
  -4.320  0.963E-11  0.963E-11
  -4.310  0.108E-10  0.108E-10
  -4.300  0.119E-10  0.119E-10
  -4.290  0.129E-10  0.129E-10
  -4.280  0.138E-10  0.138E-10
  -4.270  0.146E-10  0.146E-10
  -4.260  0.152E-10  0.152E-10
  -4.250  0.157E-10  0.157E-10
  -4.240  0.160E-10  0.160E-10
  -4.230  0.161E-10  0.161E-10
  -4.220  0.159E-10  0.159E-10
  -4.210  0.153E-10  0.153E-10
  -4.200  0.143E-10  0.143E-10
  -4.190  0.129E-10  0.129E-10
  -4.180  0.112E-10  0.112E-10
  -4.170  0.950E-11  0.950E-11
  -4.160  0.799E-11  0.799E-11
  -4.150  0.695E-11  0.695E-11
  -4.140  0.663E-11  0.663E-11
  -4.130  0.720E-11  0.720E-11
  -4.120  0.870E-11  0.870E-11
  -4.110  0.110E-10  0.110E-10
  -4.100  0.139E-10  0.139E-10
  -4.090  0.170E-10  0.170E-10
  -4.080  0.198E-10  0.198E-10
  -4.070  0.221E-10  0.221E-10
  -4.060  0.234E-10  0.234E-10
  -4.050  0.238E-10  0.238E-10
  -4.040  0.232E-10  0.232E-10
  -4.030  0.222E-10  0.222E-10
  -4.020  0.212E-10  0.212E-10
  -4.010  0.208E-10  0.208E-10
  -4.000  0.217E-10  0.217E-10
  -3.990  0.242E-10  0.242E-10
  -3.980  0.286E-10  0.286E-10
  -3.970  0.347E-10  0.347E-10
  -3.960  0.421E-10  0.421E-10
  -3.950  0.503E-10  0.503E-10
  -3.940  0.584E-10  0.584E-10
  -3.930  0.657E-10  0.657E-10
  -3.920  0.714E-10  0.714E-10
  -3.910  0.752E-10  0.752E-10
  -3.900  0.769E-10  0.769E-10
  -3.890  0.767E-10  0.767E-10
  -3.880  0.747E-10  0.747E-10
  -3.870  0.714E-10  0.714E-10
  -3.860  0.670E-10  0.670E-10
  -3.850  0.616E-10  0.616E-10
  -3.840  0.553E-10  0.553E-10
  -3.830  0.482E-10  0.482E-10
  -3.820  0.404E-10  0.404E-10
  -3.810  0.322E-10  0.322E-10
  -3.800  0.240E-10  0.240E-10
  -3.790  0.164E-10  0.164E-10
  -3.780  0.995E-11  0.995E-11
  -3.770  0.501E-11  0.501E-11
  -3.760  0.181E-11  0.181E-11
  -3.750  0.308E-12  0.308E-12
  -3.740  0.292E-12  0.292E-12
  -3.730  0.139E-11  0.139E-11
  -3.720  0.315E-11  0.315E-11
  -3.710  0.513E-11  0.513E-11
  -3.700  0.692E-11  0.692E-11
  -3.690  0.823E-11  0.823E-11
  -3.680  0.889E-11  0.889E-11
  -3.670  0.886E-11  0.886E-11
  -3.660  0.822E-11  0.822E-11
  -3.650  0.712E-11  0.712E-11
  -3.640  0.576E-11  0.576E-11
  -3.630  0.432E-11  0.432E-11
  -3.620  0.298E-11  0.298E-11
  -3.610  0.183E-11  0.183E-11
  -3.600  0.913E-12  0.913E-12
  -3.590  0.242E-12  0.242E-12
  -3.580 -0.213E-12 -0.213E-12
  -3.570 -0.492E-12 -0.492E-12
  -3.560 -0.635E-12 -0.635E-12
  -3.550 -0.679E-12 -0.679E-12
  -3.540 -0.654E-12 -0.654E-12
  -3.530 -0.586E-12 -0.586E-12
  -3.520 -0.495E-12 -0.495E-12
  -3.510 -0.395E-12 -0.395E-12
  -3.500 -0.300E-12 -0.300E-12
  -3.490 -0.217E-12 -0.217E-12
  -3.480 -0.149E-12 -0.149E-12
  -3.470 -0.973E-13 -0.973E-13
  -3.460 -0.606E-13 -0.606E-13
  -3.450 -0.360E-13 -0.360E-13
  -3.440 -0.204E-13 -0.204E-13
  -3.430 -0.110E-13 -0.110E-13
  -3.420 -0.565E-14 -0.565E-14
  -3.410 -0.277E-14 -0.277E-14
  -3.400 -0.130E-14 -0.130E-14
  -3.390 -0.580E-15 -0.580E-15
  -3.380 -0.247E-15 -0.247E-15
  -3.370 -0.101E-15 -0.101E-15
  -3.360 -0.393E-16 -0.393E-16
  -3.350 -0.146E-16 -0.146E-16
  -3.340 -0.518E-17 -0.518E-17
  -3.330 -0.176E-17 -0.176E-17
  -3.320 -0.571E-18 -0.571E-18
  -3.310 -0.176E-18 -0.176E-18
  -3.300 -0.524E-19 -0.524E-19
  -3.290 -0.149E-19 -0.149E-19
  -3.280  0.000E+00  0.000E+00
  -3.270  0.000E+00  0.000E+00
  -3.260  0.000E+00  0.000E+00
  -3.250  0.000E+00  0.000E+00
  -3.240  0.000E+00  0.000E+00
  -3.230  0.000E+00  0.000E+00
  -3.220  0.000E+00  0.000E+00
  -3.210  0.000E+00  0.000E+00
  -3.200  0.000E+00  0.000E+00
  -3.190  0.000E+00  0.000E+00
  -3.180  0.000E+00  0.000E+00
  -3.170  0.000E+00  0.000E+00
  -3.160  0.000E+00  0.000E+00
  -3.150  0.000E+00  0.000E+00
  -3.140  0.000E+00  0.000E+00
  -3.130  0.000E+00  0.000E+00
  -3.120  0.000E+00  0.000E+00
  -3.110  0.000E+00  0.000E+00
  -3.100  0.000E+00  0.000E+00
  -3.090  0.000E+00  0.000E+00
  -3.080  0.000E+00  0.000E+00
  -3.070  0.000E+00  0.000E+00
  -3.060  0.000E+00  0.000E+00
  -3.050  0.000E+00  0.000E+00
  -3.040  0.000E+00  0.000E+00
  -3.030  0.000E+00  0.000E+00
  -3.020  0.000E+00  0.000E+00
  -3.010  0.000E+00  0.000E+00
  -3.000  0.000E+00  0.000E+00
  -2.990  0.000E+00  0.000E+00
  -2.980  0.000E+00  0.000E+00
  -2.970  0.000E+00  0.000E+00
  -2.960  0.000E+00  0.000E+00
  -2.950  0.000E+00  0.000E+00
  -2.940  0.000E+00  0.000E+00
  -2.930  0.000E+00  0.000E+00
  -2.920  0.000E+00  0.000E+00
  -2.910  0.000E+00  0.000E+00
  -2.900  0.000E+00  0.000E+00
  -2.890  0.000E+00  0.000E+00
  -2.880  0.000E+00  0.000E+00
  -2.870  0.000E+00  0.000E+00
  -2.860  0.000E+00  0.000E+00
  -2.850  0.000E+00  0.000E+00
  -2.840  0.000E+00  0.000E+00
  -2.830  0.000E+00  0.000E+00
  -2.820  0.000E+00  0.000E+00
  -2.810  0.000E+00  0.000E+00
  -2.800  0.000E+00  0.000E+00
  -2.790  0.000E+00  0.000E+00
  -2.780  0.000E+00  0.000E+00
  -2.770  0.000E+00  0.000E+00
  -2.760  0.000E+00  0.000E+00
  -2.750  0.000E+00  0.000E+00
  -2.740  0.000E+00  0.000E+00
  -2.730  0.000E+00  0.000E+00
  -2.720  0.000E+00  0.000E+00
  -2.710  0.000E+00  0.000E+00
  -2.700  0.000E+00  0.000E+00
  -2.690  0.000E+00  0.000E+00
  -2.680  0.000E+00  0.000E+00
  -2.670  0.000E+00  0.000E+00
  -2.660  0.000E+00  0.000E+00
  -2.650  0.000E+00  0.000E+00
  -2.640  0.000E+00  0.000E+00
  -2.630  0.000E+00  0.000E+00
  -2.620  0.000E+00  0.000E+00
  -2.610  0.000E+00  0.000E+00
  -2.600  0.000E+00  0.000E+00
  -2.590  0.000E+00  0.000E+00
  -2.580  0.000E+00  0.000E+00
  -2.570  0.000E+00  0.000E+00
  -2.560  0.000E+00  0.000E+00
  -2.550  0.000E+00  0.000E+00
  -2.540  0.000E+00  0.000E+00
  -2.530  0.000E+00  0.000E+00
  -2.520  0.000E+00  0.000E+00
  -2.510  0.000E+00  0.000E+00
  -2.500  0.000E+00  0.000E+00
  -2.490  0.000E+00  0.000E+00
  -2.480  0.000E+00  0.000E+00
  -2.470  0.000E+00  0.000E+00
  -2.460  0.000E+00  0.000E+00
  -2.450  0.000E+00  0.000E+00
  -2.440  0.000E+00  0.000E+00
  -2.430  0.000E+00  0.000E+00
  -2.420  0.000E+00  0.000E+00
  -2.410  0.000E+00  0.000E+00
  -2.400  0.000E+00  0.000E+00
  -2.390  0.000E+00  0.000E+00
  -2.380  0.000E+00  0.000E+00
  -2.370  0.000E+00  0.000E+00
  -2.360  0.000E+00  0.000E+00
  -2.350  0.000E+00  0.000E+00
  -2.340  0.000E+00  0.000E+00
  -2.330  0.000E+00  0.000E+00
  -2.320  0.000E+00  0.000E+00
  -2.310  0.000E+00  0.000E+00
  -2.300  0.000E+00  0.000E+00
  -2.290  0.000E+00  0.000E+00
  -2.280  0.000E+00  0.000E+00
  -2.270  0.000E+00  0.000E+00
  -2.260  0.000E+00  0.000E+00
  -2.250  0.000E+00  0.000E+00
  -2.240  0.000E+00  0.000E+00
  -2.230  0.000E+00  0.000E+00
  -2.220  0.000E+00  0.000E+00
  -2.210  0.000E+00  0.000E+00
  -2.200  0.000E+00  0.000E+00
  -2.190  0.000E+00  0.000E+00
  -2.180  0.000E+00  0.000E+00
  -2.170  0.000E+00  0.000E+00
  -2.160  0.000E+00  0.000E+00
  -2.150  0.000E+00  0.000E+00
  -2.140  0.000E+00  0.000E+00
  -2.130  0.000E+00  0.000E+00
  -2.120  0.000E+00  0.000E+00
  -2.110  0.000E+00  0.000E+00
  -2.100  0.000E+00  0.000E+00
  -2.090  0.000E+00  0.000E+00
  -2.080  0.000E+00  0.000E+00
  -2.070  0.000E+00  0.000E+00
  -2.060  0.000E+00  0.000E+00
  -2.050  0.000E+00  0.000E+00
  -2.040  0.000E+00  0.000E+00
  -2.030  0.000E+00  0.000E+00
  -2.020  0.000E+00  0.000E+00
  -2.010  0.000E+00  0.000E+00
  -2.000  0.000E+00  0.000E+00
  -1.990  0.000E+00  0.000E+00
  -1.980  0.000E+00  0.000E+00
  -1.970  0.000E+00  0.000E+00
  -1.960  0.000E+00  0.000E+00
  -1.950  0.000E+00  0.000E+00
  -1.940  0.000E+00  0.000E+00
  -1.930  0.000E+00  0.000E+00
  -1.920  0.000E+00  0.000E+00
  -1.910  0.000E+00  0.000E+00
  -1.900  0.000E+00  0.000E+00
  -1.890  0.000E+00  0.000E+00
  -1.880  0.000E+00  0.000E+00
  -1.870  0.000E+00  0.000E+00
  -1.860  0.000E+00  0.000E+00
  -1.850  0.000E+00  0.000E+00
  -1.840  0.000E+00  0.000E+00
  -1.830  0.000E+00  0.000E+00
  -1.820  0.000E+00  0.000E+00
  -1.810  0.000E+00  0.000E+00
  -1.800  0.000E+00  0.000E+00
  -1.790  0.000E+00  0.000E+00
  -1.780  0.000E+00  0.000E+00
  -1.770  0.000E+00  0.000E+00
  -1.760  0.000E+00  0.000E+00
  -1.750  0.000E+00  0.000E+00
  -1.740  0.000E+00  0.000E+00
  -1.730  0.000E+00  0.000E+00
  -1.720  0.000E+00  0.000E+00
  -1.710  0.000E+00  0.000E+00
  -1.700  0.000E+00  0.000E+00
  -1.690  0.000E+00  0.000E+00
  -1.680  0.000E+00  0.000E+00
  -1.670  0.000E+00  0.000E+00
  -1.660  0.000E+00  0.000E+00
  -1.650  0.000E+00  0.000E+00
  -1.640  0.000E+00  0.000E+00
  -1.630  0.000E+00  0.000E+00
  -1.620  0.000E+00  0.000E+00
  -1.610  0.000E+00  0.000E+00
  -1.600  0.000E+00  0.000E+00
  -1.590  0.000E+00  0.000E+00
  -1.580  0.000E+00  0.000E+00
  -1.570  0.000E+00  0.000E+00
  -1.560  0.000E+00  0.000E+00
  -1.550  0.000E+00  0.000E+00
  -1.540  0.000E+00  0.000E+00
  -1.530  0.000E+00  0.000E+00
  -1.520  0.000E+00  0.000E+00
  -1.510  0.000E+00  0.000E+00
  -1.500  0.000E+00  0.000E+00
  -1.490  0.000E+00  0.000E+00
  -1.480  0.000E+00  0.000E+00
  -1.470  0.000E+00  0.000E+00
  -1.460  0.000E+00  0.000E+00
  -1.450  0.000E+00  0.000E+00
  -1.440  0.000E+00  0.000E+00
  -1.430  0.000E+00  0.000E+00
  -1.420  0.000E+00  0.000E+00
  -1.410  0.000E+00  0.000E+00
  -1.400  0.000E+00  0.000E+00
  -1.390  0.000E+00  0.000E+00
  -1.380  0.000E+00  0.000E+00
  -1.370  0.000E+00  0.000E+00
  -1.360  0.000E+00  0.000E+00
  -1.350  0.000E+00  0.000E+00
  -1.340  0.000E+00  0.000E+00
  -1.330  0.000E+00  0.000E+00
  -1.320  0.000E+00  0.000E+00
  -1.310  0.000E+00  0.000E+00
  -1.300  0.000E+00  0.000E+00
  -1.290  0.000E+00  0.000E+00
  -1.280  0.000E+00  0.000E+00
  -1.270  0.000E+00  0.000E+00
  -1.260  0.000E+00  0.000E+00
  -1.250  0.000E+00  0.000E+00
  -1.240  0.000E+00  0.000E+00
  -1.230  0.000E+00  0.000E+00
  -1.220  0.000E+00  0.000E+00
  -1.210  0.000E+00  0.000E+00
  -1.200  0.000E+00  0.000E+00
  -1.190  0.000E+00  0.000E+00
  -1.180  0.000E+00  0.000E+00
  -1.170  0.000E+00  0.000E+00
  -1.160  0.000E+00  0.000E+00
  -1.150  0.000E+00  0.000E+00
  -1.140  0.000E+00  0.000E+00
  -1.130  0.000E+00  0.000E+00
  -1.120  0.000E+00  0.000E+00
  -1.110  0.000E+00  0.000E+00
  -1.100  0.000E+00  0.000E+00
  -1.090  0.000E+00  0.000E+00
  -1.080  0.000E+00  0.000E+00
  -1.070  0.000E+00  0.000E+00
  -1.060  0.000E+00  0.000E+00
  -1.050  0.000E+00  0.000E+00
  -1.040  0.000E+00  0.000E+00
  -1.030  0.000E+00  0.000E+00
  -1.020  0.000E+00  0.000E+00
  -1.010  0.000E+00  0.000E+00
  -1.000  0.000E+00  0.000E+00
  -0.990  0.000E+00  0.000E+00
  -0.980  0.000E+00  0.000E+00
  -0.970  0.000E+00  0.000E+00
  -0.960  0.000E+00  0.000E+00
  -0.950  0.000E+00  0.000E+00
  -0.940  0.000E+00  0.000E+00
  -0.930  0.000E+00  0.000E+00
  -0.920  0.000E+00  0.000E+00
  -0.910  0.000E+00  0.000E+00
  -0.900  0.000E+00  0.000E+00
  -0.890  0.000E+00  0.000E+00
  -0.880  0.000E+00  0.000E+00
  -0.870  0.000E+00  0.000E+00
  -0.860  0.000E+00  0.000E+00
  -0.850  0.000E+00  0.000E+00
  -0.840  0.000E+00  0.000E+00
  -0.830  0.000E+00  0.000E+00
  -0.820  0.000E+00  0.000E+00
  -0.810  0.000E+00  0.000E+00
  -0.800  0.000E+00  0.000E+00
  -0.790  0.000E+00  0.000E+00
  -0.780  0.000E+00  0.000E+00
  -0.770  0.000E+00  0.000E+00
  -0.760  0.000E+00  0.000E+00
  -0.750  0.000E+00  0.000E+00
  -0.740  0.000E+00  0.000E+00
  -0.730  0.000E+00  0.000E+00
  -0.720  0.000E+00  0.000E+00
  -0.710  0.000E+00  0.000E+00
  -0.700  0.000E+00  0.000E+00
  -0.690  0.000E+00  0.000E+00
  -0.680  0.000E+00  0.000E+00
  -0.670  0.000E+00  0.000E+00
  -0.660  0.000E+00  0.000E+00
  -0.650  0.000E+00  0.000E+00
  -0.640  0.000E+00  0.000E+00
  -0.630  0.000E+00  0.000E+00
  -0.620  0.000E+00  0.000E+00
  -0.610  0.000E+00  0.000E+00
  -0.600  0.000E+00  0.000E+00
  -0.590  0.000E+00  0.000E+00
  -0.580  0.000E+00  0.000E+00
  -0.570  0.000E+00  0.000E+00
  -0.560  0.000E+00  0.000E+00
  -0.550  0.000E+00  0.000E+00
  -0.540  0.000E+00  0.000E+00
  -0.530  0.000E+00  0.000E+00
  -0.520  0.000E+00  0.000E+00
  -0.510  0.000E+00  0.000E+00
  -0.500  0.000E+00  0.000E+00
  -0.490  0.000E+00  0.000E+00
  -0.480  0.000E+00  0.000E+00
  -0.470  0.000E+00  0.000E+00
  -0.460  0.000E+00  0.000E+00
  -0.450  0.000E+00  0.000E+00
  -0.440  0.000E+00  0.000E+00
  -0.430  0.000E+00  0.000E+00
  -0.420  0.000E+00  0.000E+00
  -0.410  0.000E+00  0.000E+00
  -0.400  0.000E+00  0.000E+00
  -0.390  0.000E+00  0.000E+00
  -0.380  0.000E+00  0.000E+00
  -0.370  0.000E+00  0.000E+00
  -0.360  0.000E+00  0.000E+00
  -0.350  0.000E+00  0.000E+00
  -0.340  0.000E+00  0.000E+00
  -0.330  0.000E+00  0.000E+00
  -0.320  0.000E+00  0.000E+00
  -0.310  0.000E+00  0.000E+00
  -0.300  0.000E+00  0.000E+00
  -0.290  0.000E+00  0.000E+00
  -0.280  0.000E+00  0.000E+00
  -0.270  0.000E+00  0.000E+00
  -0.260  0.000E+00  0.000E+00
  -0.250  0.000E+00  0.000E+00
  -0.240  0.000E+00  0.000E+00
  -0.230  0.000E+00  0.000E+00
  -0.220  0.000E+00  0.000E+00
  -0.210  0.000E+00  0.000E+00
  -0.200  0.000E+00  0.000E+00
  -0.190  0.000E+00  0.000E+00
  -0.180  0.000E+00  0.000E+00
  -0.170  0.000E+00  0.000E+00
  -0.160  0.000E+00  0.000E+00
  -0.150  0.000E+00  0.000E+00
  -0.140  0.000E+00  0.000E+00
  -0.130  0.000E+00  0.000E+00
  -0.120  0.000E+00  0.000E+00
  -0.110  0.000E+00  0.000E+00
  -0.100  0.000E+00  0.000E+00
  -0.090  0.000E+00  0.000E+00
  -0.080  0.000E+00  0.000E+00
  -0.070  0.000E+00  0.000E+00
  -0.060  0.000E+00  0.000E+00
  -0.050  0.000E+00  0.000E+00
  -0.040  0.000E+00  0.000E+00
  -0.030  0.000E+00  0.000E+00
  -0.020  0.000E+00  0.000E+00
  -0.010  0.000E+00  0.000E+00
   0.000  0.000E+00  0.000E+00
   0.010  0.000E+00  0.000E+00
   0.020  0.000E+00  0.000E+00
   0.030  0.000E+00  0.000E+00
   0.040  0.000E+00  0.000E+00
   0.050  0.000E+00  0.000E+00
   0.060  0.000E+00  0.000E+00
   0.070  0.000E+00  0.000E+00
   0.080  0.000E+00  0.000E+00
   0.090  0.000E+00  0.000E+00
   0.100  0.000E+00  0.000E+00
   0.110  0.000E+00  0.000E+00
   0.120  0.000E+00  0.000E+00
   0.130  0.000E+00  0.000E+00
   0.140  0.000E+00  0.000E+00
   0.150  0.000E+00  0.000E+00
   0.160  0.000E+00  0.000E+00
   0.170  0.000E+00  0.000E+00
   0.180  0.000E+00  0.000E+00
   0.190  0.000E+00  0.000E+00
   0.200  0.000E+00  0.000E+00
   0.210  0.000E+00  0.000E+00
   0.220  0.000E+00  0.000E+00
   0.230  0.000E+00  0.000E+00
   0.240  0.000E+00  0.000E+00
   0.250  0.000E+00  0.000E+00
   0.260  0.000E+00  0.000E+00
   0.270  0.000E+00  0.000E+00
   0.280  0.000E+00  0.000E+00
   0.290  0.000E+00  0.000E+00
   0.300  0.000E+00  0.000E+00
   0.310  0.000E+00  0.000E+00
   0.320  0.000E+00  0.000E+00
   0.330  0.000E+00  0.000E+00
   0.340  0.000E+00  0.000E+00
   0.350  0.000E+00  0.000E+00
   0.360  0.000E+00  0.000E+00
   0.370  0.000E+00  0.000E+00
   0.380  0.000E+00  0.000E+00
   0.390  0.000E+00  0.000E+00
   0.400  0.198E-16  0.198E-16
   0.410  0.106E-15  0.106E-15
   0.420  0.645E-15  0.645E-15
   0.430  0.321E-14  0.321E-14
   0.440  0.153E-13  0.153E-13
   0.450  0.702E-13  0.702E-13
   0.460  0.308E-12  0.308E-12
   0.470  0.129E-11  0.129E-11
   0.480  0.521E-11  0.521E-11
   0.490  0.201E-10  0.201E-10
   0.500  0.745E-10  0.745E-10
   0.510  0.264E-09  0.264E-09
   0.520  0.899E-09  0.899E-09
   0.530  0.293E-08  0.293E-08
   0.540  0.916E-08  0.916E-08
   0.550  0.275E-07  0.275E-07
   0.560  0.789E-07  0.789E-07
   0.570  0.217E-06  0.217E-06
   0.580  0.574E-06  0.574E-06
   0.590  0.145E-05  0.145E-05
   0.600  0.353E-05  0.353E-05
   0.610  0.821E-05  0.821E-05
   0.620  0.183E-04  0.183E-04
   0.630  0.392E-04  0.392E-04
   0.640  0.803E-04  0.803E-04
   0.650  0.158E-03  0.158E-03
   0.660  0.298E-03  0.298E-03
   0.670  0.539E-03  0.539E-03
   0.680  0.934E-03  0.934E-03
   0.690  0.155E-02  0.155E-02
   0.700  0.248E-02  0.248E-02
   0.710  0.380E-02  0.380E-02
   0.720  0.559E-02  0.559E-02
   0.730  0.791E-02  0.791E-02
   0.740  0.108E-01  0.108E-01
   0.750  0.141E-01  0.141E-01
   0.760  0.177E-01  0.177E-01
   0.770  0.216E-01  0.216E-01
   0.780  0.253E-01  0.253E-01
   0.790  0.288E-01  0.288E-01
   0.800  0.318E-01  0.318E-01
   0.810  0.340E-01  0.340E-01
   0.820  0.355E-01  0.355E-01
   0.830  0.362E-01  0.362E-01
   0.840  0.363E-01  0.363E-01
   0.850  0.358E-01  0.358E-01
   0.860  0.350E-01  0.350E-01
   0.870  0.342E-01  0.342E-01
   0.880  0.334E-01  0.334E-01
   0.890  0.329E-01  0.329E-01
   0.900  0.325E-01  0.325E-01
   0.910  0.322E-01  0.322E-01
   0.920  0.317E-01  0.317E-01
   0.930  0.310E-01  0.310E-01
   0.940  0.301E-01  0.301E-01
   0.950  0.289E-01  0.289E-01
   0.960  0.277E-01  0.277E-01
   0.970  0.269E-01  0.269E-01
   0.980  0.265E-01  0.265E-01
   0.990  0.267E-01  0.267E-01
   1.000  0.275E-01  0.275E-01
   1.010  0.287E-01  0.287E-01
   1.020  0.298E-01  0.298E-01
   1.030  0.304E-01  0.304E-01
   1.040  0.304E-01  0.304E-01
   1.050  0.294E-01  0.294E-01
   1.060  0.278E-01  0.278E-01
   1.070  0.256E-01  0.256E-01
   1.080  0.234E-01  0.234E-01
   1.090  0.216E-01  0.216E-01
   1.100  0.205E-01  0.205E-01
   1.110  0.204E-01  0.204E-01
   1.120  0.212E-01  0.212E-01
   1.130  0.228E-01  0.228E-01
   1.140  0.250E-01  0.250E-01
   1.150  0.272E-01  0.272E-01
   1.160  0.290E-01  0.290E-01
   1.170  0.301E-01  0.301E-01
   1.180  0.301E-01  0.301E-01
   1.190  0.291E-01  0.291E-01
   1.200  0.272E-01  0.272E-01
   1.210  0.244E-01  0.244E-01
   1.220  0.214E-01  0.214E-01
   1.230  0.186E-01  0.186E-01
   1.240  0.163E-01  0.163E-01
   1.250  0.150E-01  0.150E-01
   1.260  0.147E-01  0.147E-01
   1.270  0.156E-01  0.156E-01
   1.280  0.175E-01  0.175E-01
   1.290  0.199E-01  0.199E-01
   1.300  0.226E-01  0.226E-01
   1.310  0.251E-01  0.251E-01
   1.320  0.271E-01  0.271E-01
   1.330  0.283E-01  0.283E-01
   1.340  0.286E-01  0.286E-01
   1.350  0.281E-01  0.281E-01
   1.360  0.268E-01  0.268E-01
   1.370  0.249E-01  0.249E-01
   1.380  0.226E-01  0.226E-01
   1.390  0.201E-01  0.201E-01
   1.400  0.175E-01  0.175E-01
   1.410  0.152E-01  0.152E-01
   1.420  0.132E-01  0.132E-01
   1.430  0.117E-01  0.117E-01
   1.440  0.110E-01  0.110E-01
   1.450  0.113E-01  0.113E-01
   1.460  0.125E-01  0.125E-01
   1.470  0.145E-01  0.145E-01
   1.480  0.173E-01  0.173E-01
   1.490  0.204E-01  0.204E-01
   1.500  0.234E-01  0.234E-01
   1.510  0.260E-01  0.260E-01
   1.520  0.276E-01  0.276E-01
   1.530  0.282E-01  0.282E-01
   1.540  0.276E-01  0.276E-01
   1.550  0.261E-01  0.261E-01
   1.560  0.239E-01  0.239E-01
   1.570  0.213E-01  0.213E-01
   1.580  0.187E-01  0.187E-01
   1.590  0.164E-01  0.164E-01
   1.600  0.146E-01  0.146E-01
   1.610  0.133E-01  0.133E-01
   1.620  0.124E-01  0.124E-01
   1.630  0.118E-01  0.118E-01
   1.640  0.114E-01  0.114E-01
   1.650  0.111E-01  0.111E-01
   1.660  0.109E-01  0.109E-01
   1.670  0.110E-01  0.110E-01
   1.680  0.116E-01  0.116E-01
   1.690  0.128E-01  0.128E-01
   1.700  0.147E-01  0.147E-01
   1.710  0.173E-01  0.173E-01
   1.720  0.202E-01  0.202E-01
   1.730  0.230E-01  0.230E-01
   1.740  0.254E-01  0.254E-01
   1.750  0.269E-01  0.269E-01
   1.760  0.274E-01  0.274E-01
   1.770  0.268E-01  0.268E-01
   1.780  0.251E-01  0.251E-01
   1.790  0.227E-01  0.227E-01
   1.800  0.198E-01  0.198E-01
   1.810  0.169E-01  0.169E-01
   1.820  0.141E-01  0.141E-01
   1.830  0.118E-01  0.118E-01
   1.840  0.100E-01  0.100E-01
   1.850  0.899E-02  0.899E-02
   1.860  0.860E-02  0.860E-02
   1.870  0.879E-02  0.879E-02
   1.880  0.941E-02  0.941E-02
   1.890  0.103E-01  0.103E-01
   1.900  0.112E-01  0.112E-01
   1.910  0.121E-01  0.121E-01
   1.920  0.129E-01  0.129E-01
   1.930  0.136E-01  0.136E-01
   1.940  0.144E-01  0.144E-01
   1.950  0.153E-01  0.153E-01
   1.960  0.166E-01  0.166E-01
   1.970  0.181E-01  0.181E-01
   1.980  0.199E-01  0.199E-01
   1.990  0.216E-01  0.216E-01
   2.000  0.231E-01  0.231E-01
   2.010  0.241E-01  0.241E-01
   2.020  0.243E-01  0.243E-01
   2.030  0.239E-01  0.239E-01
   2.040  0.227E-01  0.227E-01
   2.050  0.210E-01  0.210E-01
   2.060  0.189E-01  0.189E-01
   2.070  0.168E-01  0.168E-01
   2.080  0.147E-01  0.147E-01
   2.090  0.127E-01  0.127E-01
   2.100  0.110E-01  0.110E-01
   2.110  0.944E-02  0.944E-02
   2.120  0.814E-02  0.814E-02
   2.130  0.712E-02  0.712E-02
   2.140  0.648E-02  0.648E-02
   2.150  0.632E-02  0.632E-02
   2.160  0.673E-02  0.673E-02
   2.170  0.773E-02  0.773E-02
   2.180  0.927E-02  0.927E-02
   2.190  0.112E-01  0.112E-01
   2.200  0.133E-01  0.133E-01
   2.210  0.155E-01  0.155E-01
   2.220  0.174E-01  0.174E-01
   2.230  0.190E-01  0.190E-01
   2.240  0.202E-01  0.202E-01
   2.250  0.210E-01  0.210E-01
   2.260  0.214E-01  0.214E-01
   2.270  0.215E-01  0.215E-01
   2.280  0.213E-01  0.213E-01
   2.290  0.209E-01  0.209E-01
   2.300  0.203E-01  0.203E-01
   2.310  0.197E-01  0.197E-01
   2.320  0.189E-01  0.189E-01
   2.330  0.181E-01  0.181E-01
   2.340  0.171E-01  0.171E-01
   2.350  0.162E-01  0.162E-01
   2.360  0.152E-01  0.152E-01
   2.370  0.143E-01  0.143E-01
   2.380  0.134E-01  0.134E-01
   2.390  0.125E-01  0.125E-01
   2.400  0.118E-01  0.118E-01
   2.410  0.110E-01  0.110E-01
   2.420  0.102E-01  0.102E-01
   2.430  0.927E-02  0.927E-02
   2.440  0.827E-02  0.827E-02
   2.450  0.725E-02  0.725E-02
   2.460  0.636E-02  0.636E-02
   2.470  0.581E-02  0.581E-02
   2.480  0.584E-02  0.584E-02
   2.490  0.664E-02  0.664E-02
   2.500  0.830E-02  0.830E-02
   2.510  0.108E-01  0.108E-01
   2.520  0.140E-01  0.140E-01
   2.530  0.175E-01  0.175E-01
   2.540  0.211E-01  0.211E-01
   2.550  0.243E-01  0.243E-01
   2.560  0.267E-01  0.267E-01
   2.570  0.282E-01  0.282E-01
   2.580  0.286E-01  0.286E-01
   2.590  0.280E-01  0.280E-01
   2.600  0.266E-01  0.266E-01
   2.610  0.247E-01  0.247E-01
   2.620  0.228E-01  0.228E-01
   2.630  0.210E-01  0.210E-01
   2.640  0.196E-01  0.196E-01
   2.650  0.186E-01  0.186E-01
   2.660  0.182E-01  0.182E-01
   2.670  0.180E-01  0.180E-01
   2.680  0.180E-01  0.180E-01
   2.690  0.180E-01  0.180E-01
   2.700  0.180E-01  0.180E-01
   2.710  0.178E-01  0.178E-01
   2.720  0.176E-01  0.176E-01
   2.730  0.173E-01  0.173E-01
   2.740  0.170E-01  0.170E-01
   2.750  0.167E-01  0.167E-01
   2.760  0.164E-01  0.164E-01
   2.770  0.159E-01  0.159E-01
   2.780  0.153E-01  0.153E-01
   2.790  0.146E-01  0.146E-01
   2.800  0.137E-01  0.137E-01
   2.810  0.129E-01  0.129E-01
   2.820  0.123E-01  0.123E-01
   2.830  0.123E-01  0.123E-01
   2.840  0.129E-01  0.129E-01
   2.850  0.143E-01  0.143E-01
   2.860  0.166E-01  0.166E-01
   2.870  0.195E-01  0.195E-01
   2.880  0.228E-01  0.228E-01
   2.890  0.262E-01  0.262E-01
   2.900  0.293E-01  0.293E-01
   2.910  0.317E-01  0.317E-01
   2.920  0.331E-01  0.331E-01
   2.930  0.333E-01  0.333E-01
   2.940  0.323E-01  0.323E-01
   2.950  0.303E-01  0.303E-01
   2.960  0.276E-01  0.276E-01
   2.970  0.244E-01  0.244E-01
   2.980  0.213E-01  0.213E-01
   2.990  0.184E-01  0.184E-01
   3.000  0.162E-01  0.162E-01
   3.010  0.146E-01  0.146E-01
   3.020  0.137E-01  0.137E-01
   3.030  0.133E-01  0.133E-01
   3.040  0.134E-01  0.134E-01
   3.050  0.136E-01  0.136E-01
   3.060  0.140E-01  0.140E-01
   3.070  0.142E-01  0.142E-01
   3.080  0.144E-01  0.144E-01
   3.090  0.146E-01  0.146E-01
   3.100  0.147E-01  0.147E-01
   3.110  0.150E-01  0.150E-01
   3.120  0.155E-01  0.155E-01
   3.130  0.160E-01  0.160E-01
   3.140  0.167E-01  0.167E-01
   3.150  0.173E-01  0.173E-01
   3.160  0.177E-01  0.177E-01
   3.170  0.179E-01  0.179E-01
   3.180  0.178E-01  0.178E-01
   3.190  0.174E-01  0.174E-01
   3.200  0.170E-01  0.170E-01
   3.210  0.167E-01  0.167E-01
   3.220  0.167E-01  0.167E-01
   3.230  0.172E-01  0.172E-01
   3.240  0.181E-01  0.181E-01
   3.250  0.196E-01  0.196E-01
   3.260  0.216E-01  0.216E-01
   3.270  0.238E-01  0.238E-01
   3.280  0.260E-01  0.260E-01
   3.290  0.281E-01  0.281E-01
   3.300  0.299E-01  0.299E-01
   3.310  0.311E-01  0.311E-01
   3.320  0.317E-01  0.317E-01
   3.330  0.316E-01  0.316E-01
   3.340  0.305E-01  0.305E-01
   3.350  0.287E-01  0.287E-01
   3.360  0.260E-01  0.260E-01
   3.370  0.229E-01  0.229E-01
   3.380  0.195E-01  0.195E-01
   3.390  0.162E-01  0.162E-01
   3.400  0.135E-01  0.135E-01
   3.410  0.115E-01  0.115E-01
   3.420  0.104E-01  0.104E-01
   3.430  0.103E-01  0.103E-01
   3.440  0.108E-01  0.108E-01
   3.450  0.117E-01  0.117E-01
   3.460  0.127E-01  0.127E-01
   3.470  0.135E-01  0.135E-01
   3.480  0.139E-01  0.139E-01
   3.490  0.141E-01  0.141E-01
   3.500  0.140E-01  0.140E-01
   3.510  0.139E-01  0.139E-01
   3.520  0.141E-01  0.141E-01
   3.530  0.146E-01  0.146E-01
   3.540  0.156E-01  0.156E-01
   3.550  0.169E-01  0.169E-01
   3.560  0.186E-01  0.186E-01
   3.570  0.204E-01  0.204E-01
   3.580  0.222E-01  0.222E-01
   3.590  0.238E-01  0.238E-01
   3.600  0.250E-01  0.250E-01
   3.610  0.259E-01  0.259E-01
   3.620  0.264E-01  0.264E-01
   3.630  0.264E-01  0.264E-01
   3.640  0.260E-01  0.260E-01
   3.650  0.254E-01  0.254E-01
   3.660  0.246E-01  0.246E-01
   3.670  0.238E-01  0.238E-01
   3.680  0.230E-01  0.230E-01
   3.690  0.225E-01  0.225E-01
   3.700  0.222E-01  0.222E-01
   3.710  0.223E-01  0.223E-01
   3.720  0.228E-01  0.228E-01
   3.730  0.237E-01  0.237E-01
   3.740  0.248E-01  0.248E-01
   3.750  0.259E-01  0.259E-01
   3.760  0.269E-01  0.269E-01
   3.770  0.273E-01  0.273E-01
   3.780  0.270E-01  0.270E-01
   3.790  0.259E-01  0.259E-01
   3.800  0.239E-01  0.239E-01
   3.810  0.214E-01  0.214E-01
   3.820  0.186E-01  0.186E-01
   3.830  0.160E-01  0.160E-01
   3.840  0.138E-01  0.138E-01
   3.850  0.124E-01  0.124E-01
   3.860  0.118E-01  0.118E-01
   3.870  0.120E-01  0.120E-01
   3.880  0.128E-01  0.128E-01
   3.890  0.139E-01  0.139E-01
   3.900  0.148E-01  0.148E-01
   3.910  0.155E-01  0.155E-01
   3.920  0.156E-01  0.156E-01
   3.930  0.154E-01  0.154E-01
   3.940  0.149E-01  0.149E-01
   3.950  0.143E-01  0.143E-01
   3.960  0.140E-01  0.140E-01
   3.970  0.142E-01  0.142E-01
   3.980  0.151E-01  0.151E-01
   3.990  0.167E-01  0.167E-01
   4.000  0.192E-01  0.192E-01
   4.010  0.223E-01  0.223E-01
   4.020  0.259E-01  0.259E-01
   4.030  0.296E-01  0.296E-01
   4.040  0.329E-01  0.329E-01
   4.050  0.356E-01  0.356E-01
   4.060  0.371E-01  0.371E-01
   4.070  0.374E-01  0.374E-01
   4.080  0.364E-01  0.364E-01
   4.090  0.342E-01  0.342E-01
   4.100  0.313E-01  0.313E-01
   4.110  0.280E-01  0.280E-01
   4.120  0.248E-01  0.248E-01
   4.130  0.221E-01  0.221E-01
   4.140  0.202E-01  0.202E-01
   4.150  0.192E-01  0.192E-01
   4.160  0.191E-01  0.191E-01
   4.170  0.198E-01  0.198E-01
   4.180  0.212E-01  0.212E-01
   4.190  0.231E-01  0.231E-01
   4.200  0.253E-01  0.253E-01
   4.210  0.274E-01  0.274E-01
   4.220  0.292E-01  0.292E-01
   4.230  0.303E-01  0.303E-01
   4.240  0.302E-01  0.302E-01
   4.250  0.289E-01  0.289E-01
   4.260  0.263E-01  0.263E-01
   4.270  0.227E-01  0.227E-01
   4.280  0.185E-01  0.185E-01
   4.290  0.144E-01  0.144E-01
   4.300  0.110E-01  0.110E-01
   4.310  0.871E-02  0.871E-02
   4.320  0.782E-02  0.782E-02
   4.330  0.835E-02  0.835E-02
   4.340  0.101E-01  0.101E-01
   4.350  0.126E-01  0.126E-01
   4.360  0.154E-01  0.154E-01
   4.370  0.180E-01  0.180E-01
   4.380  0.202E-01  0.202E-01
   4.390  0.216E-01  0.216E-01
   4.400  0.224E-01  0.224E-01
   4.410  0.228E-01  0.228E-01
   4.420  0.229E-01  0.229E-01
   4.430  0.232E-01  0.232E-01
   4.440  0.240E-01  0.240E-01
   4.450  0.255E-01  0.255E-01
   4.460  0.277E-01  0.277E-01
   4.470  0.307E-01  0.307E-01
   4.480  0.340E-01  0.340E-01
   4.490  0.375E-01  0.375E-01
   4.500  0.406E-01  0.406E-01
   4.510  0.429E-01  0.429E-01
   4.520  0.440E-01  0.440E-01
   4.530  0.435E-01  0.435E-01
   4.540  0.415E-01  0.415E-01
   4.550  0.382E-01  0.382E-01
   4.560  0.339E-01  0.339E-01
   4.570  0.293E-01  0.293E-01
   4.580  0.248E-01  0.248E-01
   4.590  0.212E-01  0.212E-01
   4.600  0.185E-01  0.185E-01
   4.610  0.171E-01  0.171E-01
   4.620  0.169E-01  0.169E-01
   4.630  0.176E-01  0.176E-01
   4.640  0.191E-01  0.191E-01
   4.650  0.211E-01  0.211E-01
   4.660  0.236E-01  0.236E-01
   4.670  0.263E-01  0.263E-01
   4.680  0.291E-01  0.291E-01
   4.690  0.318E-01  0.318E-01
   4.700  0.341E-01  0.341E-01
   4.710  0.357E-01  0.357E-01
   4.720  0.362E-01  0.362E-01
   4.730  0.353E-01  0.353E-01
   4.740  0.332E-01  0.332E-01
   4.750  0.299E-01  0.299E-01
   4.760  0.259E-01  0.259E-01
   4.770  0.217E-01  0.217E-01
   4.780  0.179E-01  0.179E-01
   4.790  0.150E-01  0.150E-01
   4.800  0.133E-01  0.133E-01
   4.810  0.130E-01  0.130E-01
   4.820  0.139E-01  0.139E-01
   4.830  0.157E-01  0.157E-01
   4.840  0.181E-01  0.181E-01
   4.850  0.206E-01  0.206E-01
   4.860  0.230E-01  0.230E-01
   4.870  0.249E-01  0.249E-01
   4.880  0.263E-01  0.263E-01
   4.890  0.274E-01  0.274E-01
   4.900  0.283E-01  0.283E-01
   4.910  0.293E-01  0.293E-01
   4.920  0.307E-01  0.307E-01
   4.930  0.327E-01  0.327E-01
   4.940  0.352E-01  0.352E-01
   4.950  0.383E-01  0.383E-01
   4.960  0.417E-01  0.417E-01
   4.970  0.451E-01  0.451E-01
   4.980  0.480E-01  0.480E-01
   4.990  0.500E-01  0.500E-01
   5.000  0.508E-01  0.508E-01
   5.010  0.501E-01  0.501E-01
   5.020  0.479E-01  0.479E-01
   5.030  0.442E-01  0.442E-01
   5.040  0.396E-01  0.396E-01
   5.050  0.345E-01  0.345E-01
   5.060  0.296E-01  0.296E-01
   5.070  0.254E-01  0.254E-01
   5.080  0.226E-01  0.226E-01
   5.090  0.214E-01  0.214E-01
   5.100  0.219E-01  0.219E-01
   5.110  0.241E-01  0.241E-01
   5.120  0.276E-01  0.276E-01
   5.130  0.319E-01  0.319E-01
   5.140  0.365E-01  0.365E-01
   5.150  0.408E-01  0.408E-01
   5.160  0.442E-01  0.442E-01
   5.170  0.463E-01  0.463E-01
   5.180  0.471E-01  0.471E-01
   5.190  0.463E-01  0.463E-01
   5.200  0.443E-01  0.443E-01
   5.210  0.412E-01  0.412E-01
   5.220  0.373E-01  0.373E-01
   5.230  0.329E-01  0.329E-01
   5.240  0.284E-01  0.284E-01
   5.250  0.240E-01  0.240E-01
   5.260  0.201E-01  0.201E-01
   5.270  0.172E-01  0.172E-01
   5.280  0.155E-01  0.155E-01
   5.290  0.154E-01  0.154E-01
   5.300  0.171E-01  0.171E-01
   5.310  0.204E-01  0.204E-01
   5.320  0.250E-01  0.250E-01
   5.330  0.302E-01  0.302E-01
   5.340  0.354E-01  0.354E-01
   5.350  0.397E-01  0.397E-01
   5.360  0.426E-01  0.426E-01
   5.370  0.437E-01  0.437E-01
   5.380  0.434E-01  0.434E-01
   5.390  0.420E-01  0.420E-01
   5.400  0.404E-01  0.404E-01
   5.410  0.395E-01  0.395E-01
   5.420  0.400E-01  0.400E-01
   5.430  0.424E-01  0.424E-01
   5.440  0.464E-01  0.464E-01
   5.450  0.515E-01  0.515E-01
   5.460  0.568E-01  0.568E-01
   5.470  0.611E-01  0.611E-01
   5.480  0.637E-01  0.637E-01
   5.490  0.640E-01  0.640E-01
   5.500  0.620E-01  0.620E-01
   5.510  0.584E-01  0.584E-01
   5.520  0.541E-01  0.541E-01
   5.530  0.501E-01  0.501E-01
   5.540  0.473E-01  0.473E-01
   5.550  0.464E-01  0.464E-01
   5.560  0.474E-01  0.474E-01
   5.570  0.498E-01  0.498E-01
   5.580  0.530E-01  0.530E-01
   5.590  0.560E-01  0.560E-01
   5.600  0.579E-01  0.579E-01
   5.610  0.582E-01  0.582E-01
   5.620  0.568E-01  0.568E-01
   5.630  0.538E-01  0.538E-01
   5.640  0.498E-01  0.498E-01
   5.650  0.455E-01  0.455E-01
   5.660  0.417E-01  0.417E-01
   5.670  0.388E-01  0.388E-01
   5.680  0.374E-01  0.374E-01
   5.690  0.375E-01  0.375E-01
   5.700  0.392E-01  0.392E-01
   5.710  0.419E-01  0.419E-01
   5.720  0.454E-01  0.454E-01
   5.730  0.489E-01  0.489E-01
   5.740  0.518E-01  0.518E-01
   5.750  0.539E-01  0.539E-01
   5.760  0.548E-01  0.548E-01
   5.770  0.550E-01  0.550E-01
   5.780  0.547E-01  0.547E-01
   5.790  0.546E-01  0.546E-01
   5.800  0.552E-01  0.552E-01
   5.810  0.570E-01  0.570E-01
   5.820  0.602E-01  0.602E-01
   5.830  0.647E-01  0.647E-01
   5.840  0.701E-01  0.701E-01
   5.850  0.761E-01  0.761E-01
   5.860  0.821E-01  0.821E-01
   5.870  0.877E-01  0.877E-01
   5.880  0.924E-01  0.924E-01
   5.890  0.958E-01  0.958E-01
   5.900  0.976E-01  0.976E-01
   5.910  0.979E-01  0.979E-01
   5.920  0.966E-01  0.966E-01
   5.930  0.941E-01  0.941E-01
   5.940  0.907E-01  0.907E-01
   5.950  0.868E-01  0.868E-01
   5.960  0.826E-01  0.826E-01
   5.970  0.784E-01  0.784E-01
   5.980  0.745E-01  0.745E-01
   5.990  0.711E-01  0.711E-01
   6.000  0.686E-01  0.686E-01
   6.010  0.678E-01  0.678E-01
   6.020  0.693E-01  0.693E-01
   6.030  0.740E-01  0.740E-01
   6.040  0.823E-01  0.823E-01
   6.050  0.945E-01  0.945E-01
   6.060  0.110E+00  0.110E+00
   6.070  0.129E+00  0.129E+00
   6.080  0.148E+00  0.148E+00
   6.090  0.168E+00  0.168E+00
   6.100  0.186E+00  0.186E+00
   6.110  0.201E+00  0.201E+00
   6.120  0.213E+00  0.213E+00
   6.130  0.220E+00  0.220E+00
   6.140  0.223E+00  0.223E+00
   6.150  0.223E+00  0.223E+00
   6.160  0.217E+00  0.217E+00
   6.170  0.208E+00  0.208E+00
   6.180  0.195E+00  0.195E+00
   6.190  0.179E+00  0.179E+00
   6.200  0.161E+00  0.161E+00
   6.210  0.143E+00  0.143E+00
   6.220  0.124E+00  0.124E+00
   6.230  0.108E+00  0.108E+00
   6.240  0.949E-01  0.949E-01
   6.250  0.854E-01  0.854E-01
   6.260  0.795E-01  0.795E-01
   6.270  0.764E-01  0.764E-01
   6.280  0.749E-01  0.749E-01
   6.290  0.736E-01  0.736E-01
   6.300  0.714E-01  0.714E-01
   6.310  0.673E-01  0.673E-01
   6.320  0.613E-01  0.613E-01
   6.330  0.538E-01  0.538E-01
   6.340  0.458E-01  0.458E-01
   6.350  0.386E-01  0.386E-01
   6.360  0.334E-01  0.334E-01
   6.370  0.312E-01  0.312E-01
   6.380  0.323E-01  0.323E-01
   6.390  0.368E-01  0.368E-01
   6.400  0.439E-01  0.439E-01
   6.410  0.527E-01  0.527E-01
   6.420  0.617E-01  0.617E-01
   6.430  0.698E-01  0.698E-01
   6.440  0.762E-01  0.762E-01
   6.450  0.804E-01  0.804E-01
   6.460  0.829E-01  0.829E-01
   6.470  0.847E-01  0.847E-01
   6.480  0.871E-01  0.871E-01
   6.490  0.912E-01  0.912E-01
   6.500  0.978E-01  0.978E-01
   6.510  0.107E+00  0.107E+00
   6.520  0.118E+00  0.118E+00
   6.530  0.130E+00  0.130E+00
   6.540  0.141E+00  0.141E+00
   6.550  0.149E+00  0.149E+00
   6.560  0.154E+00  0.154E+00
   6.570  0.155E+00  0.155E+00
   6.580  0.151E+00  0.151E+00
   6.590  0.144E+00  0.144E+00
   6.600  0.134E+00  0.134E+00
   6.610  0.123E+00  0.123E+00
   6.620  0.111E+00  0.111E+00
   6.630  0.999E-01  0.999E-01
   6.640  0.890E-01  0.890E-01
   6.650  0.785E-01  0.785E-01
   6.660  0.685E-01  0.685E-01
   6.670  0.590E-01  0.590E-01
   6.680  0.500E-01  0.500E-01
   6.690  0.421E-01  0.421E-01
   6.700  0.360E-01  0.360E-01
   6.710  0.322E-01  0.322E-01
   6.720  0.314E-01  0.314E-01
   6.730  0.339E-01  0.339E-01
   6.740  0.395E-01  0.395E-01
   6.750  0.478E-01  0.478E-01
   6.760  0.577E-01  0.577E-01
   6.770  0.683E-01  0.683E-01
   6.780  0.783E-01  0.783E-01
   6.790  0.870E-01  0.870E-01
   6.800  0.936E-01  0.936E-01
   6.810  0.978E-01  0.978E-01
   6.820  0.997E-01  0.997E-01
   6.830  0.995E-01  0.995E-01
   6.840  0.974E-01  0.974E-01
   6.850  0.935E-01  0.935E-01
   6.860  0.880E-01  0.880E-01
   6.870  0.809E-01  0.809E-01
   6.880  0.725E-01  0.725E-01
   6.890  0.632E-01  0.632E-01
   6.900  0.536E-01  0.536E-01
   6.910  0.445E-01  0.445E-01
   6.920  0.370E-01  0.370E-01
   6.930  0.318E-01  0.318E-01
   6.940  0.294E-01  0.294E-01
   6.950  0.299E-01  0.299E-01
   6.960  0.334E-01  0.334E-01
   6.970  0.392E-01  0.392E-01
   6.980  0.468E-01  0.468E-01
   6.990  0.555E-01  0.555E-01
   7.000  0.648E-01  0.648E-01
   7.010  0.741E-01  0.741E-01
   7.020  0.834E-01  0.834E-01
   7.030  0.927E-01  0.927E-01
   7.040  0.102E+00  0.102E+00
   7.050  0.112E+00  0.112E+00
   7.060  0.123E+00  0.123E+00
   7.070  0.135E+00  0.135E+00
   7.080  0.147E+00  0.147E+00
   7.090  0.158E+00  0.158E+00
   7.100  0.168E+00  0.168E+00
   7.110  0.175E+00  0.175E+00
   7.120  0.180E+00  0.180E+00
   7.130  0.181E+00  0.181E+00
   7.140  0.179E+00  0.179E+00
   7.150  0.172E+00  0.172E+00
   7.160  0.161E+00  0.161E+00
   7.170  0.147E+00  0.147E+00
   7.180  0.130E+00  0.130E+00
   7.190  0.110E+00  0.110E+00
   7.200  0.892E-01  0.892E-01
   7.210  0.678E-01  0.678E-01
   7.220  0.474E-01  0.474E-01
   7.230  0.293E-01  0.293E-01
   7.240  0.146E-01  0.146E-01
   7.250  0.397E-02  0.397E-02
   7.260 -0.219E-02 -0.219E-02
   7.270 -0.411E-02 -0.411E-02
   7.280 -0.235E-02 -0.235E-02
   7.290  0.227E-02  0.227E-02
   7.300  0.880E-02  0.880E-02
   7.310  0.163E-01  0.163E-01
   7.320  0.241E-01  0.241E-01
   7.330  0.314E-01  0.314E-01
   7.340  0.380E-01  0.380E-01
   7.350  0.436E-01  0.436E-01
   7.360  0.480E-01  0.480E-01
   7.370  0.512E-01  0.512E-01
   7.380  0.533E-01  0.533E-01
   7.390  0.545E-01  0.545E-01
   7.400  0.551E-01  0.551E-01
   7.410  0.555E-01  0.555E-01
   7.420  0.563E-01  0.563E-01
   7.430  0.578E-01  0.578E-01
   7.440  0.602E-01  0.602E-01
   7.450  0.636E-01  0.636E-01
   7.460  0.676E-01  0.676E-01
   7.470  0.714E-01  0.714E-01
   7.480  0.745E-01  0.745E-01
   7.490  0.763E-01  0.763E-01
   7.500  0.764E-01  0.764E-01
   7.510  0.752E-01  0.752E-01
   7.520  0.731E-01  0.731E-01
   7.530  0.712E-01  0.712E-01
   7.540  0.706E-01  0.706E-01
   7.550  0.723E-01  0.723E-01
   7.560  0.770E-01  0.770E-01
   7.570  0.851E-01  0.851E-01
   7.580  0.963E-01  0.963E-01
   7.590  0.110E+00  0.110E+00
   7.600  0.124E+00  0.124E+00
   7.610  0.138E+00  0.138E+00
   7.620  0.149E+00  0.149E+00
   7.630  0.156E+00  0.156E+00
   7.640  0.158E+00  0.158E+00
   7.650  0.154E+00  0.154E+00
   7.660  0.145E+00  0.145E+00
   7.670  0.131E+00  0.131E+00
   7.680  0.113E+00  0.113E+00
   7.690  0.930E-01  0.930E-01
   7.700  0.734E-01  0.734E-01
   7.710  0.552E-01  0.552E-01
   7.720  0.395E-01  0.395E-01
   7.730  0.267E-01  0.267E-01
   7.740  0.168E-01  0.168E-01
   7.750  0.951E-02  0.951E-02
   7.760  0.437E-02  0.437E-02
   7.770  0.892E-03  0.892E-03
   7.780 -0.126E-02 -0.126E-02
   7.790 -0.229E-02 -0.229E-02
   7.800 -0.232E-02 -0.232E-02
   7.810 -0.137E-02 -0.137E-02
   7.820  0.544E-03  0.544E-03
   7.830  0.344E-02  0.344E-02
   7.840  0.737E-02  0.737E-02
   7.850  0.125E-01  0.125E-01
   7.860  0.189E-01  0.189E-01
   7.870  0.269E-01  0.269E-01
   7.880  0.366E-01  0.366E-01
   7.890  0.479E-01  0.479E-01
   7.900  0.603E-01  0.603E-01
   7.910  0.731E-01  0.731E-01
   7.920  0.850E-01  0.850E-01
   7.930  0.947E-01  0.947E-01
   7.940  0.101E+00  0.101E+00
   7.950  0.103E+00  0.103E+00
   7.960  0.100E+00  0.100E+00
   7.970  0.932E-01  0.932E-01
   7.980  0.831E-01  0.831E-01
   7.990  0.714E-01  0.714E-01
   8.000  0.594E-01  0.594E-01
   8.010  0.486E-01  0.486E-01
   8.020  0.399E-01  0.399E-01
   8.030  0.335E-01  0.335E-01
   8.040  0.298E-01  0.298E-01
   8.050  0.285E-01  0.285E-01
   8.060  0.296E-01  0.296E-01
   8.070  0.329E-01  0.329E-01
   8.080  0.384E-01  0.384E-01
   8.090  0.459E-01  0.459E-01
   8.100  0.554E-01  0.554E-01
   8.110  0.663E-01  0.663E-01
   8.120  0.779E-01  0.779E-01
   8.130  0.896E-01  0.896E-01
   8.140  0.100E+00  0.100E+00
   8.150  0.109E+00  0.109E+00
   8.160  0.116E+00  0.116E+00
   8.170  0.119E+00  0.119E+00
   8.180  0.120E+00  0.120E+00
   8.190  0.116E+00  0.116E+00
   8.200  0.110E+00  0.110E+00
   8.210  0.100E+00  0.100E+00
   8.220  0.870E-01  0.870E-01
   8.230  0.717E-01  0.717E-01
   8.240  0.553E-01  0.553E-01
   8.250  0.391E-01  0.391E-01
   8.260  0.247E-01  0.247E-01
   8.270  0.134E-01  0.134E-01
   8.280  0.623E-02  0.623E-02
   8.290  0.371E-02  0.371E-02
   8.300  0.578E-02  0.578E-02
   8.310  0.119E-01  0.119E-01
   8.320  0.212E-01  0.212E-01
   8.330  0.326E-01  0.326E-01
   8.340  0.447E-01  0.447E-01
   8.350  0.562E-01  0.562E-01
   8.360  0.660E-01  0.660E-01
   8.370  0.730E-01  0.730E-01
   8.380  0.762E-01  0.762E-01
   8.390  0.754E-01  0.754E-01
   8.400  0.706E-01  0.706E-01
   8.410  0.624E-01  0.624E-01
   8.420  0.520E-01  0.520E-01
   8.430  0.406E-01  0.406E-01
   8.440  0.297E-01  0.297E-01
   8.450  0.207E-01  0.207E-01
   8.460  0.146E-01  0.146E-01
   8.470  0.119E-01  0.119E-01
   8.480  0.127E-01  0.127E-01
   8.490  0.166E-01  0.166E-01
   8.500  0.231E-01  0.231E-01
   8.510  0.314E-01  0.314E-01
   8.520  0.408E-01  0.408E-01
   8.530  0.505E-01  0.505E-01
   8.540  0.598E-01  0.598E-01
   8.550  0.682E-01  0.682E-01
   8.560  0.752E-01  0.752E-01
   8.570  0.802E-01  0.802E-01
   8.580  0.832E-01  0.832E-01
   8.590  0.837E-01  0.837E-01
   8.600  0.820E-01  0.820E-01
   8.610  0.781E-01  0.781E-01
   8.620  0.725E-01  0.725E-01
   8.630  0.659E-01  0.659E-01
   8.640  0.594E-01  0.594E-01
   8.650  0.539E-01  0.539E-01
   8.660  0.507E-01  0.507E-01
   8.670  0.507E-01  0.507E-01
   8.680  0.543E-01  0.543E-01
   8.690  0.613E-01  0.613E-01
   8.700  0.708E-01  0.708E-01
   8.710  0.813E-01  0.813E-01
   8.720  0.909E-01  0.909E-01
   8.730  0.976E-01  0.976E-01
   8.740  0.100E+00  0.100E+00
   8.750  0.974E-01  0.974E-01
   8.760  0.899E-01  0.899E-01
   8.770  0.784E-01  0.784E-01
   8.780  0.645E-01  0.645E-01
   8.790  0.502E-01  0.502E-01
   8.800  0.372E-01  0.372E-01
   8.810  0.270E-01  0.270E-01
   8.820  0.202E-01  0.202E-01
   8.830  0.170E-01  0.170E-01
   8.840  0.170E-01  0.170E-01
   8.850  0.191E-01  0.191E-01
   8.860  0.223E-01  0.223E-01
   8.870  0.257E-01  0.257E-01
   8.880  0.284E-01  0.284E-01
   8.890  0.301E-01  0.301E-01
   8.900  0.309E-01  0.309E-01
   8.910  0.311E-01  0.311E-01
   8.920  0.314E-01  0.314E-01
   8.930  0.324E-01  0.324E-01
   8.940  0.346E-01  0.346E-01
   8.950  0.379E-01  0.379E-01
   8.960  0.419E-01  0.419E-01
   8.970  0.460E-01  0.460E-01
   8.980  0.493E-01  0.493E-01
   8.990  0.511E-01  0.511E-01
   9.000  0.509E-01  0.509E-01
   9.010  0.488E-01  0.488E-01
   9.020  0.454E-01  0.454E-01
   9.030  0.415E-01  0.415E-01
   9.040  0.384E-01  0.384E-01
   9.050  0.370E-01  0.370E-01
   9.060  0.381E-01  0.381E-01
   9.070  0.420E-01  0.420E-01
   9.080  0.484E-01  0.484E-01
   9.090  0.569E-01  0.569E-01
   9.100  0.665E-01  0.665E-01
   9.110  0.762E-01  0.762E-01
   9.120  0.849E-01  0.849E-01
   9.130  0.920E-01  0.920E-01
   9.140  0.966E-01  0.966E-01
   9.150  0.986E-01  0.986E-01
   9.160  0.977E-01  0.977E-01
   9.170  0.942E-01  0.942E-01
   9.180  0.882E-01  0.882E-01
   9.190  0.802E-01  0.802E-01
   9.200  0.704E-01  0.704E-01
   9.210  0.596E-01  0.596E-01
   9.220  0.482E-01  0.482E-01
   9.230  0.370E-01  0.370E-01
   9.240  0.267E-01  0.267E-01
   9.250  0.182E-01  0.182E-01
   9.260  0.122E-01  0.122E-01
   9.270  0.922E-02  0.922E-02
   9.280  0.954E-02  0.954E-02
   9.290  0.131E-01  0.131E-01
   9.300  0.195E-01  0.195E-01
   9.310  0.281E-01  0.281E-01
   9.320  0.379E-01  0.379E-01
   9.330  0.478E-01  0.478E-01
   9.340  0.570E-01  0.570E-01
   9.350  0.645E-01  0.645E-01
   9.360  0.697E-01  0.697E-01
   9.370  0.723E-01  0.723E-01
   9.380  0.722E-01  0.722E-01
   9.390  0.697E-01  0.697E-01
   9.400  0.653E-01  0.653E-01
   9.410  0.598E-01  0.598E-01
   9.420  0.537E-01  0.537E-01
   9.430  0.479E-01  0.479E-01
   9.440  0.426E-01  0.426E-01
   9.450  0.383E-01  0.383E-01
   9.460  0.346E-01  0.346E-01
   9.470  0.314E-01  0.314E-01
   9.480  0.283E-01  0.283E-01
   9.490  0.250E-01  0.250E-01
   9.500  0.212E-01  0.212E-01
   9.510  0.171E-01  0.171E-01
   9.520  0.131E-01  0.131E-01
   9.530  0.977E-02  0.977E-02
   9.540  0.760E-02  0.760E-02
   9.550  0.711E-02  0.711E-02
   9.560  0.857E-02  0.857E-02
   9.570  0.120E-01  0.120E-01
   9.580  0.170E-01  0.170E-01
   9.590  0.232E-01  0.232E-01
   9.600  0.299E-01  0.299E-01
   9.610  0.364E-01  0.364E-01
   9.620  0.420E-01  0.420E-01
   9.630  0.464E-01  0.464E-01
   9.640  0.494E-01  0.494E-01
   9.650  0.510E-01  0.510E-01
   9.660  0.517E-01  0.517E-01
   9.670  0.516E-01  0.516E-01
   9.680  0.511E-01  0.511E-01
   9.690  0.503E-01  0.503E-01
   9.700  0.489E-01  0.489E-01
   9.710  0.469E-01  0.469E-01
   9.720  0.438E-01  0.438E-01
   9.730  0.394E-01  0.394E-01
   9.740  0.338E-01  0.338E-01
   9.750  0.271E-01  0.271E-01
   9.760  0.199E-01  0.199E-01
   9.770  0.129E-01  0.129E-01
   9.780  0.655E-02  0.655E-02
   9.790  0.140E-02  0.140E-02
   9.800 -0.230E-02 -0.230E-02
   9.810 -0.454E-02 -0.454E-02
   9.820 -0.549E-02 -0.549E-02
   9.830 -0.544E-02 -0.544E-02
   9.840 -0.473E-02 -0.473E-02
   9.850 -0.364E-02 -0.364E-02
   9.860 -0.238E-02 -0.238E-02
   9.870 -0.104E-02 -0.104E-02
   9.880  0.405E-03  0.405E-03
   9.890  0.203E-02  0.203E-02
   9.900  0.398E-02  0.398E-02
   9.910  0.637E-02  0.637E-02
   9.920  0.933E-02  0.933E-02
   9.930  0.129E-01  0.129E-01
   9.940  0.170E-01  0.170E-01
   9.950  0.215E-01  0.215E-01
   9.960  0.262E-01  0.262E-01
   9.970  0.309E-01  0.309E-01
   9.980  0.354E-01  0.354E-01
   9.990  0.393E-01  0.393E-01
  10.000  0.426E-01  0.426E-01
  10.010  0.451E-01  0.451E-01
  10.020  0.464E-01  0.464E-01
  10.030  0.464E-01  0.464E-01
  10.040  0.449E-01  0.449E-01
  10.050  0.418E-01  0.418E-01
  10.060  0.373E-01  0.373E-01
  10.070  0.317E-01  0.317E-01
  10.080  0.254E-01  0.254E-01
  10.090  0.194E-01  0.194E-01
  10.100  0.144E-01  0.144E-01
  10.110  0.112E-01  0.112E-01
  10.120  0.103E-01  0.103E-01
  10.130  0.119E-01  0.119E-01
  10.140  0.158E-01  0.158E-01
  10.150  0.215E-01  0.215E-01
  10.160  0.281E-01  0.281E-01
  10.170  0.347E-01  0.347E-01
  10.180  0.405E-01  0.405E-01
  10.190  0.446E-01  0.446E-01
  10.200  0.468E-01  0.468E-01
  10.210  0.471E-01  0.471E-01
  10.220  0.458E-01  0.458E-01
  10.230  0.435E-01  0.435E-01
  10.240  0.408E-01  0.408E-01
  10.250  0.382E-01  0.382E-01
  10.260  0.359E-01  0.359E-01
  10.270  0.338E-01  0.338E-01
  10.280  0.316E-01  0.316E-01
  10.290  0.291E-01  0.291E-01
  10.300  0.261E-01  0.261E-01
  10.310  0.227E-01  0.227E-01
  10.320  0.192E-01  0.192E-01
  10.330  0.161E-01  0.161E-01
  10.340  0.141E-01  0.141E-01
  10.350  0.135E-01  0.135E-01
  10.360  0.144E-01  0.144E-01
  10.370  0.166E-01  0.166E-01
  10.380  0.197E-01  0.197E-01
  10.390  0.232E-01  0.232E-01
  10.400  0.263E-01  0.263E-01
  10.410  0.286E-01  0.286E-01
  10.420  0.296E-01  0.296E-01
  10.430  0.291E-01  0.291E-01
  10.440  0.272E-01  0.272E-01
  10.450  0.241E-01  0.241E-01
  10.460  0.201E-01  0.201E-01
  10.470  0.156E-01  0.156E-01
  10.480  0.110E-01  0.110E-01
  10.490  0.680E-02  0.680E-02
  10.500  0.318E-02  0.318E-02
  10.510  0.360E-03  0.360E-03
  10.520 -0.158E-02 -0.158E-02
  10.530 -0.269E-02 -0.269E-02
  10.540 -0.310E-02 -0.310E-02
  10.550 -0.298E-02 -0.298E-02
  10.560 -0.253E-02 -0.253E-02
  10.570 -0.189E-02 -0.189E-02
  10.580 -0.120E-02 -0.120E-02
  10.590 -0.536E-03 -0.536E-03
  10.600  0.490E-04  0.490E-04
  10.610  0.535E-03  0.535E-03
  10.620  0.911E-03  0.911E-03
  10.630  0.117E-02  0.117E-02
  10.640  0.132E-02  0.132E-02
  10.650  0.135E-02  0.135E-02
  10.660  0.127E-02  0.127E-02
  10.670  0.111E-02  0.111E-02
  10.680  0.892E-03  0.892E-03
  10.690  0.643E-03  0.643E-03
  10.700  0.398E-03  0.398E-03
  10.710  0.183E-03  0.183E-03
  10.720  0.161E-04  0.161E-04
  10.730 -0.963E-04 -0.963E-04
  10.740 -0.157E-03 -0.157E-03
  10.750 -0.177E-03 -0.177E-03
  10.760 -0.167E-03 -0.167E-03
  10.770 -0.141E-03 -0.141E-03
  10.780 -0.109E-03 -0.109E-03
  10.790 -0.789E-04 -0.789E-04
  10.800 -0.534E-04 -0.534E-04
  10.810 -0.340E-04 -0.340E-04
  10.820 -0.205E-04 -0.205E-04
  10.830 -0.117E-04 -0.117E-04
