# E (eV)   ldos(E)   pdos(E)    pdos(E)    pdos(E)   
 -20.380  0.264E-09  0.225E-10  0.121E-09  0.121E-09
 -20.370  0.799E-09  0.658E-10  0.366E-09  0.366E-09
 -20.360  0.232E-08  0.184E-09  0.107E-08  0.107E-08
 -20.350  0.647E-08  0.496E-09  0.299E-08  0.299E-08
 -20.340  0.173E-07  0.128E-08  0.801E-08  0.801E-08
 -20.330  0.444E-07  0.315E-08  0.206E-07  0.206E-07
 -20.320  0.109E-06  0.746E-08  0.510E-07  0.510E-07
 -20.310  0.259E-06  0.169E-07  0.121E-06  0.121E-06
 -20.300  0.589E-06  0.367E-07  0.276E-06  0.276E-06
 -20.290  0.129E-05  0.765E-07  0.604E-06  0.604E-06
 -20.280  0.270E-05  0.153E-06  0.127E-05  0.127E-05
 -20.270  0.543E-05  0.293E-06  0.257E-05  0.257E-05
 -20.260  0.105E-04  0.537E-06  0.500E-05  0.500E-05
 -20.250  0.196E-04  0.946E-06  0.935E-05  0.935E-05
 -20.240  0.353E-04  0.160E-05  0.168E-04  0.168E-04
 -20.230  0.609E-04  0.259E-05  0.292E-04  0.292E-04
 -20.220  0.101E-03  0.404E-05  0.487E-04  0.487E-04
 -20.210  0.163E-03  0.604E-05  0.784E-04  0.784E-04
 -20.200  0.252E-03  0.869E-05  0.122E-03  0.122E-03
 -20.190  0.377E-03  0.120E-04  0.183E-03  0.183E-03
 -20.180  0.545E-03  0.160E-04  0.265E-03  0.265E-03
 -20.170  0.763E-03  0.205E-04  0.371E-03  0.371E-03
 -20.160  0.104E-02  0.253E-04  0.505E-03  0.505E-03
 -20.150  0.136E-02  0.302E-04  0.666E-03  0.666E-03
 -20.140  0.174E-02  0.350E-04  0.854E-03  0.854E-03
 -20.130  0.217E-02  0.392E-04  0.107E-02  0.107E-02
 -20.120  0.264E-02  0.427E-04  0.130E-02  0.130E-02
 -20.110  0.313E-02  0.454E-04  0.154E-02  0.154E-02
 -20.100  0.365E-02  0.472E-04  0.180E-02  0.180E-02
 -20.090  0.417E-02  0.482E-04  0.206E-02  0.206E-02
 -20.080  0.468E-02  0.487E-04  0.232E-02  0.232E-02
 -20.070  0.519E-02  0.487E-04  0.257E-02  0.257E-02
 -20.060  0.569E-02  0.486E-04  0.282E-02  0.282E-02
 -20.050  0.617E-02  0.485E-04  0.306E-02  0.306E-02
 -20.040  0.664E-02  0.489E-04  0.330E-02  0.330E-02
 -20.030  0.709E-02  0.499E-04  0.352E-02  0.352E-02
 -20.020  0.754E-02  0.521E-04  0.374E-02  0.374E-02
 -20.010  0.797E-02  0.559E-04  0.396E-02  0.396E-02
 -20.000  0.840E-02  0.619E-04  0.417E-02  0.417E-02
 -19.990  0.882E-02  0.708E-04  0.437E-02  0.437E-02
 -19.980  0.924E-02  0.833E-04  0.458E-02  0.458E-02
 -19.970  0.967E-02  0.100E-03  0.478E-02  0.478E-02
 -19.960  0.101E-01  0.121E-03  0.499E-02  0.499E-02
 -19.950  0.105E-01  0.146E-03  0.519E-02  0.519E-02
 -19.940  0.110E-01  0.175E-03  0.540E-02  0.540E-02
 -19.930  0.114E-01  0.206E-03  0.561E-02  0.561E-02
 -19.920  0.119E-01  0.237E-03  0.582E-02  0.582E-02
 -19.910  0.123E-01  0.266E-03  0.603E-02  0.603E-02
 -19.900  0.128E-01  0.292E-03  0.625E-02  0.625E-02
 -19.890  0.132E-01  0.312E-03  0.647E-02  0.647E-02
 -19.880  0.137E-01  0.327E-03  0.669E-02  0.669E-02
 -19.870  0.142E-01  0.335E-03  0.692E-02  0.692E-02
 -19.860  0.146E-01  0.336E-03  0.714E-02  0.714E-02
 -19.850  0.151E-01  0.334E-03  0.736E-02  0.736E-02
 -19.840  0.155E-01  0.327E-03  0.758E-02  0.758E-02
 -19.830  0.159E-01  0.318E-03  0.778E-02  0.778E-02
 -19.820  0.163E-01  0.309E-03  0.799E-02  0.799E-02
 -19.810  0.167E-01  0.299E-03  0.820E-02  0.820E-02
 -19.800  0.171E-01  0.290E-03  0.841E-02  0.841E-02
 -19.790  0.175E-01  0.282E-03  0.863E-02  0.863E-02
 -19.780  0.180E-01  0.275E-03  0.885E-02  0.885E-02
 -19.770  0.184E-01  0.269E-03  0.906E-02  0.906E-02
 -19.760  0.188E-01  0.263E-03  0.926E-02  0.926E-02
 -19.750  0.191E-01  0.258E-03  0.943E-02  0.943E-02
 -19.740  0.194E-01  0.254E-03  0.960E-02  0.960E-02
 -19.730  0.198E-01  0.249E-03  0.976E-02  0.976E-02
 -19.720  0.201E-01  0.245E-03  0.994E-02  0.994E-02
 -19.710  0.205E-01  0.241E-03  0.101E-01  0.101E-01
 -19.700  0.210E-01  0.237E-03  0.104E-01  0.104E-01
 -19.690  0.215E-01  0.234E-03  0.106E-01  0.106E-01
 -19.680  0.219E-01  0.230E-03  0.108E-01  0.108E-01
 -19.670  0.223E-01  0.227E-03  0.110E-01  0.110E-01
 -19.660  0.225E-01  0.223E-03  0.112E-01  0.112E-01
 -19.650  0.228E-01  0.219E-03  0.113E-01  0.113E-01
 -19.640  0.230E-01  0.215E-03  0.114E-01  0.114E-01
 -19.630  0.232E-01  0.212E-03  0.115E-01  0.115E-01
 -19.620  0.236E-01  0.209E-03  0.117E-01  0.117E-01
 -19.610  0.240E-01  0.206E-03  0.119E-01  0.119E-01
 -19.600  0.245E-01  0.203E-03  0.122E-01  0.122E-01
 -19.590  0.251E-01  0.201E-03  0.124E-01  0.124E-01
 -19.580  0.256E-01  0.198E-03  0.127E-01  0.127E-01
 -19.570  0.259E-01  0.195E-03  0.128E-01  0.128E-01
 -19.560  0.261E-01  0.192E-03  0.129E-01  0.129E-01
 -19.550  0.261E-01  0.188E-03  0.130E-01  0.130E-01
 -19.540  0.262E-01  0.185E-03  0.130E-01  0.130E-01
 -19.530  0.263E-01  0.181E-03  0.131E-01  0.131E-01
 -19.520  0.266E-01  0.179E-03  0.132E-01  0.132E-01
 -19.510  0.270E-01  0.177E-03  0.134E-01  0.134E-01
 -19.500  0.276E-01  0.175E-03  0.137E-01  0.137E-01
 -19.490  0.283E-01  0.174E-03  0.141E-01  0.141E-01
 -19.480  0.289E-01  0.172E-03  0.144E-01  0.144E-01
 -19.470  0.293E-01  0.170E-03  0.146E-01  0.146E-01
 -19.460  0.295E-01  0.167E-03  0.147E-01  0.147E-01
 -19.450  0.296E-01  0.163E-03  0.147E-01  0.147E-01
 -19.440  0.295E-01  0.160E-03  0.147E-01  0.147E-01
 -19.430  0.294E-01  0.157E-03  0.146E-01  0.146E-01
 -19.420  0.294E-01  0.155E-03  0.146E-01  0.146E-01
 -19.410  0.296E-01  0.153E-03  0.147E-01  0.147E-01
 -19.400  0.301E-01  0.151E-03  0.150E-01  0.150E-01
 -19.390  0.307E-01  0.150E-03  0.153E-01  0.153E-01
 -19.380  0.314E-01  0.149E-03  0.156E-01  0.156E-01
 -19.370  0.321E-01  0.147E-03  0.160E-01  0.160E-01
 -19.360  0.327E-01  0.146E-03  0.163E-01  0.163E-01
 -19.350  0.330E-01  0.144E-03  0.164E-01  0.164E-01
 -19.340  0.331E-01  0.141E-03  0.165E-01  0.165E-01
 -19.330  0.330E-01  0.139E-03  0.164E-01  0.164E-01
 -19.320  0.328E-01  0.136E-03  0.163E-01  0.163E-01
 -19.310  0.326E-01  0.134E-03  0.162E-01  0.162E-01
 -19.300  0.325E-01  0.131E-03  0.162E-01  0.162E-01
 -19.290  0.326E-01  0.129E-03  0.162E-01  0.162E-01
 -19.280  0.330E-01  0.128E-03  0.164E-01  0.164E-01
 -19.270  0.336E-01  0.127E-03  0.168E-01  0.168E-01
 -19.260  0.345E-01  0.126E-03  0.172E-01  0.172E-01
 -19.250  0.354E-01  0.126E-03  0.176E-01  0.176E-01
 -19.240  0.362E-01  0.126E-03  0.180E-01  0.180E-01
 -19.230  0.367E-01  0.125E-03  0.183E-01  0.183E-01
 -19.220  0.368E-01  0.123E-03  0.184E-01  0.184E-01
 -19.210  0.367E-01  0.121E-03  0.183E-01  0.183E-01
 -19.200  0.362E-01  0.118E-03  0.181E-01  0.181E-01
 -19.190  0.357E-01  0.114E-03  0.178E-01  0.178E-01
 -19.180  0.352E-01  0.111E-03  0.175E-01  0.175E-01
 -19.170  0.350E-01  0.108E-03  0.174E-01  0.174E-01
 -19.160  0.352E-01  0.107E-03  0.175E-01  0.175E-01
 -19.150  0.358E-01  0.106E-03  0.179E-01  0.179E-01
 -19.140  0.368E-01  0.107E-03  0.184E-01  0.184E-01
 -19.130  0.381E-01  0.108E-03  0.190E-01  0.190E-01
 -19.120  0.393E-01  0.110E-03  0.196E-01  0.196E-01
 -19.110  0.402E-01  0.110E-03  0.200E-01  0.200E-01
 -19.100  0.407E-01  0.109E-03  0.203E-01  0.203E-01
 -19.090  0.406E-01  0.107E-03  0.202E-01  0.202E-01
 -19.080  0.400E-01  0.104E-03  0.200E-01  0.200E-01
 -19.070  0.391E-01  0.996E-04  0.195E-01  0.195E-01
 -19.060  0.381E-01  0.956E-04  0.190E-01  0.190E-01
 -19.050  0.374E-01  0.923E-04  0.186E-01  0.186E-01
 -19.040  0.370E-01  0.902E-04  0.185E-01  0.185E-01
 -19.030  0.373E-01  0.897E-04  0.186E-01  0.186E-01
 -19.020  0.382E-01  0.905E-04  0.190E-01  0.190E-01
 -19.010  0.396E-01  0.922E-04  0.197E-01  0.197E-01
 -19.000  0.412E-01  0.943E-04  0.205E-01  0.205E-01
 -18.990  0.428E-01  0.960E-04  0.213E-01  0.213E-01
 -18.980  0.440E-01  0.966E-04  0.219E-01  0.219E-01
 -18.970  0.446E-01  0.957E-04  0.222E-01  0.222E-01
 -18.960  0.444E-01  0.933E-04  0.222E-01  0.222E-01
 -18.950  0.436E-01  0.897E-04  0.218E-01  0.218E-01
 -18.940  0.423E-01  0.855E-04  0.211E-01  0.211E-01
 -18.930  0.409E-01  0.814E-04  0.204E-01  0.204E-01
 -18.920  0.396E-01  0.782E-04  0.198E-01  0.198E-01
 -18.910  0.389E-01  0.764E-04  0.194E-01  0.194E-01
 -18.900  0.388E-01  0.761E-04  0.194E-01  0.194E-01
 -18.890  0.396E-01  0.772E-04  0.198E-01  0.198E-01
 -18.880  0.410E-01  0.792E-04  0.205E-01  0.205E-01
 -18.870  0.429E-01  0.815E-04  0.214E-01  0.214E-01
 -18.860  0.450E-01  0.834E-04  0.224E-01  0.224E-01
 -18.850  0.468E-01  0.844E-04  0.234E-01  0.234E-01
 -18.840  0.481E-01  0.840E-04  0.240E-01  0.240E-01
 -18.830  0.486E-01  0.822E-04  0.243E-01  0.243E-01
 -18.820  0.482E-01  0.792E-04  0.241E-01  0.241E-01
 -18.810  0.471E-01  0.755E-04  0.235E-01  0.235E-01
 -18.800  0.454E-01  0.717E-04  0.227E-01  0.227E-01
 -18.790  0.435E-01  0.684E-04  0.217E-01  0.217E-01
 -18.780  0.417E-01  0.661E-04  0.208E-01  0.208E-01
 -18.770  0.405E-01  0.653E-04  0.202E-01  0.202E-01
 -18.760  0.402E-01  0.658E-04  0.201E-01  0.201E-01
 -18.750  0.408E-01  0.674E-04  0.204E-01  0.204E-01
 -18.740  0.423E-01  0.696E-04  0.211E-01  0.211E-01
 -18.730  0.445E-01  0.718E-04  0.222E-01  0.222E-01
 -18.720  0.469E-01  0.733E-04  0.234E-01  0.234E-01
 -18.710  0.492E-01  0.738E-04  0.246E-01  0.246E-01
 -18.700  0.511E-01  0.729E-04  0.255E-01  0.255E-01
 -18.690  0.522E-01  0.709E-04  0.261E-01  0.261E-01
 -18.680  0.525E-01  0.679E-04  0.262E-01  0.262E-01
 -18.670  0.518E-01  0.646E-04  0.259E-01  0.259E-01
 -18.660  0.504E-01  0.614E-04  0.252E-01  0.252E-01
 -18.650  0.485E-01  0.588E-04  0.242E-01  0.242E-01
 -18.640  0.463E-01  0.572E-04  0.231E-01  0.231E-01
 -18.630  0.443E-01  0.567E-04  0.221E-01  0.221E-01
 -18.620  0.427E-01  0.574E-04  0.213E-01  0.213E-01
 -18.610  0.418E-01  0.590E-04  0.209E-01  0.209E-01
 -18.600  0.419E-01  0.610E-04  0.209E-01  0.209E-01
 -18.590  0.430E-01  0.630E-04  0.215E-01  0.215E-01
 -18.580  0.450E-01  0.644E-04  0.225E-01  0.225E-01
 -18.570  0.477E-01  0.648E-04  0.238E-01  0.238E-01
 -18.560  0.506E-01  0.640E-04  0.253E-01  0.253E-01
 -18.550  0.533E-01  0.622E-04  0.266E-01  0.266E-01
 -18.540  0.554E-01  0.595E-04  0.277E-01  0.277E-01
 -18.530  0.566E-01  0.564E-04  0.283E-01  0.283E-01
 -18.520  0.566E-01  0.535E-04  0.283E-01  0.283E-01
 -18.510  0.557E-01  0.511E-04  0.278E-01  0.278E-01
 -18.500  0.539E-01  0.497E-04  0.269E-01  0.269E-01
 -18.490  0.516E-01  0.494E-04  0.258E-01  0.258E-01
 -18.480  0.492E-01  0.500E-04  0.246E-01  0.246E-01
 -18.470  0.469E-01  0.515E-04  0.234E-01  0.234E-01
 -18.460  0.452E-01  0.534E-04  0.226E-01  0.226E-01
 -18.450  0.440E-01  0.553E-04  0.220E-01  0.220E-01
 -18.440  0.436E-01  0.567E-04  0.218E-01  0.218E-01
 -18.430  0.441E-01  0.574E-04  0.220E-01  0.220E-01
 -18.420  0.454E-01  0.570E-04  0.227E-01  0.227E-01
 -18.410  0.475E-01  0.556E-04  0.237E-01  0.237E-01
 -18.400  0.502E-01  0.534E-04  0.251E-01  0.251E-01
 -18.390  0.533E-01  0.506E-04  0.266E-01  0.266E-01
 -18.380  0.565E-01  0.477E-04  0.282E-01  0.282E-01
 -18.370  0.591E-01  0.453E-04  0.296E-01  0.296E-01
 -18.360  0.609E-01  0.436E-04  0.305E-01  0.305E-01
 -18.350  0.615E-01  0.428E-04  0.308E-01  0.308E-01
 -18.340  0.608E-01  0.432E-04  0.304E-01  0.304E-01
 -18.330  0.589E-01  0.444E-04  0.294E-01  0.294E-01
 -18.320  0.560E-01  0.461E-04  0.280E-01  0.280E-01
 -18.310  0.527E-01  0.481E-04  0.263E-01  0.263E-01
 -18.300  0.495E-01  0.498E-04  0.247E-01  0.247E-01
 -18.290  0.468E-01  0.509E-04  0.234E-01  0.234E-01
 -18.280  0.451E-01  0.512E-04  0.225E-01  0.225E-01
 -18.270  0.443E-01  0.505E-04  0.221E-01  0.221E-01
 -18.260  0.446E-01  0.489E-04  0.223E-01  0.223E-01
 -18.250  0.459E-01  0.467E-04  0.229E-01  0.229E-01
 -18.240  0.480E-01  0.442E-04  0.240E-01  0.240E-01
 -18.230  0.506E-01  0.416E-04  0.253E-01  0.253E-01
 -18.220  0.537E-01  0.395E-04  0.268E-01  0.268E-01
 -18.210  0.569E-01  0.380E-04  0.284E-01  0.284E-01
 -18.200  0.601E-01  0.375E-04  0.300E-01  0.300E-01
 -18.190  0.628E-01  0.379E-04  0.314E-01  0.314E-01
 -18.180  0.648E-01  0.391E-04  0.324E-01  0.324E-01
 -18.170  0.657E-01  0.409E-04  0.328E-01  0.328E-01
 -18.160  0.654E-01  0.428E-04  0.327E-01  0.327E-01
 -18.150  0.638E-01  0.445E-04  0.319E-01  0.319E-01
 -18.140  0.611E-01  0.456E-04  0.305E-01  0.305E-01
 -18.130  0.575E-01  0.459E-04  0.287E-01  0.287E-01
 -18.120  0.535E-01  0.452E-04  0.267E-01  0.267E-01
 -18.110  0.496E-01  0.437E-04  0.248E-01  0.248E-01
 -18.100  0.464E-01  0.417E-04  0.232E-01  0.232E-01
 -18.090  0.443E-01  0.393E-04  0.221E-01  0.221E-01
 -18.080  0.436E-01  0.371E-04  0.218E-01  0.218E-01
 -18.070  0.444E-01  0.352E-04  0.222E-01  0.222E-01
 -18.060  0.466E-01  0.339E-04  0.233E-01  0.233E-01
 -18.050  0.500E-01  0.333E-04  0.250E-01  0.250E-01
 -18.040  0.542E-01  0.336E-04  0.271E-01  0.271E-01
 -18.030  0.587E-01  0.346E-04  0.293E-01  0.293E-01
 -18.020  0.628E-01  0.361E-04  0.314E-01  0.314E-01
 -18.010  0.663E-01  0.378E-04  0.331E-01  0.331E-01
 -18.000  0.686E-01  0.395E-04  0.343E-01  0.343E-01
 -17.990  0.697E-01  0.407E-04  0.348E-01  0.348E-01
 -17.980  0.695E-01  0.412E-04  0.347E-01  0.347E-01
 -17.970  0.682E-01  0.408E-04  0.341E-01  0.341E-01
 -17.960  0.659E-01  0.397E-04  0.329E-01  0.329E-01
 -17.950  0.630E-01  0.379E-04  0.315E-01  0.315E-01
 -17.940  0.597E-01  0.357E-04  0.298E-01  0.298E-01
 -17.930  0.563E-01  0.336E-04  0.281E-01  0.281E-01
 -17.920  0.530E-01  0.318E-04  0.265E-01  0.265E-01
 -17.910  0.500E-01  0.305E-04  0.250E-01  0.250E-01
 -17.900  0.476E-01  0.299E-04  0.238E-01  0.238E-01
 -17.890  0.460E-01  0.300E-04  0.230E-01  0.230E-01
 -17.880  0.454E-01  0.308E-04  0.227E-01  0.227E-01
 -17.870  0.461E-01  0.321E-04  0.230E-01  0.230E-01
 -17.860  0.483E-01  0.336E-04  0.241E-01  0.241E-01
 -17.850  0.519E-01  0.351E-04  0.259E-01  0.259E-01
 -17.840  0.566E-01  0.363E-04  0.283E-01  0.283E-01
 -17.830  0.620E-01  0.370E-04  0.310E-01  0.310E-01
 -17.820  0.673E-01  0.370E-04  0.337E-01  0.337E-01
 -17.810  0.719E-01  0.362E-04  0.359E-01  0.359E-01
 -17.800  0.749E-01  0.348E-04  0.375E-01  0.375E-01
 -17.790  0.761E-01  0.330E-04  0.380E-01  0.380E-01
 -17.780  0.753E-01  0.311E-04  0.376E-01  0.376E-01
 -17.770  0.726E-01  0.293E-04  0.363E-01  0.363E-01
 -17.760  0.688E-01  0.279E-04  0.344E-01  0.344E-01
 -17.750  0.644E-01  0.271E-04  0.322E-01  0.322E-01
 -17.740  0.600E-01  0.270E-04  0.300E-01  0.300E-01
 -17.730  0.562E-01  0.276E-04  0.281E-01  0.281E-01
 -17.720  0.532E-01  0.286E-04  0.266E-01  0.266E-01
 -17.710  0.511E-01  0.299E-04  0.256E-01  0.256E-01
 -17.700  0.499E-01  0.313E-04  0.249E-01  0.249E-01
 -17.690  0.494E-01  0.325E-04  0.247E-01  0.247E-01
 -17.680  0.494E-01  0.333E-04  0.247E-01  0.247E-01
 -17.670  0.500E-01  0.335E-04  0.250E-01  0.250E-01
 -17.660  0.512E-01  0.331E-04  0.256E-01  0.256E-01
 -17.650  0.532E-01  0.321E-04  0.266E-01  0.266E-01
 -17.640  0.560E-01  0.307E-04  0.280E-01  0.280E-01
 -17.630  0.597E-01  0.290E-04  0.298E-01  0.298E-01
 -17.620  0.641E-01  0.273E-04  0.320E-01  0.320E-01
 -17.610  0.690E-01  0.259E-04  0.345E-01  0.345E-01
 -17.600  0.737E-01  0.250E-04  0.368E-01  0.368E-01
 -17.590  0.776E-01  0.247E-04  0.388E-01  0.388E-01
 -17.580  0.799E-01  0.250E-04  0.400E-01  0.400E-01
 -17.570  0.803E-01  0.258E-04  0.402E-01  0.402E-01
 -17.560  0.786E-01  0.269E-04  0.393E-01  0.393E-01
 -17.550  0.750E-01  0.282E-04  0.375E-01  0.375E-01
 -17.540  0.700E-01  0.294E-04  0.350E-01  0.350E-01
 -17.530  0.643E-01  0.302E-04  0.321E-01  0.321E-01
 -17.520  0.588E-01  0.306E-04  0.294E-01  0.294E-01
 -17.510  0.540E-01  0.304E-04  0.270E-01  0.270E-01
 -17.500  0.505E-01  0.297E-04  0.252E-01  0.252E-01
 -17.490  0.484E-01  0.285E-04  0.242E-01  0.242E-01
 -17.480  0.477E-01  0.270E-04  0.238E-01  0.238E-01
 -17.470  0.484E-01  0.255E-04  0.242E-01  0.242E-01
 -17.460  0.501E-01  0.242E-04  0.251E-01  0.251E-01
 -17.450  0.528E-01  0.233E-04  0.264E-01  0.264E-01
 -17.440  0.560E-01  0.229E-04  0.280E-01  0.280E-01
 -17.430  0.597E-01  0.230E-04  0.298E-01  0.298E-01
 -17.420  0.636E-01  0.236E-04  0.318E-01  0.318E-01
 -17.410  0.675E-01  0.246E-04  0.337E-01  0.337E-01
 -17.400  0.711E-01  0.258E-04  0.356E-01  0.356E-01
 -17.390  0.745E-01  0.269E-04  0.372E-01  0.372E-01
 -17.380  0.772E-01  0.278E-04  0.386E-01  0.386E-01
 -17.370  0.792E-01  0.282E-04  0.396E-01  0.396E-01
 -17.360  0.803E-01  0.282E-04  0.401E-01  0.401E-01
 -17.350  0.803E-01  0.276E-04  0.401E-01  0.401E-01
 -17.340  0.791E-01  0.266E-04  0.396E-01  0.396E-01
 -17.330  0.768E-01  0.254E-04  0.384E-01  0.384E-01
 -17.320  0.733E-01  0.240E-04  0.366E-01  0.366E-01
 -17.310  0.689E-01  0.228E-04  0.344E-01  0.344E-01
 -17.300  0.640E-01  0.220E-04  0.320E-01  0.320E-01
 -17.290  0.591E-01  0.215E-04  0.295E-01  0.295E-01
 -17.280  0.545E-01  0.216E-04  0.273E-01  0.273E-01
 -17.270  0.509E-01  0.221E-04  0.254E-01  0.254E-01
 -17.260  0.484E-01  0.230E-04  0.242E-01  0.242E-01
 -17.250  0.473E-01  0.240E-04  0.236E-01  0.236E-01
 -17.240  0.478E-01  0.250E-04  0.239E-01  0.239E-01
 -17.230  0.499E-01  0.258E-04  0.249E-01  0.249E-01
 -17.220  0.535E-01  0.262E-04  0.267E-01  0.267E-01
 -17.210  0.583E-01  0.262E-04  0.291E-01  0.291E-01
 -17.200  0.640E-01  0.257E-04  0.320E-01  0.320E-01
 -17.190  0.701E-01  0.248E-04  0.351E-01  0.351E-01
 -17.180  0.759E-01  0.237E-04  0.380E-01  0.380E-01
 -17.170  0.808E-01  0.226E-04  0.404E-01  0.404E-01
 -17.160  0.843E-01  0.217E-04  0.421E-01  0.421E-01
 -17.150  0.858E-01  0.211E-04  0.429E-01  0.429E-01
 -17.140  0.855E-01  0.209E-04  0.427E-01  0.427E-01
 -17.130  0.835E-01  0.211E-04  0.418E-01  0.418E-01
 -17.120  0.804E-01  0.218E-04  0.402E-01  0.402E-01
 -17.110  0.767E-01  0.227E-04  0.383E-01  0.383E-01
 -17.100  0.730E-01  0.236E-04  0.365E-01  0.365E-01
 -17.090  0.696E-01  0.244E-04  0.348E-01  0.348E-01
 -17.080  0.667E-01  0.250E-04  0.333E-01  0.333E-01
 -17.070  0.641E-01  0.251E-04  0.320E-01  0.320E-01
 -17.060  0.617E-01  0.249E-04  0.308E-01  0.308E-01
 -17.050  0.594E-01  0.242E-04  0.297E-01  0.297E-01
 -17.040  0.570E-01  0.234E-04  0.285E-01  0.285E-01
 -17.030  0.547E-01  0.224E-04  0.273E-01  0.273E-01
 -17.020  0.527E-01  0.216E-04  0.264E-01  0.264E-01
 -17.010  0.515E-01  0.211E-04  0.258E-01  0.258E-01
 -17.000  0.515E-01  0.210E-04  0.257E-01  0.257E-01
 -16.990  0.529E-01  0.213E-04  0.264E-01  0.264E-01
 -16.980  0.559E-01  0.221E-04  0.279E-01  0.279E-01
 -16.970  0.606E-01  0.231E-04  0.303E-01  0.303E-01
 -16.960  0.666E-01  0.242E-04  0.333E-01  0.333E-01
 -16.950  0.735E-01  0.252E-04  0.367E-01  0.367E-01
 -16.940  0.805E-01  0.260E-04  0.403E-01  0.403E-01
 -16.930  0.869E-01  0.265E-04  0.434E-01  0.434E-01
 -16.920  0.916E-01  0.266E-04  0.458E-01  0.458E-01
 -16.910  0.941E-01  0.265E-04  0.470E-01  0.470E-01
 -16.900  0.939E-01  0.262E-04  0.469E-01  0.469E-01
 -16.890  0.910E-01  0.260E-04  0.455E-01  0.455E-01
 -16.880  0.859E-01  0.259E-04  0.429E-01  0.429E-01
 -16.870  0.794E-01  0.261E-04  0.397E-01  0.397E-01
 -16.860  0.726E-01  0.266E-04  0.363E-01  0.363E-01
 -16.850  0.665E-01  0.273E-04  0.332E-01  0.332E-01
 -16.840  0.616E-01  0.280E-04  0.308E-01  0.308E-01
 -16.830  0.584E-01  0.285E-04  0.292E-01  0.292E-01
 -16.820  0.568E-01  0.285E-04  0.284E-01  0.284E-01
 -16.810  0.565E-01  0.279E-04  0.282E-01  0.282E-01
 -16.800  0.569E-01  0.266E-04  0.284E-01  0.284E-01
 -16.790  0.574E-01  0.248E-04  0.287E-01  0.287E-01
 -16.780  0.580E-01  0.225E-04  0.290E-01  0.290E-01
 -16.770  0.584E-01  0.203E-04  0.292E-01  0.292E-01
 -16.760  0.589E-01  0.182E-04  0.294E-01  0.294E-01
 -16.750  0.598E-01  0.165E-04  0.299E-01  0.299E-01
 -16.740  0.616E-01  0.154E-04  0.308E-01  0.308E-01
 -16.730  0.644E-01  0.148E-04  0.322E-01  0.322E-01
 -16.720  0.683E-01  0.145E-04  0.342E-01  0.342E-01
 -16.710  0.733E-01  0.144E-04  0.366E-01  0.366E-01
 -16.700  0.788E-01  0.142E-04  0.394E-01  0.394E-01
 -16.690  0.843E-01  0.139E-04  0.422E-01  0.422E-01
 -16.680  0.893E-01  0.133E-04  0.446E-01  0.446E-01
 -16.670  0.931E-01  0.125E-04  0.465E-01  0.465E-01
 -16.660  0.952E-01  0.117E-04  0.476E-01  0.476E-01
 -16.650  0.953E-01  0.110E-04  0.476E-01  0.476E-01
 -16.640  0.932E-01  0.104E-04  0.466E-01  0.466E-01
 -16.630  0.892E-01  0.997E-05  0.446E-01  0.446E-01
 -16.620  0.835E-01  0.971E-05  0.418E-01  0.418E-01
 -16.610  0.768E-01  0.954E-05  0.384E-01  0.384E-01
 -16.600  0.697E-01  0.937E-05  0.348E-01  0.348E-01
 -16.590  0.631E-01  0.913E-05  0.315E-01  0.315E-01
 -16.580  0.576E-01  0.879E-05  0.288E-01  0.288E-01
 -16.570  0.538E-01  0.836E-05  0.269E-01  0.269E-01
 -16.560  0.518E-01  0.788E-05  0.259E-01  0.259E-01
 -16.550  0.517E-01  0.741E-05  0.259E-01  0.259E-01
 -16.540  0.531E-01  0.700E-05  0.266E-01  0.266E-01
 -16.530  0.556E-01  0.667E-05  0.278E-01  0.278E-01
 -16.520  0.588E-01  0.642E-05  0.294E-01  0.294E-01
 -16.510  0.623E-01  0.622E-05  0.311E-01  0.311E-01
 -16.500  0.660E-01  0.604E-05  0.330E-01  0.330E-01
 -16.490  0.698E-01  0.585E-05  0.349E-01  0.349E-01
 -16.480  0.737E-01  0.564E-05  0.369E-01  0.369E-01
 -16.470  0.778E-01  0.539E-05  0.389E-01  0.389E-01
 -16.460  0.820E-01  0.513E-05  0.410E-01  0.410E-01
 -16.450  0.859E-01  0.486E-05  0.430E-01  0.430E-01
 -16.440  0.893E-01  0.460E-05  0.447E-01  0.447E-01
 -16.430  0.917E-01  0.436E-05  0.459E-01  0.459E-01
 -16.420  0.929E-01  0.413E-05  0.465E-01  0.465E-01
 -16.410  0.929E-01  0.391E-05  0.464E-01  0.464E-01
 -16.400  0.917E-01  0.369E-05  0.458E-01  0.458E-01
 -16.390  0.895E-01  0.346E-05  0.448E-01  0.448E-01
 -16.380  0.869E-01  0.322E-05  0.434E-01  0.434E-01
 -16.370  0.838E-01  0.298E-05  0.419E-01  0.419E-01
 -16.360  0.804E-01  0.273E-05  0.402E-01  0.402E-01
 -16.350  0.767E-01  0.249E-05  0.383E-01  0.383E-01
 -16.340  0.725E-01  0.225E-05  0.363E-01  0.363E-01
 -16.330  0.680E-01  0.202E-05  0.340E-01  0.340E-01
 -16.320  0.632E-01  0.178E-05  0.316E-01  0.316E-01
 -16.310  0.587E-01  0.156E-05  0.293E-01  0.293E-01
 -16.300  0.548E-01  0.134E-05  0.274E-01  0.274E-01
 -16.290  0.523E-01  0.115E-05  0.261E-01  0.261E-01
 -16.280  0.514E-01  0.976E-06  0.257E-01  0.257E-01
 -16.270  0.524E-01  0.831E-06  0.262E-01  0.262E-01
 -16.260  0.554E-01  0.717E-06  0.277E-01  0.277E-01
 -16.250  0.601E-01  0.634E-06  0.301E-01  0.301E-01
 -16.240  0.662E-01  0.580E-06  0.331E-01  0.331E-01
 -16.230  0.730E-01  0.554E-06  0.365E-01  0.365E-01
 -16.220  0.801E-01  0.549E-06  0.400E-01  0.400E-01
 -16.210  0.869E-01  0.561E-06  0.434E-01  0.434E-01
 -16.200  0.928E-01  0.583E-06  0.464E-01  0.464E-01
 -16.190  0.974E-01  0.609E-06  0.487E-01  0.487E-01
 -16.180  0.100E+00  0.633E-06  0.502E-01  0.502E-01
 -16.170  0.101E+00  0.649E-06  0.506E-01  0.506E-01
 -16.160  0.100E+00  0.654E-06  0.501E-01  0.501E-01
 -16.150  0.971E-01  0.648E-06  0.486E-01  0.486E-01
 -16.140  0.927E-01  0.630E-06  0.463E-01  0.463E-01
 -16.130  0.874E-01  0.605E-06  0.437E-01  0.437E-01
 -16.120  0.821E-01  0.578E-06  0.410E-01  0.410E-01
 -16.110  0.774E-01  0.554E-06  0.387E-01  0.387E-01
 -16.100  0.738E-01  0.535E-06  0.369E-01  0.369E-01
 -16.090  0.715E-01  0.524E-06  0.357E-01  0.357E-01
 -16.080  0.701E-01  0.519E-06  0.351E-01  0.351E-01
 -16.070  0.694E-01  0.517E-06  0.347E-01  0.347E-01
 -16.060  0.685E-01  0.512E-06  0.343E-01  0.343E-01
 -16.050  0.671E-01  0.503E-06  0.336E-01  0.336E-01
 -16.040  0.650E-01  0.487E-06  0.325E-01  0.325E-01
 -16.030  0.623E-01  0.466E-06  0.312E-01  0.312E-01
 -16.020  0.595E-01  0.443E-06  0.298E-01  0.298E-01
 -16.010  0.574E-01  0.425E-06  0.287E-01  0.287E-01
 -16.000  0.567E-01  0.417E-06  0.283E-01  0.283E-01
 -15.990  0.580E-01  0.423E-06  0.290E-01  0.290E-01
 -15.980  0.617E-01  0.447E-06  0.308E-01  0.308E-01
 -15.970  0.677E-01  0.487E-06  0.338E-01  0.338E-01
 -15.960  0.754E-01  0.540E-06  0.377E-01  0.377E-01
 -15.950  0.842E-01  0.601E-06  0.421E-01  0.421E-01
 -15.940  0.929E-01  0.661E-06  0.464E-01  0.464E-01
 -15.930  0.101E+00  0.713E-06  0.503E-01  0.503E-01
 -15.920  0.106E+00  0.752E-06  0.531E-01  0.531E-01
 -15.910  0.109E+00  0.773E-06  0.547E-01  0.547E-01
 -15.900  0.110E+00  0.774E-06  0.549E-01  0.549E-01
 -15.890  0.107E+00  0.756E-06  0.537E-01  0.537E-01
 -15.880  0.103E+00  0.723E-06  0.513E-01  0.513E-01
 -15.870  0.963E-01  0.678E-06  0.482E-01  0.482E-01
 -15.860  0.891E-01  0.628E-06  0.446E-01  0.446E-01
 -15.850  0.818E-01  0.577E-06  0.409E-01  0.409E-01
 -15.840  0.752E-01  0.532E-06  0.376E-01  0.376E-01
 -15.830  0.699E-01  0.495E-06  0.349E-01  0.349E-01
 -15.820  0.662E-01  0.471E-06  0.331E-01  0.331E-01
 -15.810  0.643E-01  0.459E-06  0.321E-01  0.321E-01
 -15.800  0.640E-01  0.458E-06  0.320E-01  0.320E-01
 -15.790  0.648E-01  0.465E-06  0.324E-01  0.324E-01
 -15.780  0.661E-01  0.476E-06  0.330E-01  0.330E-01
 -15.770  0.673E-01  0.485E-06  0.336E-01  0.336E-01
 -15.760  0.679E-01  0.489E-06  0.340E-01  0.340E-01
 -15.750  0.678E-01  0.487E-06  0.339E-01  0.339E-01
 -15.740  0.671E-01  0.480E-06  0.336E-01  0.336E-01
 -15.730  0.665E-01  0.471E-06  0.333E-01  0.333E-01
 -15.720  0.666E-01  0.468E-06  0.333E-01  0.333E-01
 -15.710  0.683E-01  0.474E-06  0.341E-01  0.341E-01
 -15.700  0.719E-01  0.494E-06  0.359E-01  0.359E-01
 -15.690  0.776E-01  0.528E-06  0.388E-01  0.388E-01
 -15.680  0.850E-01  0.575E-06  0.425E-01  0.425E-01
 -15.670  0.933E-01  0.628E-06  0.467E-01  0.467E-01
 -15.660  0.101E+00  0.681E-06  0.507E-01  0.507E-01
 -15.650  0.108E+00  0.726E-06  0.540E-01  0.540E-01
 -15.640  0.112E+00  0.755E-06  0.562E-01  0.562E-01
 -15.630  0.114E+00  0.766E-06  0.570E-01  0.570E-01
 -15.620  0.112E+00  0.757E-06  0.562E-01  0.562E-01
 -15.610  0.108E+00  0.730E-06  0.541E-01  0.541E-01
 -15.600  0.102E+00  0.691E-06  0.511E-01  0.511E-01
 -15.590  0.951E-01  0.644E-06  0.475E-01  0.475E-01
 -15.580  0.876E-01  0.594E-06  0.438E-01  0.438E-01
 -15.570  0.806E-01  0.547E-06  0.403E-01  0.403E-01
 -15.560  0.744E-01  0.506E-06  0.372E-01  0.372E-01
 -15.550  0.694E-01  0.473E-06  0.347E-01  0.347E-01
 -15.540  0.658E-01  0.449E-06  0.329E-01  0.329E-01
 -15.530  0.637E-01  0.436E-06  0.318E-01  0.318E-01
 -15.520  0.631E-01  0.433E-06  0.315E-01  0.315E-01
 -15.510  0.637E-01  0.439E-06  0.319E-01  0.319E-01
 -15.500  0.653E-01  0.451E-06  0.327E-01  0.327E-01
 -15.490  0.674E-01  0.466E-06  0.337E-01  0.337E-01
 -15.480  0.696E-01  0.480E-06  0.348E-01  0.348E-01
 -15.470  0.715E-01  0.492E-06  0.357E-01  0.357E-01
 -15.460  0.731E-01  0.500E-06  0.365E-01  0.365E-01
 -15.450  0.747E-01  0.506E-06  0.373E-01  0.373E-01
 -15.440  0.767E-01  0.514E-06  0.383E-01  0.383E-01
 -15.430  0.797E-01  0.527E-06  0.398E-01  0.398E-01
 -15.420  0.840E-01  0.549E-06  0.420E-01  0.420E-01
 -15.410  0.898E-01  0.581E-06  0.449E-01  0.449E-01
 -15.400  0.966E-01  0.621E-06  0.483E-01  0.483E-01
 -15.390  0.104E+00  0.664E-06  0.519E-01  0.519E-01
 -15.380  0.110E+00  0.706E-06  0.552E-01  0.552E-01
 -15.370  0.115E+00  0.738E-06  0.577E-01  0.577E-01
 -15.360  0.118E+00  0.756E-06  0.590E-01  0.590E-01
 -15.350  0.118E+00  0.756E-06  0.588E-01  0.588E-01
 -15.340  0.115E+00  0.739E-06  0.573E-01  0.573E-01
 -15.330  0.109E+00  0.707E-06  0.546E-01  0.546E-01
 -15.320  0.102E+00  0.666E-06  0.512E-01  0.512E-01
 -15.310  0.952E-01  0.622E-06  0.476E-01  0.476E-01
 -15.300  0.882E-01  0.579E-06  0.441E-01  0.441E-01
 -15.290  0.823E-01  0.542E-06  0.411E-01  0.411E-01
 -15.280  0.775E-01  0.513E-06  0.388E-01  0.388E-01
 -15.270  0.742E-01  0.494E-06  0.371E-01  0.371E-01
 -15.260  0.722E-01  0.482E-06  0.361E-01  0.361E-01
 -15.250  0.712E-01  0.478E-06  0.356E-01  0.356E-01
 -15.240  0.712E-01  0.480E-06  0.356E-01  0.356E-01
 -15.230  0.717E-01  0.485E-06  0.359E-01  0.359E-01
 -15.220  0.727E-01  0.493E-06  0.364E-01  0.364E-01
 -15.210  0.739E-01  0.501E-06  0.370E-01  0.370E-01
 -15.200  0.753E-01  0.510E-06  0.377E-01  0.377E-01
 -15.190  0.771E-01  0.519E-06  0.386E-01  0.386E-01
 -15.180  0.796E-01  0.532E-06  0.398E-01  0.398E-01
 -15.170  0.832E-01  0.551E-06  0.416E-01  0.416E-01
 -15.160  0.883E-01  0.578E-06  0.441E-01  0.441E-01
 -15.150  0.949E-01  0.616E-06  0.475E-01  0.475E-01
 -15.140  0.103E+00  0.663E-06  0.515E-01  0.515E-01
 -15.130  0.112E+00  0.716E-06  0.560E-01  0.560E-01
 -15.120  0.121E+00  0.770E-06  0.606E-01  0.606E-01
 -15.110  0.129E+00  0.820E-06  0.646E-01  0.646E-01
 -15.100  0.136E+00  0.860E-06  0.678E-01  0.678E-01
 -15.090  0.139E+00  0.887E-06  0.697E-01  0.697E-01
 -15.080  0.141E+00  0.899E-06  0.703E-01  0.703E-01
 -15.070  0.139E+00  0.897E-06  0.696E-01  0.696E-01
 -15.060  0.136E+00  0.883E-06  0.680E-01  0.680E-01
 -15.050  0.131E+00  0.860E-06  0.655E-01  0.655E-01
 -15.040  0.125E+00  0.831E-06  0.627E-01  0.627E-01
 -15.030  0.119E+00  0.798E-06  0.595E-01  0.595E-01
 -15.020  0.113E+00  0.761E-06  0.563E-01  0.563E-01
 -15.010  0.106E+00  0.721E-06  0.531E-01  0.531E-01
 -15.000  0.996E-01  0.680E-06  0.498E-01  0.498E-01
 -14.990  0.932E-01  0.637E-06  0.466E-01  0.466E-01
 -14.980  0.869E-01  0.593E-06  0.434E-01  0.434E-01
 -14.970  0.808E-01  0.549E-06  0.404E-01  0.404E-01
 -14.960  0.751E-01  0.507E-06  0.375E-01  0.375E-01
 -14.950  0.699E-01  0.469E-06  0.350E-01  0.350E-01
 -14.940  0.656E-01  0.435E-06  0.328E-01  0.328E-01
 -14.930  0.625E-01  0.410E-06  0.312E-01  0.312E-01
 -14.920  0.609E-01  0.394E-06  0.304E-01  0.304E-01
 -14.910  0.611E-01  0.389E-06  0.306E-01  0.306E-01
 -14.900  0.634E-01  0.397E-06  0.317E-01  0.317E-01
 -14.890  0.677E-01  0.416E-06  0.339E-01  0.339E-01
 -14.880  0.736E-01  0.445E-06  0.368E-01  0.368E-01
 -14.870  0.806E-01  0.480E-06  0.403E-01  0.403E-01
 -14.860  0.876E-01  0.514E-06  0.438E-01  0.438E-01
 -14.850  0.939E-01  0.544E-06  0.469E-01  0.469E-01
 -14.840  0.985E-01  0.563E-06  0.492E-01  0.492E-01
 -14.830  0.101E+00  0.569E-06  0.504E-01  0.504E-01
 -14.820  0.101E+00  0.561E-06  0.503E-01  0.503E-01
 -14.810  0.983E-01  0.543E-06  0.492E-01  0.492E-01
 -14.800  0.943E-01  0.518E-06  0.471E-01  0.471E-01
 -14.790  0.894E-01  0.490E-06  0.447E-01  0.447E-01
 -14.780  0.843E-01  0.464E-06  0.421E-01  0.421E-01
 -14.770  0.797E-01  0.443E-06  0.398E-01  0.398E-01
 -14.760  0.757E-01  0.427E-06  0.379E-01  0.379E-01
 -14.750  0.724E-01  0.415E-06  0.362E-01  0.362E-01
 -14.740  0.692E-01  0.404E-06  0.346E-01  0.346E-01
 -14.730  0.656E-01  0.389E-06  0.328E-01  0.328E-01
 -14.720  0.610E-01  0.367E-06  0.305E-01  0.305E-01
 -14.710  0.551E-01  0.335E-06  0.276E-01  0.276E-01
 -14.700  0.479E-01  0.294E-06  0.240E-01  0.240E-01
 -14.690  0.397E-01  0.246E-06  0.199E-01  0.199E-01
 -14.680  0.313E-01  0.195E-06  0.157E-01  0.157E-01
 -14.670  0.236E-01  0.147E-06  0.118E-01  0.118E-01
 -14.660  0.176E-01  0.108E-06  0.881E-02  0.881E-02
 -14.650  0.143E-01  0.839E-07  0.713E-02  0.713E-02
 -14.640  0.142E-01  0.784E-07  0.711E-02  0.711E-02
 -14.630  0.179E-01  0.936E-07  0.895E-02  0.895E-02
 -14.620  0.254E-01  0.130E-06  0.127E-01  0.127E-01
 -14.610  0.362E-01  0.184E-06  0.181E-01  0.181E-01
 -14.600  0.499E-01  0.254E-06  0.249E-01  0.249E-01
 -14.590  0.653E-01  0.333E-06  0.326E-01  0.326E-01
 -14.580  0.811E-01  0.414E-06  0.405E-01  0.405E-01
 -14.570  0.957E-01  0.489E-06  0.478E-01  0.478E-01
 -14.560  0.107E+00  0.549E-06  0.537E-01  0.537E-01
 -14.550  0.115E+00  0.588E-06  0.573E-01  0.573E-01
 -14.540  0.116E+00  0.597E-06  0.582E-01  0.582E-01
 -14.530  0.112E+00  0.576E-06  0.560E-01  0.560E-01
 -14.520  0.102E+00  0.525E-06  0.508E-01  0.508E-01
 -14.510  0.868E-01  0.450E-06  0.434E-01  0.434E-01
 -14.500  0.690E-01  0.359E-06  0.345E-01  0.345E-01
 -14.490  0.504E-01  0.264E-06  0.252E-01  0.252E-01
 -14.480  0.329E-01  0.175E-06  0.165E-01  0.165E-01
 -14.470  0.183E-01  0.996E-07  0.914E-02  0.914E-02
 -14.460  0.744E-02  0.437E-07  0.372E-02  0.372E-02
 -14.450  0.707E-03  0.881E-08  0.353E-03  0.353E-03
 -14.440 -0.221E-02 -0.644E-08 -0.111E-02 -0.111E-02
 -14.430 -0.199E-02 -0.556E-08 -0.996E-03 -0.996E-03
 -14.420  0.556E-03  0.722E-08  0.278E-03  0.278E-03
 -14.410  0.471E-02  0.281E-07  0.236E-02  0.236E-02
 -14.400  0.999E-02  0.543E-07  0.499E-02  0.499E-02
 -14.390  0.162E-01  0.847E-07  0.808E-02  0.808E-02
 -14.380  0.232E-01  0.119E-06  0.116E-01  0.116E-01
 -14.370  0.312E-01  0.157E-06  0.156E-01  0.156E-01
 -14.360  0.402E-01  0.200E-06  0.201E-01  0.201E-01
 -14.350  0.501E-01  0.245E-06  0.250E-01  0.250E-01
 -14.340  0.603E-01  0.292E-06  0.301E-01  0.301E-01
 -14.330  0.701E-01  0.337E-06  0.351E-01  0.351E-01
 -14.320  0.787E-01  0.375E-06  0.393E-01  0.393E-01
 -14.310  0.848E-01  0.401E-06  0.424E-01  0.424E-01
 -14.300  0.875E-01  0.411E-06  0.437E-01  0.437E-01
 -14.290  0.861E-01  0.402E-06  0.431E-01  0.431E-01
 -14.280  0.806E-01  0.374E-06  0.403E-01  0.403E-01
 -14.270  0.713E-01  0.330E-06  0.357E-01  0.357E-01
 -14.260  0.594E-01  0.274E-06  0.297E-01  0.297E-01
 -14.250  0.461E-01  0.212E-06  0.230E-01  0.230E-01
 -14.240  0.330E-01  0.152E-06  0.165E-01  0.165E-01
 -14.230  0.214E-01  0.995E-07  0.107E-01  0.107E-01
 -14.220  0.122E-01  0.581E-07  0.611E-02  0.611E-02
 -14.210  0.591E-02  0.299E-07  0.295E-02  0.295E-02
 -14.200  0.245E-02  0.146E-07  0.122E-02  0.122E-02
 -14.190  0.147E-02  0.104E-07  0.734E-03  0.734E-03
 -14.180  0.245E-02  0.150E-07  0.122E-02  0.122E-02
 -14.170  0.486E-02  0.259E-07  0.243E-02  0.243E-02
 -14.160  0.826E-02  0.412E-07  0.413E-02  0.413E-02
 -14.150  0.124E-01  0.595E-07  0.618E-02  0.618E-02
 -14.140  0.169E-01  0.799E-07  0.846E-02  0.846E-02
 -14.130  0.218E-01  0.102E-06  0.109E-01  0.109E-01
 -14.120  0.269E-01  0.124E-06  0.135E-01  0.135E-01
 -14.110  0.322E-01  0.147E-06  0.161E-01  0.161E-01
 -14.100  0.373E-01  0.169E-06  0.187E-01  0.187E-01
 -14.090  0.423E-01  0.189E-06  0.211E-01  0.211E-01
 -14.080  0.468E-01  0.207E-06  0.234E-01  0.234E-01
 -14.070  0.506E-01  0.222E-06  0.253E-01  0.253E-01
 -14.060  0.534E-01  0.232E-06  0.267E-01  0.267E-01
 -14.050  0.546E-01  0.236E-06  0.273E-01  0.273E-01
 -14.040  0.542E-01  0.232E-06  0.271E-01  0.271E-01
 -14.030  0.518E-01  0.221E-06  0.259E-01  0.259E-01
 -14.020  0.477E-01  0.202E-06  0.238E-01  0.238E-01
 -14.010  0.422E-01  0.178E-06  0.211E-01  0.211E-01
 -14.000  0.359E-01  0.150E-06  0.180E-01  0.180E-01
 -13.990  0.297E-01  0.123E-06  0.149E-01  0.149E-01
 -13.980  0.245E-01  0.993E-07  0.122E-01  0.122E-01
 -13.970  0.210E-01  0.819E-07  0.105E-01  0.105E-01
 -13.960  0.198E-01  0.730E-07  0.989E-02  0.989E-02
 -13.950  0.213E-01  0.739E-07  0.106E-01  0.106E-01
 -13.940  0.256E-01  0.848E-07  0.128E-01  0.128E-01
 -13.930  0.327E-01  0.105E-06  0.163E-01  0.163E-01
 -13.920  0.421E-01  0.134E-06  0.211E-01  0.211E-01
 -13.910  0.536E-01  0.170E-06  0.268E-01  0.268E-01
 -13.900  0.663E-01  0.210E-06  0.331E-01  0.331E-01
 -13.890  0.795E-01  0.253E-06  0.398E-01  0.398E-01
 -13.880  0.925E-01  0.295E-06  0.463E-01  0.463E-01
 -13.870  0.104E+00  0.335E-06  0.522E-01  0.522E-01
 -13.860  0.115E+00  0.369E-06  0.573E-01  0.573E-01
 -13.850  0.123E+00  0.396E-06  0.614E-01  0.614E-01
 -13.840  0.129E+00  0.417E-06  0.644E-01  0.644E-01
 -13.830  0.133E+00  0.430E-06  0.665E-01  0.665E-01
 -13.820  0.135E+00  0.438E-06  0.677E-01  0.677E-01
 -13.810  0.137E+00  0.441E-06  0.683E-01  0.683E-01
 -13.800  0.137E+00  0.439E-06  0.684E-01  0.684E-01
 -13.790  0.136E+00  0.432E-06  0.678E-01  0.678E-01
 -13.780  0.133E+00  0.420E-06  0.665E-01  0.665E-01
 -13.770  0.129E+00  0.403E-06  0.644E-01  0.644E-01
 -13.760  0.123E+00  0.382E-06  0.616E-01  0.616E-01
 -13.750  0.117E+00  0.357E-06  0.584E-01  0.584E-01
 -13.740  0.110E+00  0.333E-06  0.551E-01  0.551E-01
 -13.730  0.105E+00  0.313E-06  0.524E-01  0.524E-01
 -13.720  0.101E+00  0.300E-06  0.507E-01  0.507E-01
 -13.710  0.101E+00  0.296E-06  0.504E-01  0.504E-01
 -13.700  0.103E+00  0.301E-06  0.515E-01  0.515E-01
 -13.690  0.108E+00  0.314E-06  0.538E-01  0.538E-01
 -13.680  0.113E+00  0.330E-06  0.565E-01  0.565E-01
 -13.670  0.118E+00  0.344E-06  0.589E-01  0.589E-01
 -13.660  0.121E+00  0.354E-06  0.605E-01  0.605E-01
 -13.650  0.122E+00  0.356E-06  0.608E-01  0.608E-01
 -13.640  0.119E+00  0.350E-06  0.597E-01  0.597E-01
 -13.630  0.116E+00  0.338E-06  0.578E-01  0.578E-01
 -13.620  0.111E+00  0.325E-06  0.556E-01  0.556E-01
 -13.610  0.108E+00  0.316E-06  0.540E-01  0.540E-01
 -13.600  0.107E+00  0.312E-06  0.536E-01  0.536E-01
 -13.590  0.109E+00  0.318E-06  0.546E-01  0.546E-01
 -13.580  0.114E+00  0.330E-06  0.570E-01  0.570E-01
 -13.570  0.120E+00  0.348E-06  0.602E-01  0.602E-01
 -13.560  0.127E+00  0.367E-06  0.636E-01  0.636E-01
 -13.550  0.133E+00  0.381E-06  0.663E-01  0.663E-01
 -13.540  0.136E+00  0.388E-06  0.678E-01  0.678E-01
 -13.530  0.135E+00  0.386E-06  0.676E-01  0.676E-01
 -13.520  0.132E+00  0.375E-06  0.659E-01  0.659E-01
 -13.510  0.126E+00  0.357E-06  0.629E-01  0.629E-01
 -13.500  0.119E+00  0.334E-06  0.593E-01  0.593E-01
 -13.490  0.111E+00  0.311E-06  0.555E-01  0.555E-01
 -13.480  0.105E+00  0.290E-06  0.523E-01  0.523E-01
 -13.470  0.100E+00  0.275E-06  0.502E-01  0.502E-01
 -13.460  0.986E-01  0.266E-06  0.493E-01  0.493E-01
 -13.450  0.997E-01  0.266E-06  0.499E-01  0.499E-01
 -13.440  0.104E+00  0.274E-06  0.518E-01  0.518E-01
 -13.430  0.110E+00  0.288E-06  0.548E-01  0.548E-01
 -13.420  0.117E+00  0.307E-06  0.584E-01  0.584E-01
 -13.410  0.124E+00  0.329E-06  0.621E-01  0.621E-01
 -13.400  0.131E+00  0.348E-06  0.654E-01  0.654E-01
 -13.390  0.135E+00  0.364E-06  0.676E-01  0.676E-01
 -13.380  0.137E+00  0.374E-06  0.686E-01  0.686E-01
 -13.370  0.136E+00  0.375E-06  0.682E-01  0.682E-01
 -13.360  0.133E+00  0.370E-06  0.666E-01  0.666E-01
 -13.350  0.128E+00  0.358E-06  0.642E-01  0.642E-01
 -13.340  0.123E+00  0.344E-06  0.617E-01  0.617E-01
 -13.330  0.119E+00  0.330E-06  0.595E-01  0.595E-01
 -13.320  0.117E+00  0.320E-06  0.584E-01  0.584E-01
 -13.310  0.117E+00  0.315E-06  0.584E-01  0.584E-01
 -13.300  0.119E+00  0.316E-06  0.596E-01  0.596E-01
 -13.290  0.123E+00  0.321E-06  0.617E-01  0.617E-01
 -13.280  0.128E+00  0.330E-06  0.641E-01  0.641E-01
 -13.270  0.133E+00  0.340E-06  0.664E-01  0.664E-01
 -13.260  0.137E+00  0.350E-06  0.684E-01  0.684E-01
 -13.250  0.140E+00  0.360E-06  0.699E-01  0.699E-01
 -13.240  0.142E+00  0.371E-06  0.711E-01  0.711E-01
 -13.230  0.145E+00  0.383E-06  0.725E-01  0.725E-01
 -13.220  0.149E+00  0.399E-06  0.743E-01  0.743E-01
 -13.210  0.154E+00  0.418E-06  0.768E-01  0.768E-01
 -13.200  0.160E+00  0.439E-06  0.799E-01  0.799E-01
 -13.190  0.167E+00  0.460E-06  0.833E-01  0.833E-01
 -13.180  0.173E+00  0.479E-06  0.867E-01  0.867E-01
 -13.170  0.179E+00  0.491E-06  0.894E-01  0.894E-01
 -13.160  0.182E+00  0.497E-06  0.910E-01  0.910E-01
 -13.150  0.183E+00  0.494E-06  0.914E-01  0.914E-01
 -13.140  0.181E+00  0.484E-06  0.906E-01  0.906E-01
 -13.130  0.178E+00  0.469E-06  0.888E-01  0.888E-01
 -13.120  0.173E+00  0.452E-06  0.865E-01  0.865E-01
 -13.110  0.168E+00  0.438E-06  0.842E-01  0.842E-01
 -13.100  0.165E+00  0.427E-06  0.823E-01  0.823E-01
 -13.090  0.162E+00  0.422E-06  0.811E-01  0.811E-01
 -13.080  0.161E+00  0.422E-06  0.807E-01  0.807E-01
 -13.070  0.162E+00  0.428E-06  0.810E-01  0.810E-01
 -13.060  0.163E+00  0.436E-06  0.817E-01  0.817E-01
 -13.050  0.165E+00  0.444E-06  0.825E-01  0.825E-01
 -13.040  0.166E+00  0.451E-06  0.831E-01  0.831E-01
 -13.030  0.166E+00  0.454E-06  0.831E-01  0.831E-01
 -13.020  0.165E+00  0.452E-06  0.825E-01  0.825E-01
 -13.010  0.162E+00  0.445E-06  0.812E-01  0.812E-01
 -13.000  0.159E+00  0.433E-06  0.793E-01  0.793E-01
 -12.990  0.154E+00  0.418E-06  0.768E-01  0.768E-01
 -12.980  0.148E+00  0.400E-06  0.741E-01  0.741E-01
 -12.970  0.142E+00  0.381E-06  0.712E-01  0.712E-01
 -12.960  0.137E+00  0.362E-06  0.683E-01  0.683E-01
 -12.950  0.131E+00  0.344E-06  0.655E-01  0.655E-01
 -12.940  0.126E+00  0.328E-06  0.629E-01  0.629E-01
 -12.930  0.121E+00  0.314E-06  0.606E-01  0.606E-01
 -12.920  0.118E+00  0.305E-06  0.589E-01  0.589E-01
 -12.910  0.116E+00  0.300E-06  0.580E-01  0.580E-01
 -12.900  0.116E+00  0.303E-06  0.582E-01  0.582E-01
 -12.890  0.119E+00  0.312E-06  0.596E-01  0.596E-01
 -12.880  0.125E+00  0.328E-06  0.623E-01  0.623E-01
 -12.870  0.132E+00  0.349E-06  0.659E-01  0.659E-01
 -12.860  0.140E+00  0.373E-06  0.699E-01  0.699E-01
 -12.850  0.148E+00  0.395E-06  0.738E-01  0.738E-01
 -12.840  0.153E+00  0.412E-06  0.766E-01  0.766E-01
 -12.830  0.156E+00  0.420E-06  0.779E-01  0.779E-01
 -12.820  0.154E+00  0.416E-06  0.772E-01  0.772E-01
 -12.810  0.149E+00  0.401E-06  0.745E-01  0.745E-01
 -12.800  0.141E+00  0.377E-06  0.703E-01  0.703E-01
 -12.790  0.131E+00  0.348E-06  0.653E-01  0.653E-01
 -12.780  0.120E+00  0.318E-06  0.602E-01  0.602E-01
 -12.770  0.112E+00  0.292E-06  0.559E-01  0.559E-01
 -12.760  0.106E+00  0.274E-06  0.529E-01  0.529E-01
 -12.750  0.103E+00  0.265E-06  0.517E-01  0.517E-01
 -12.740  0.104E+00  0.264E-06  0.520E-01  0.520E-01
 -12.730  0.107E+00  0.271E-06  0.535E-01  0.535E-01
 -12.720  0.111E+00  0.283E-06  0.557E-01  0.557E-01
 -12.710  0.116E+00  0.296E-06  0.581E-01  0.581E-01
 -12.700  0.120E+00  0.310E-06  0.602E-01  0.602E-01
 -12.690  0.124E+00  0.322E-06  0.621E-01  0.621E-01
 -12.680  0.127E+00  0.333E-06  0.636E-01  0.636E-01
 -12.670  0.130E+00  0.343E-06  0.650E-01  0.650E-01
 -12.660  0.133E+00  0.353E-06  0.663E-01  0.663E-01
 -12.650  0.135E+00  0.361E-06  0.677E-01  0.677E-01
 -12.640  0.138E+00  0.368E-06  0.688E-01  0.688E-01
 -12.630  0.139E+00  0.370E-06  0.694E-01  0.694E-01
 -12.620  0.138E+00  0.367E-06  0.691E-01  0.691E-01
 -12.610  0.135E+00  0.357E-06  0.676E-01  0.676E-01
 -12.600  0.130E+00  0.340E-06  0.648E-01  0.648E-01
 -12.590  0.122E+00  0.317E-06  0.610E-01  0.610E-01
 -12.580  0.113E+00  0.292E-06  0.566E-01  0.566E-01
 -12.570  0.105E+00  0.268E-06  0.524E-01  0.524E-01
 -12.560  0.981E-01  0.249E-06  0.490E-01  0.490E-01
 -12.550  0.939E-01  0.236E-06  0.470E-01  0.470E-01
 -12.540  0.929E-01  0.233E-06  0.465E-01  0.465E-01
 -12.530  0.950E-01  0.237E-06  0.475E-01  0.475E-01
 -12.520  0.997E-01  0.250E-06  0.498E-01  0.498E-01
 -12.510  0.106E+00  0.267E-06  0.530E-01  0.530E-01
 -12.500  0.113E+00  0.287E-06  0.565E-01  0.565E-01
 -12.490  0.120E+00  0.308E-06  0.600E-01  0.600E-01
 -12.480  0.126E+00  0.326E-06  0.629E-01  0.629E-01
 -12.470  0.130E+00  0.341E-06  0.652E-01  0.652E-01
 -12.460  0.134E+00  0.352E-06  0.668E-01  0.668E-01
 -12.450  0.135E+00  0.358E-06  0.676E-01  0.676E-01
 -12.440  0.135E+00  0.359E-06  0.677E-01  0.677E-01
 -12.430  0.134E+00  0.354E-06  0.671E-01  0.671E-01
 -12.420  0.131E+00  0.345E-06  0.657E-01  0.657E-01
 -12.410  0.127E+00  0.330E-06  0.635E-01  0.635E-01
 -12.400  0.121E+00  0.312E-06  0.604E-01  0.604E-01
 -12.390  0.113E+00  0.289E-06  0.567E-01  0.567E-01
 -12.380  0.105E+00  0.265E-06  0.525E-01  0.525E-01
 -12.370  0.964E-01  0.241E-06  0.482E-01  0.482E-01
 -12.360  0.887E-01  0.221E-06  0.444E-01  0.444E-01
 -12.350  0.831E-01  0.206E-06  0.416E-01  0.416E-01
 -12.340  0.807E-01  0.200E-06  0.404E-01  0.404E-01
 -12.330  0.823E-01  0.204E-06  0.411E-01  0.411E-01
 -12.320  0.879E-01  0.219E-06  0.439E-01  0.439E-01
 -12.310  0.970E-01  0.243E-06  0.485E-01  0.485E-01
 -12.300  0.108E+00  0.273E-06  0.542E-01  0.542E-01
 -12.290  0.120E+00  0.305E-06  0.602E-01  0.602E-01
 -12.280  0.131E+00  0.335E-06  0.656E-01  0.656E-01
 -12.270  0.139E+00  0.357E-06  0.695E-01  0.695E-01
 -12.260  0.143E+00  0.370E-06  0.713E-01  0.713E-01
 -12.250  0.142E+00  0.370E-06  0.708E-01  0.708E-01
 -12.240  0.136E+00  0.358E-06  0.681E-01  0.681E-01
 -12.230  0.128E+00  0.337E-06  0.639E-01  0.639E-01
 -12.220  0.118E+00  0.311E-06  0.590E-01  0.590E-01
 -12.210  0.108E+00  0.284E-06  0.541E-01  0.541E-01
 -12.200  0.100E+00  0.260E-06  0.500E-01  0.500E-01
 -12.190  0.943E-01  0.241E-06  0.471E-01  0.471E-01
 -12.180  0.911E-01  0.228E-06  0.456E-01  0.456E-01
 -12.170  0.903E-01  0.222E-06  0.451E-01  0.451E-01
 -12.160  0.909E-01  0.220E-06  0.454E-01  0.454E-01
 -12.150  0.922E-01  0.222E-06  0.461E-01  0.461E-01
 -12.140  0.934E-01  0.225E-06  0.467E-01  0.467E-01
 -12.130  0.944E-01  0.229E-06  0.472E-01  0.472E-01
 -12.120  0.951E-01  0.234E-06  0.476E-01  0.476E-01
 -12.110  0.961E-01  0.240E-06  0.481E-01  0.481E-01
 -12.100  0.980E-01  0.249E-06  0.490E-01  0.490E-01
 -12.090  0.101E+00  0.262E-06  0.506E-01  0.506E-01
 -12.080  0.106E+00  0.278E-06  0.530E-01  0.530E-01
 -12.070  0.112E+00  0.297E-06  0.562E-01  0.562E-01
 -12.060  0.119E+00  0.316E-06  0.597E-01  0.597E-01
 -12.050  0.126E+00  0.332E-06  0.631E-01  0.631E-01
 -12.040  0.131E+00  0.344E-06  0.657E-01  0.657E-01
 -12.030  0.134E+00  0.348E-06  0.670E-01  0.670E-01
 -12.020  0.133E+00  0.342E-06  0.665E-01  0.665E-01
 -12.010  0.129E+00  0.328E-06  0.643E-01  0.643E-01
 -12.000  0.121E+00  0.305E-06  0.605E-01  0.605E-01
 -11.990  0.111E+00  0.277E-06  0.556E-01  0.556E-01
 -11.980  0.100E+00  0.248E-06  0.501E-01  0.501E-01
 -11.970  0.894E-01  0.220E-06  0.447E-01  0.447E-01
 -11.960  0.802E-01  0.196E-06  0.401E-01  0.401E-01
 -11.950  0.734E-01  0.179E-06  0.367E-01  0.367E-01
 -11.940  0.697E-01  0.171E-06  0.348E-01  0.348E-01
 -11.930  0.693E-01  0.171E-06  0.346E-01  0.346E-01
 -11.920  0.722E-01  0.180E-06  0.361E-01  0.361E-01
 -11.910  0.782E-01  0.198E-06  0.391E-01  0.391E-01
 -11.900  0.868E-01  0.223E-06  0.434E-01  0.434E-01
 -11.890  0.973E-01  0.252E-06  0.486E-01  0.486E-01
 -11.880  0.109E+00  0.283E-06  0.543E-01  0.543E-01
 -11.870  0.119E+00  0.312E-06  0.597E-01  0.597E-01
 -11.860  0.129E+00  0.337E-06  0.643E-01  0.643E-01
 -11.850  0.135E+00  0.353E-06  0.675E-01  0.675E-01
 -11.840  0.138E+00  0.359E-06  0.689E-01  0.689E-01
 -11.830  0.136E+00  0.355E-06  0.682E-01  0.682E-01
 -11.820  0.131E+00  0.340E-06  0.657E-01  0.657E-01
 -11.810  0.123E+00  0.316E-06  0.616E-01  0.616E-01
 -11.800  0.113E+00  0.288E-06  0.565E-01  0.565E-01
 -11.790  0.102E+00  0.257E-06  0.509E-01  0.509E-01
 -11.780  0.909E-01  0.228E-06  0.455E-01  0.455E-01
 -11.770  0.814E-01  0.202E-06  0.407E-01  0.407E-01
 -11.760  0.742E-01  0.183E-06  0.371E-01  0.371E-01
 -11.750  0.698E-01  0.171E-06  0.349E-01  0.349E-01
 -11.740  0.685E-01  0.168E-06  0.343E-01  0.343E-01
 -11.730  0.705E-01  0.173E-06  0.352E-01  0.352E-01
 -11.720  0.753E-01  0.186E-06  0.377E-01  0.377E-01
 -11.710  0.824E-01  0.206E-06  0.412E-01  0.412E-01
 -11.700  0.909E-01  0.230E-06  0.454E-01  0.454E-01
 -11.690  0.997E-01  0.256E-06  0.498E-01  0.498E-01
 -11.680  0.108E+00  0.280E-06  0.539E-01  0.539E-01
 -11.670  0.114E+00  0.301E-06  0.571E-01  0.571E-01
 -11.660  0.118E+00  0.316E-06  0.592E-01  0.592E-01
 -11.650  0.120E+00  0.324E-06  0.600E-01  0.600E-01
 -11.640  0.119E+00  0.324E-06  0.596E-01  0.596E-01
 -11.630  0.116E+00  0.317E-06  0.581E-01  0.581E-01
 -11.620  0.112E+00  0.304E-06  0.560E-01  0.560E-01
 -11.610  0.107E+00  0.289E-06  0.537E-01  0.537E-01
 -11.600  0.103E+00  0.272E-06  0.515E-01  0.515E-01
 -11.590  0.992E-01  0.256E-06  0.496E-01  0.496E-01
 -11.580  0.965E-01  0.242E-06  0.482E-01  0.482E-01
 -11.570  0.945E-01  0.231E-06  0.473E-01  0.473E-01
 -11.560  0.930E-01  0.223E-06  0.465E-01  0.465E-01
 -11.550  0.915E-01  0.216E-06  0.457E-01  0.457E-01
 -11.540  0.898E-01  0.211E-06  0.449E-01  0.449E-01
 -11.530  0.878E-01  0.207E-06  0.439E-01  0.439E-01
 -11.520  0.857E-01  0.206E-06  0.429E-01  0.429E-01
 -11.510  0.840E-01  0.207E-06  0.420E-01  0.420E-01
 -11.500  0.830E-01  0.212E-06  0.415E-01  0.415E-01
 -11.490  0.831E-01  0.220E-06  0.416E-01  0.416E-01
 -11.480  0.844E-01  0.232E-06  0.422E-01  0.422E-01
 -11.470  0.869E-01  0.247E-06  0.435E-01  0.435E-01
 -11.460  0.904E-01  0.262E-06  0.452E-01  0.452E-01
 -11.450  0.944E-01  0.276E-06  0.472E-01  0.472E-01
 -11.440  0.988E-01  0.289E-06  0.494E-01  0.494E-01
 -11.430  0.103E+00  0.298E-06  0.515E-01  0.515E-01
 -11.420  0.107E+00  0.302E-06  0.534E-01  0.534E-01
 -11.410  0.110E+00  0.303E-06  0.549E-01  0.549E-01
 -11.400  0.112E+00  0.299E-06  0.559E-01  0.559E-01
 -11.390  0.113E+00  0.291E-06  0.563E-01  0.563E-01
 -11.380  0.112E+00  0.280E-06  0.558E-01  0.558E-01
 -11.370  0.109E+00  0.267E-06  0.546E-01  0.546E-01
 -11.360  0.105E+00  0.252E-06  0.525E-01  0.525E-01
 -11.350  0.995E-01  0.237E-06  0.498E-01  0.498E-01
 -11.340  0.929E-01  0.225E-06  0.465E-01  0.465E-01
 -11.330  0.859E-01  0.221E-06  0.430E-01  0.430E-01
 -11.320  0.793E-01  0.234E-06  0.396E-01  0.396E-01
 -11.310  0.739E-01  0.279E-06  0.369E-01  0.369E-01
 -11.300  0.707E-01  0.388E-06  0.353E-01  0.353E-01
 -11.290  0.703E-01  0.608E-06  0.352E-01  0.352E-01
 -11.280  0.732E-01  0.102E-05  0.366E-01  0.366E-01
 -11.270  0.794E-01  0.177E-05  0.397E-01  0.397E-01
 -11.260  0.884E-01  0.303E-05  0.442E-01  0.442E-01
 -11.250  0.993E-01  0.508E-05  0.497E-01  0.497E-01
 -11.240  0.111E+00  0.827E-05  0.556E-01  0.556E-01
 -11.230  0.123E+00  0.130E-04  0.614E-01  0.614E-01
 -11.220  0.133E+00  0.197E-04  0.664E-01  0.664E-01
 -11.210  0.141E+00  0.288E-04  0.704E-01  0.704E-01
 -11.200  0.146E+00  0.405E-04  0.728E-01  0.728E-01
 -11.190  0.148E+00  0.549E-04  0.737E-01  0.737E-01
 -11.180  0.146E+00  0.717E-04  0.730E-01  0.730E-01
 -11.170  0.142E+00  0.902E-04  0.710E-01  0.710E-01
 -11.160  0.136E+00  0.110E-03  0.679E-01  0.679E-01
 -11.150  0.129E+00  0.129E-03  0.645E-01  0.645E-01
 -11.140  0.123E+00  0.147E-03  0.613E-01  0.613E-01
 -11.130  0.118E+00  0.162E-03  0.590E-01  0.590E-01
 -11.120  0.117E+00  0.174E-03  0.582E-01  0.582E-01
 -11.110  0.118E+00  0.183E-03  0.591E-01  0.591E-01
 -11.100  0.124E+00  0.188E-03  0.618E-01  0.618E-01
 -11.090  0.132E+00  0.190E-03  0.660E-01  0.660E-01
 -11.080  0.143E+00  0.190E-03  0.713E-01  0.713E-01
 -11.070  0.154E+00  0.189E-03  0.768E-01  0.768E-01
 -11.060  0.164E+00  0.187E-03  0.818E-01  0.818E-01
 -11.050  0.172E+00  0.184E-03  0.857E-01  0.857E-01
 -11.040  0.176E+00  0.182E-03  0.880E-01  0.880E-01
 -11.030  0.177E+00  0.180E-03  0.883E-01  0.883E-01
 -11.020  0.173E+00  0.178E-03  0.866E-01  0.866E-01
 -11.010  0.166E+00  0.177E-03  0.830E-01  0.830E-01
 -11.000  0.156E+00  0.176E-03  0.780E-01  0.780E-01
 -10.990  0.145E+00  0.175E-03  0.722E-01  0.722E-01
 -10.980  0.132E+00  0.175E-03  0.662E-01  0.662E-01
 -10.970  0.121E+00  0.175E-03  0.606E-01  0.606E-01
 -10.960  0.113E+00  0.175E-03  0.562E-01  0.562E-01
 -10.950  0.107E+00  0.175E-03  0.534E-01  0.534E-01
 -10.940  0.105E+00  0.175E-03  0.525E-01  0.525E-01
 -10.930  0.108E+00  0.174E-03  0.537E-01  0.537E-01
 -10.920  0.114E+00  0.174E-03  0.569E-01  0.569E-01
 -10.910  0.124E+00  0.173E-03  0.618E-01  0.618E-01
 -10.900  0.136E+00  0.173E-03  0.681E-01  0.681E-01
 -10.890  0.150E+00  0.173E-03  0.750E-01  0.750E-01
 -10.880  0.164E+00  0.173E-03  0.819E-01  0.819E-01
 -10.870  0.176E+00  0.174E-03  0.880E-01  0.880E-01
 -10.860  0.186E+00  0.175E-03  0.928E-01  0.928E-01
 -10.850  0.191E+00  0.176E-03  0.955E-01  0.955E-01
 -10.840  0.192E+00  0.175E-03  0.960E-01  0.960E-01
 -10.830  0.189E+00  0.174E-03  0.942E-01  0.942E-01
 -10.820  0.181E+00  0.172E-03  0.902E-01  0.902E-01
 -10.810  0.169E+00  0.171E-03  0.844E-01  0.844E-01
 -10.800  0.155E+00  0.170E-03  0.773E-01  0.773E-01
 -10.790  0.139E+00  0.171E-03  0.696E-01  0.696E-01
 -10.780  0.124E+00  0.172E-03  0.620E-01  0.620E-01
 -10.770  0.111E+00  0.175E-03  0.553E-01  0.553E-01
 -10.760  0.100E+00  0.177E-03  0.501E-01  0.501E-01
 -10.750  0.943E-01  0.178E-03  0.470E-01  0.470E-01
 -10.740  0.933E-01  0.177E-03  0.466E-01  0.466E-01
 -10.730  0.979E-01  0.175E-03  0.489E-01  0.489E-01
 -10.720  0.108E+00  0.172E-03  0.538E-01  0.538E-01
 -10.710  0.122E+00  0.170E-03  0.610E-01  0.610E-01
 -10.700  0.140E+00  0.168E-03  0.697E-01  0.697E-01
 -10.690  0.158E+00  0.168E-03  0.788E-01  0.788E-01
 -10.680  0.175E+00  0.170E-03  0.872E-01  0.872E-01
 -10.670  0.188E+00  0.173E-03  0.939E-01  0.939E-01
 -10.660  0.196E+00  0.177E-03  0.981E-01  0.981E-01
 -10.650  0.199E+00  0.180E-03  0.995E-01  0.995E-01
 -10.640  0.197E+00  0.181E-03  0.982E-01  0.982E-01
 -10.630  0.190E+00  0.179E-03  0.948E-01  0.948E-01
 -10.620  0.180E+00  0.177E-03  0.899E-01  0.899E-01
 -10.610  0.169E+00  0.173E-03  0.844E-01  0.844E-01
 -10.600  0.158E+00  0.169E-03  0.790E-01  0.790E-01
 -10.590  0.149E+00  0.168E-03  0.742E-01  0.742E-01
 -10.580  0.141E+00  0.168E-03  0.702E-01  0.702E-01
 -10.570  0.134E+00  0.170E-03  0.670E-01  0.670E-01
 -10.560  0.129E+00  0.174E-03  0.644E-01  0.644E-01
 -10.550  0.125E+00  0.178E-03  0.624E-01  0.624E-01
 -10.540  0.122E+00  0.181E-03  0.609E-01  0.609E-01
 -10.530  0.120E+00  0.183E-03  0.599E-01  0.599E-01
 -10.520  0.119E+00  0.182E-03  0.595E-01  0.595E-01
 -10.510  0.120E+00  0.179E-03  0.600E-01  0.600E-01
 -10.500  0.123E+00  0.175E-03  0.614E-01  0.614E-01
 -10.490  0.127E+00  0.172E-03  0.636E-01  0.636E-01
 -10.480  0.133E+00  0.170E-03  0.666E-01  0.666E-01
 -10.470  0.141E+00  0.170E-03  0.702E-01  0.702E-01
 -10.460  0.148E+00  0.172E-03  0.740E-01  0.740E-01
 -10.450  0.156E+00  0.176E-03  0.779E-01  0.779E-01
 -10.440  0.163E+00  0.181E-03  0.814E-01  0.814E-01
 -10.430  0.169E+00  0.185E-03  0.844E-01  0.844E-01
 -10.420  0.174E+00  0.187E-03  0.867E-01  0.867E-01
 -10.410  0.177E+00  0.187E-03  0.884E-01  0.884E-01
 -10.400  0.179E+00  0.185E-03  0.894E-01  0.894E-01
 -10.390  0.180E+00  0.182E-03  0.897E-01  0.897E-01
 -10.380  0.180E+00  0.179E-03  0.897E-01  0.897E-01
 -10.370  0.179E+00  0.178E-03  0.893E-01  0.893E-01
 -10.360  0.178E+00  0.179E-03  0.887E-01  0.887E-01
 -10.350  0.176E+00  0.182E-03  0.881E-01  0.881E-01
 -10.340  0.175E+00  0.187E-03  0.873E-01  0.873E-01
 -10.330  0.173E+00  0.193E-03  0.863E-01  0.863E-01
 -10.320  0.170E+00  0.198E-03  0.848E-01  0.848E-01
 -10.310  0.165E+00  0.201E-03  0.825E-01  0.825E-01
 -10.300  0.158E+00  0.201E-03  0.790E-01  0.790E-01
 -10.290  0.148E+00  0.198E-03  0.741E-01  0.741E-01
 -10.280  0.136E+00  0.192E-03  0.679E-01  0.679E-01
 -10.270  0.122E+00  0.184E-03  0.607E-01  0.607E-01
 -10.260  0.107E+00  0.175E-03  0.534E-01  0.534E-01
 -10.250  0.940E-01  0.166E-03  0.469E-01  0.469E-01
 -10.240  0.851E-01  0.160E-03  0.425E-01  0.425E-01
 -10.230  0.825E-01  0.156E-03  0.412E-01  0.412E-01
 -10.220  0.875E-01  0.155E-03  0.437E-01  0.437E-01
 -10.210  0.100E+00  0.156E-03  0.502E-01  0.502E-01
 -10.200  0.120E+00  0.159E-03  0.601E-01  0.601E-01
 -10.190  0.145E+00  0.161E-03  0.725E-01  0.725E-01
 -10.180  0.172E+00  0.163E-03  0.859E-01  0.859E-01
 -10.170  0.197E+00  0.163E-03  0.985E-01  0.985E-01
 -10.160  0.218E+00  0.160E-03  0.109E+00  0.109E+00
 -10.150  0.233E+00  0.155E-03  0.116E+00  0.116E+00
 -10.140  0.239E+00  0.149E-03  0.120E+00  0.120E+00
 -10.130  0.238E+00  0.143E-03  0.119E+00  0.119E+00
 -10.120  0.230E+00  0.137E-03  0.115E+00  0.115E+00
 -10.110  0.216E+00  0.134E-03  0.108E+00  0.108E+00
 -10.100  0.199E+00  0.133E-03  0.992E-01  0.992E-01
 -10.090  0.180E+00  0.135E-03  0.900E-01  0.900E-01
 -10.080  0.162E+00  0.140E-03  0.811E-01  0.811E-01
 -10.070  0.147E+00  0.146E-03  0.733E-01  0.733E-01
 -10.060  0.134E+00  0.153E-03  0.668E-01  0.668E-01
 -10.050  0.124E+00  0.158E-03  0.619E-01  0.619E-01
 -10.040  0.117E+00  0.161E-03  0.585E-01  0.585E-01
 -10.030  0.113E+00  0.161E-03  0.565E-01  0.565E-01
 -10.020  0.112E+00  0.158E-03  0.558E-01  0.558E-01
 -10.010  0.113E+00  0.151E-03  0.562E-01  0.562E-01
 -10.000  0.115E+00  0.144E-03  0.577E-01  0.577E-01
  -9.990  0.120E+00  0.136E-03  0.601E-01  0.601E-01
  -9.980  0.127E+00  0.129E-03  0.634E-01  0.634E-01
  -9.970  0.135E+00  0.125E-03  0.675E-01  0.675E-01
  -9.960  0.144E+00  0.124E-03  0.721E-01  0.721E-01
  -9.950  0.154E+00  0.127E-03  0.770E-01  0.770E-01
  -9.940  0.164E+00  0.134E-03  0.820E-01  0.820E-01
  -9.930  0.173E+00  0.142E-03  0.866E-01  0.866E-01
  -9.920  0.181E+00  0.151E-03  0.906E-01  0.906E-01
  -9.910  0.188E+00  0.159E-03  0.937E-01  0.937E-01
  -9.900  0.191E+00  0.164E-03  0.955E-01  0.955E-01
  -9.890  0.192E+00  0.165E-03  0.958E-01  0.958E-01
  -9.880  0.189E+00  0.162E-03  0.946E-01  0.946E-01
  -9.870  0.184E+00  0.154E-03  0.919E-01  0.919E-01
  -9.860  0.176E+00  0.144E-03  0.881E-01  0.881E-01
  -9.850  0.168E+00  0.133E-03  0.838E-01  0.838E-01
  -9.840  0.159E+00  0.124E-03  0.797E-01  0.797E-01
  -9.830  0.153E+00  0.118E-03  0.765E-01  0.765E-01
  -9.820  0.150E+00  0.116E-03  0.751E-01  0.751E-01
  -9.810  0.151E+00  0.120E-03  0.757E-01  0.757E-01
  -9.800  0.157E+00  0.128E-03  0.784E-01  0.784E-01
  -9.790  0.166E+00  0.138E-03  0.831E-01  0.831E-01
  -9.780  0.178E+00  0.150E-03  0.888E-01  0.888E-01
  -9.770  0.190E+00  0.160E-03  0.948E-01  0.948E-01
  -9.760  0.200E+00  0.167E-03  0.999E-01  0.999E-01
  -9.750  0.206E+00  0.170E-03  0.103E+00  0.103E+00
  -9.740  0.207E+00  0.168E-03  0.104E+00  0.104E+00
  -9.730  0.203E+00  0.162E-03  0.101E+00  0.101E+00
  -9.720  0.192E+00  0.153E-03  0.958E-01  0.958E-01
  -9.710  0.176E+00  0.143E-03  0.880E-01  0.880E-01
  -9.700  0.157E+00  0.133E-03  0.786E-01  0.786E-01
  -9.690  0.137E+00  0.125E-03  0.685E-01  0.685E-01
  -9.680  0.118E+00  0.120E-03  0.588E-01  0.588E-01
  -9.670  0.101E+00  0.118E-03  0.505E-01  0.505E-01
  -9.660  0.894E-01  0.119E-03  0.446E-01  0.446E-01
  -9.650  0.836E-01  0.124E-03  0.418E-01  0.418E-01
  -9.640  0.847E-01  0.132E-03  0.423E-01  0.423E-01
  -9.630  0.929E-01  0.142E-03  0.464E-01  0.464E-01
  -9.620  0.107E+00  0.153E-03  0.537E-01  0.537E-01
  -9.610  0.127E+00  0.163E-03  0.636E-01  0.636E-01
  -9.600  0.151E+00  0.172E-03  0.754E-01  0.754E-01
  -9.590  0.176E+00  0.177E-03  0.880E-01  0.880E-01
  -9.580  0.201E+00  0.178E-03  0.100E+00  0.100E+00
  -9.570  0.223E+00  0.175E-03  0.111E+00  0.111E+00
  -9.560  0.241E+00  0.167E-03  0.120E+00  0.120E+00
  -9.550  0.254E+00  0.155E-03  0.127E+00  0.127E+00
  -9.540  0.261E+00  0.141E-03  0.130E+00  0.130E+00
  -9.530  0.261E+00  0.126E-03  0.130E+00  0.130E+00
  -9.520  0.256E+00  0.114E-03  0.128E+00  0.128E+00
  -9.510  0.245E+00  0.106E-03  0.122E+00  0.122E+00
  -9.500  0.230E+00  0.105E-03  0.115E+00  0.115E+00
  -9.490  0.212E+00  0.110E-03  0.106E+00  0.106E+00
  -9.480  0.191E+00  0.122E-03  0.956E-01  0.956E-01
  -9.470  0.170E+00  0.139E-03  0.850E-01  0.850E-01
  -9.460  0.150E+00  0.161E-03  0.747E-01  0.747E-01
  -9.450  0.131E+00  0.182E-03  0.652E-01  0.652E-01
  -9.440  0.114E+00  0.201E-03  0.569E-01  0.569E-01
  -9.430  0.101E+00  0.214E-03  0.503E-01  0.503E-01
  -9.420  0.917E-01  0.220E-03  0.457E-01  0.457E-01
  -9.410  0.872E-01  0.217E-03  0.435E-01  0.435E-01
  -9.400  0.879E-01  0.206E-03  0.438E-01  0.438E-01
  -9.390  0.941E-01  0.190E-03  0.469E-01  0.469E-01
  -9.380  0.106E+00  0.170E-03  0.528E-01  0.528E-01
  -9.370  0.122E+00  0.151E-03  0.611E-01  0.611E-01
  -9.360  0.143E+00  0.136E-03  0.714E-01  0.714E-01
  -9.350  0.166E+00  0.129E-03  0.829E-01  0.829E-01
  -9.340  0.189E+00  0.131E-03  0.945E-01  0.945E-01
  -9.330  0.210E+00  0.143E-03  0.105E+00  0.105E+00
  -9.320  0.227E+00  0.163E-03  0.114E+00  0.114E+00
  -9.310  0.239E+00  0.190E-03  0.119E+00  0.119E+00
  -9.300  0.244E+00  0.219E-03  0.122E+00  0.122E+00
  -9.290  0.242E+00  0.246E-03  0.121E+00  0.121E+00
  -9.280  0.234E+00  0.265E-03  0.117E+00  0.117E+00
  -9.270  0.221E+00  0.275E-03  0.111E+00  0.111E+00
  -9.260  0.207E+00  0.272E-03  0.103E+00  0.103E+00
  -9.250  0.191E+00  0.258E-03  0.954E-01  0.954E-01
  -9.240  0.177E+00  0.235E-03  0.884E-01  0.884E-01
  -9.230  0.166E+00  0.206E-03  0.828E-01  0.828E-01
  -9.220  0.158E+00  0.178E-03  0.789E-01  0.789E-01
  -9.210  0.154E+00  0.154E-03  0.772E-01  0.772E-01
  -9.200  0.155E+00  0.139E-03  0.774E-01  0.774E-01
  -9.190  0.159E+00  0.134E-03  0.795E-01  0.795E-01
  -9.180  0.166E+00  0.141E-03  0.831E-01  0.831E-01
  -9.170  0.176E+00  0.159E-03  0.877E-01  0.877E-01
  -9.160  0.186E+00  0.185E-03  0.927E-01  0.927E-01
  -9.150  0.195E+00  0.215E-03  0.973E-01  0.973E-01
  -9.140  0.202E+00  0.245E-03  0.101E+00  0.101E+00
  -9.130  0.206E+00  0.270E-03  0.103E+00  0.103E+00
  -9.120  0.206E+00  0.286E-03  0.103E+00  0.103E+00
  -9.110  0.200E+00  0.290E-03  0.999E-01  0.999E-01
  -9.100  0.190E+00  0.281E-03  0.947E-01  0.947E-01
  -9.090  0.176E+00  0.260E-03  0.876E-01  0.876E-01
  -9.080  0.159E+00  0.232E-03  0.794E-01  0.794E-01
  -9.070  0.142E+00  0.200E-03  0.711E-01  0.711E-01
  -9.060  0.128E+00  0.169E-03  0.640E-01  0.640E-01
  -9.050  0.118E+00  0.146E-03  0.589E-01  0.589E-01
  -9.040  0.114E+00  0.134E-03  0.569E-01  0.569E-01
  -9.030  0.116E+00  0.135E-03  0.581E-01  0.581E-01
  -9.020  0.125E+00  0.149E-03  0.625E-01  0.625E-01
  -9.010  0.139E+00  0.175E-03  0.696E-01  0.696E-01
  -9.000  0.157E+00  0.209E-03  0.786E-01  0.786E-01
  -8.990  0.178E+00  0.247E-03  0.887E-01  0.887E-01
  -8.980  0.198E+00  0.284E-03  0.990E-01  0.990E-01
  -8.970  0.218E+00  0.314E-03  0.109E+00  0.109E+00
  -8.960  0.235E+00  0.333E-03  0.117E+00  0.117E+00
  -8.950  0.249E+00  0.337E-03  0.124E+00  0.124E+00
  -8.940  0.259E+00  0.325E-03  0.129E+00  0.129E+00
  -8.930  0.265E+00  0.298E-03  0.133E+00  0.133E+00
  -8.920  0.268E+00  0.260E-03  0.134E+00  0.134E+00
  -8.910  0.268E+00  0.217E-03  0.134E+00  0.134E+00
  -8.900  0.263E+00  0.174E-03  0.132E+00  0.132E+00
  -8.890  0.255E+00  0.139E-03  0.127E+00  0.127E+00
  -8.880  0.242E+00  0.116E-03  0.121E+00  0.121E+00
  -8.870  0.225E+00  0.109E-03  0.112E+00  0.112E+00
  -8.860  0.204E+00  0.119E-03  0.102E+00  0.102E+00
  -8.850  0.180E+00  0.144E-03  0.899E-01  0.899E-01
  -8.840  0.155E+00  0.182E-03  0.774E-01  0.774E-01
  -8.830  0.130E+00  0.229E-03  0.651E-01  0.651E-01
  -8.820  0.108E+00  0.280E-03  0.541E-01  0.541E-01
  -8.810  0.908E-01  0.328E-03  0.452E-01  0.452E-01
  -8.800  0.790E-01  0.368E-03  0.393E-01  0.393E-01
  -8.790  0.742E-01  0.394E-03  0.369E-01  0.369E-01
  -8.780  0.771E-01  0.402E-03  0.383E-01  0.383E-01
  -8.770  0.880E-01  0.390E-03  0.438E-01  0.438E-01
  -8.760  0.107E+00  0.360E-03  0.533E-01  0.533E-01
  -8.750  0.133E+00  0.316E-03  0.663E-01  0.663E-01
  -8.740  0.165E+00  0.268E-03  0.822E-01  0.822E-01
  -8.730  0.200E+00  0.227E-03  0.999E-01  0.999E-01
  -8.720  0.236E+00  0.210E-03  0.118E+00  0.118E+00
  -8.710  0.270E+00  0.238E-03  0.135E+00  0.135E+00
  -8.700  0.299E+00  0.342E-03  0.149E+00  0.149E+00
  -8.690  0.319E+00  0.570E-03  0.159E+00  0.159E+00
  -8.680  0.329E+00  0.994E-03  0.164E+00  0.164E+00
  -8.670  0.328E+00  0.172E-02  0.163E+00  0.163E+00
  -8.660  0.316E+00  0.289E-02  0.156E+00  0.156E+00
  -8.650  0.295E+00  0.470E-02  0.145E+00  0.145E+00
  -8.640  0.269E+00  0.736E-02  0.131E+00  0.131E+00
  -8.630  0.241E+00  0.111E-01  0.115E+00  0.115E+00
  -8.620  0.214E+00  0.162E-01  0.990E-01  0.990E-01
  -8.610  0.192E+00  0.227E-01  0.846E-01  0.846E-01
  -8.600  0.176E+00  0.306E-01  0.728E-01  0.728E-01
  -8.590  0.168E+00  0.399E-01  0.641E-01  0.641E-01
  -8.580  0.168E+00  0.501E-01  0.590E-01  0.590E-01
  -8.570  0.175E+00  0.608E-01  0.572E-01  0.572E-01
  -8.560  0.188E+00  0.713E-01  0.584E-01  0.584E-01
  -8.550  0.205E+00  0.811E-01  0.621E-01  0.621E-01
  -8.540  0.225E+00  0.895E-01  0.677E-01  0.677E-01
  -8.530  0.245E+00  0.962E-01  0.745E-01  0.745E-01
  -8.520  0.265E+00  0.101E+00  0.819E-01  0.819E-01
  -8.510  0.283E+00  0.104E+00  0.896E-01  0.896E-01
  -8.500  0.300E+00  0.105E+00  0.971E-01  0.971E-01
  -8.490  0.313E+00  0.105E+00  0.104E+00  0.104E+00
  -8.480  0.325E+00  0.105E+00  0.110E+00  0.110E+00
  -8.470  0.334E+00  0.104E+00  0.115E+00  0.115E+00
  -8.460  0.341E+00  0.102E+00  0.119E+00  0.119E+00
  -8.450  0.346E+00  0.101E+00  0.122E+00  0.122E+00
  -8.440  0.349E+00  0.100E+00  0.124E+00  0.124E+00
  -8.430  0.351E+00  0.994E-01  0.126E+00  0.126E+00
  -8.420  0.351E+00  0.989E-01  0.126E+00  0.126E+00
  -8.410  0.350E+00  0.985E-01  0.126E+00  0.126E+00
  -8.400  0.346E+00  0.982E-01  0.124E+00  0.124E+00
  -8.390  0.341E+00  0.981E-01  0.122E+00  0.122E+00
  -8.380  0.334E+00  0.981E-01  0.118E+00  0.118E+00
  -8.370  0.323E+00  0.981E-01  0.113E+00  0.113E+00
  -8.360  0.312E+00  0.981E-01  0.107E+00  0.107E+00
  -8.350  0.299E+00  0.980E-01  0.101E+00  0.101E+00
  -8.340  0.288E+00  0.980E-01  0.950E-01  0.950E-01
  -8.330  0.280E+00  0.980E-01  0.908E-01  0.908E-01
  -8.320  0.275E+00  0.981E-01  0.884E-01  0.884E-01
  -8.310  0.275E+00  0.983E-01  0.883E-01  0.883E-01
  -8.300  0.279E+00  0.985E-01  0.902E-01  0.902E-01
  -8.290  0.286E+00  0.988E-01  0.936E-01  0.936E-01
  -8.280  0.294E+00  0.989E-01  0.978E-01  0.978E-01
  -8.270  0.303E+00  0.988E-01  0.102E+00  0.102E+00
  -8.260  0.310E+00  0.986E-01  0.106E+00  0.106E+00
  -8.250  0.316E+00  0.983E-01  0.109E+00  0.109E+00
  -8.240  0.320E+00  0.980E-01  0.111E+00  0.111E+00
  -8.230  0.323E+00  0.980E-01  0.112E+00  0.112E+00
  -8.220  0.325E+00  0.984E-01  0.113E+00  0.113E+00
  -8.210  0.326E+00  0.989E-01  0.114E+00  0.114E+00
  -8.200  0.328E+00  0.995E-01  0.114E+00  0.114E+00
  -8.190  0.329E+00  0.998E-01  0.115E+00  0.115E+00
  -8.180  0.330E+00  0.996E-01  0.115E+00  0.115E+00
  -8.170  0.329E+00  0.990E-01  0.115E+00  0.115E+00
  -8.160  0.326E+00  0.982E-01  0.114E+00  0.114E+00
  -8.150  0.323E+00  0.974E-01  0.113E+00  0.113E+00
  -8.140  0.318E+00  0.971E-01  0.111E+00  0.111E+00
  -8.130  0.315E+00  0.975E-01  0.109E+00  0.109E+00
  -8.120  0.313E+00  0.986E-01  0.107E+00  0.107E+00
  -8.110  0.314E+00  0.100E+00  0.107E+00  0.107E+00
  -8.100  0.318E+00  0.101E+00  0.108E+00  0.108E+00
  -8.090  0.325E+00  0.102E+00  0.111E+00  0.111E+00
  -8.080  0.333E+00  0.102E+00  0.116E+00  0.116E+00
  -8.070  0.341E+00  0.101E+00  0.120E+00  0.120E+00
  -8.060  0.347E+00  0.991E-01  0.124E+00  0.124E+00
  -8.050  0.350E+00  0.972E-01  0.127E+00  0.127E+00
  -8.040  0.350E+00  0.959E-01  0.127E+00  0.127E+00
  -8.030  0.346E+00  0.956E-01  0.125E+00  0.125E+00
  -8.020  0.339E+00  0.966E-01  0.121E+00  0.121E+00
  -8.010  0.330E+00  0.987E-01  0.116E+00  0.116E+00
  -8.000  0.322E+00  0.101E+00  0.110E+00  0.110E+00
  -7.990  0.314E+00  0.103E+00  0.105E+00  0.105E+00
  -7.980  0.309E+00  0.105E+00  0.102E+00  0.102E+00
  -7.970  0.308E+00  0.104E+00  0.102E+00  0.102E+00
  -7.960  0.311E+00  0.103E+00  0.104E+00  0.104E+00
  -7.950  0.318E+00  0.100E+00  0.109E+00  0.109E+00
  -7.940  0.328E+00  0.972E-01  0.115E+00  0.115E+00
  -7.930  0.341E+00  0.947E-01  0.123E+00  0.123E+00
  -7.920  0.355E+00  0.936E-01  0.131E+00  0.131E+00
  -7.910  0.368E+00  0.941E-01  0.137E+00  0.137E+00
  -7.900  0.379E+00  0.963E-01  0.142E+00  0.142E+00
  -7.890  0.386E+00  0.997E-01  0.143E+00  0.143E+00
  -7.880  0.388E+00  0.104E+00  0.142E+00  0.142E+00
  -7.870  0.383E+00  0.107E+00  0.138E+00  0.138E+00
  -7.860  0.373E+00  0.108E+00  0.132E+00  0.132E+00
  -7.850  0.358E+00  0.108E+00  0.125E+00  0.125E+00
  -7.840  0.341E+00  0.106E+00  0.117E+00  0.117E+00
  -7.830  0.323E+00  0.102E+00  0.111E+00  0.111E+00
  -7.820  0.309E+00  0.980E-01  0.105E+00  0.105E+00
  -7.810  0.299E+00  0.941E-01  0.103E+00  0.103E+00
  -7.800  0.296E+00  0.916E-01  0.102E+00  0.102E+00
  -7.790  0.299E+00  0.910E-01  0.104E+00  0.104E+00
  -7.780  0.309E+00  0.926E-01  0.108E+00  0.108E+00
  -7.770  0.324E+00  0.961E-01  0.114E+00  0.114E+00
  -7.760  0.342E+00  0.101E+00  0.121E+00  0.121E+00
  -7.750  0.363E+00  0.106E+00  0.129E+00  0.129E+00
  -7.740  0.383E+00  0.110E+00  0.136E+00  0.136E+00
  -7.730  0.400E+00  0.113E+00  0.144E+00  0.144E+00
  -7.720  0.413E+00  0.113E+00  0.150E+00  0.150E+00
  -7.710  0.420E+00  0.110E+00  0.155E+00  0.155E+00
  -7.700  0.420E+00  0.106E+00  0.157E+00  0.157E+00
  -7.690  0.415E+00  0.101E+00  0.157E+00  0.157E+00
  -7.680  0.405E+00  0.951E-01  0.155E+00  0.155E+00
  -7.670  0.393E+00  0.907E-01  0.151E+00  0.151E+00
  -7.660  0.381E+00  0.884E-01  0.146E+00  0.146E+00
  -7.650  0.370E+00  0.886E-01  0.141E+00  0.141E+00
  -7.640  0.364E+00  0.914E-01  0.136E+00  0.136E+00
  -7.630  0.362E+00  0.961E-01  0.133E+00  0.133E+00
  -7.620  0.365E+00  0.102E+00  0.132E+00  0.132E+00
  -7.610  0.372E+00  0.108E+00  0.132E+00  0.132E+00
  -7.600  0.380E+00  0.113E+00  0.133E+00  0.133E+00
  -7.590  0.387E+00  0.116E+00  0.135E+00  0.135E+00
  -7.580  0.391E+00  0.117E+00  0.137E+00  0.137E+00
  -7.570  0.392E+00  0.115E+00  0.139E+00  0.139E+00
  -7.560  0.389E+00  0.111E+00  0.139E+00  0.139E+00
  -7.550  0.382E+00  0.105E+00  0.138E+00  0.138E+00
  -7.540  0.372E+00  0.990E-01  0.137E+00  0.137E+00
  -7.530  0.362E+00  0.931E-01  0.135E+00  0.135E+00
  -7.520  0.354E+00  0.888E-01  0.133E+00  0.133E+00
  -7.510  0.349E+00  0.868E-01  0.131E+00  0.131E+00
  -7.500  0.349E+00  0.877E-01  0.131E+00  0.131E+00
  -7.490  0.357E+00  0.913E-01  0.133E+00  0.133E+00
  -7.480  0.371E+00  0.970E-01  0.137E+00  0.137E+00
  -7.470  0.393E+00  0.104E+00  0.145E+00  0.145E+00
  -7.460  0.421E+00  0.111E+00  0.155E+00  0.155E+00
  -7.450  0.451E+00  0.117E+00  0.167E+00  0.167E+00
  -7.440  0.481E+00  0.120E+00  0.181E+00  0.181E+00
  -7.430  0.507E+00  0.121E+00  0.193E+00  0.193E+00
  -7.420  0.525E+00  0.119E+00  0.203E+00  0.203E+00
  -7.410  0.533E+00  0.115E+00  0.209E+00  0.209E+00
  -7.400  0.529E+00  0.109E+00  0.210E+00  0.210E+00
  -7.390  0.516E+00  0.103E+00  0.206E+00  0.206E+00
  -7.380  0.494E+00  0.973E-01  0.198E+00  0.198E+00
  -7.370  0.468E+00  0.927E-01  0.188E+00  0.188E+00
  -7.360  0.441E+00  0.900E-01  0.176E+00  0.176E+00
  -7.350  0.420E+00  0.899E-01  0.165E+00  0.165E+00
  -7.340  0.407E+00  0.926E-01  0.157E+00  0.157E+00
  -7.330  0.407E+00  0.982E-01  0.154E+00  0.154E+00
  -7.320  0.419E+00  0.106E+00  0.156E+00  0.156E+00
  -7.310  0.443E+00  0.116E+00  0.163E+00  0.163E+00
  -7.300  0.476E+00  0.127E+00  0.174E+00  0.174E+00
  -7.290  0.512E+00  0.137E+00  0.187E+00  0.187E+00
  -7.280  0.547E+00  0.145E+00  0.201E+00  0.201E+00
  -7.270  0.578E+00  0.151E+00  0.213E+00  0.213E+00
  -7.260  0.600E+00  0.153E+00  0.224E+00  0.224E+00
  -7.250  0.614E+00  0.152E+00  0.231E+00  0.231E+00
  -7.240  0.622E+00  0.149E+00  0.236E+00  0.236E+00
  -7.230  0.624E+00  0.145E+00  0.239E+00  0.239E+00
  -7.220  0.624E+00  0.140E+00  0.242E+00  0.242E+00
  -7.210  0.623E+00  0.137E+00  0.243E+00  0.243E+00
  -7.200  0.625E+00  0.135E+00  0.245E+00  0.245E+00
  -7.190  0.627E+00  0.136E+00  0.246E+00  0.246E+00
  -7.180  0.631E+00  0.138E+00  0.246E+00  0.246E+00
  -7.170  0.633E+00  0.143E+00  0.245E+00  0.245E+00
  -7.160  0.631E+00  0.149E+00  0.241E+00  0.241E+00
  -7.150  0.625E+00  0.157E+00  0.234E+00  0.234E+00
  -7.140  0.612E+00  0.164E+00  0.224E+00  0.224E+00
  -7.130  0.591E+00  0.169E+00  0.211E+00  0.211E+00
  -7.120  0.565E+00  0.171E+00  0.197E+00  0.197E+00
  -7.110  0.534E+00  0.170E+00  0.182E+00  0.182E+00
  -7.100  0.501E+00  0.164E+00  0.168E+00  0.168E+00
  -7.090  0.469E+00  0.154E+00  0.157E+00  0.157E+00
  -7.080  0.441E+00  0.140E+00  0.150E+00  0.150E+00
  -7.070  0.418E+00  0.123E+00  0.147E+00  0.147E+00
  -7.060  0.400E+00  0.105E+00  0.148E+00  0.148E+00
  -7.050  0.388E+00  0.873E-01  0.151E+00  0.151E+00
  -7.040  0.380E+00  0.718E-01  0.154E+00  0.154E+00
  -7.030  0.375E+00  0.594E-01  0.158E+00  0.158E+00
  -7.020  0.371E+00  0.508E-01  0.160E+00  0.160E+00
  -7.010  0.368E+00  0.463E-01  0.161E+00  0.161E+00
  -7.000  0.366E+00  0.456E-01  0.160E+00  0.160E+00
  -6.990  0.364E+00  0.487E-01  0.157E+00  0.157E+00
  -6.980  0.363E+00  0.548E-01  0.154E+00  0.154E+00
  -6.970  0.364E+00  0.637E-01  0.150E+00  0.150E+00
  -6.960  0.368E+00  0.745E-01  0.147E+00  0.147E+00
  -6.950  0.374E+00  0.867E-01  0.144E+00  0.144E+00
  -6.940  0.383E+00  0.995E-01  0.142E+00  0.142E+00
  -6.930  0.394E+00  0.112E+00  0.141E+00  0.141E+00
  -6.920  0.405E+00  0.124E+00  0.141E+00  0.141E+00
  -6.910  0.417E+00  0.135E+00  0.141E+00  0.141E+00
  -6.900  0.428E+00  0.145E+00  0.142E+00  0.142E+00
  -6.890  0.436E+00  0.153E+00  0.142E+00  0.142E+00
  -6.880  0.441E+00  0.159E+00  0.141E+00  0.141E+00
  -6.870  0.443E+00  0.164E+00  0.139E+00  0.139E+00
  -6.860  0.442E+00  0.167E+00  0.137E+00  0.137E+00
  -6.850  0.438E+00  0.167E+00  0.136E+00  0.136E+00
  -6.840  0.434E+00  0.164E+00  0.135E+00  0.135E+00
  -6.830  0.429E+00  0.158E+00  0.136E+00  0.136E+00
  -6.820  0.426E+00  0.150E+00  0.138E+00  0.138E+00
  -6.810  0.423E+00  0.141E+00  0.141E+00  0.141E+00
  -6.800  0.421E+00  0.132E+00  0.144E+00  0.144E+00
  -6.790  0.417E+00  0.125E+00  0.146E+00  0.146E+00
  -6.780  0.413E+00  0.122E+00  0.146E+00  0.146E+00
  -6.770  0.407E+00  0.122E+00  0.143E+00  0.143E+00
  -6.760  0.400E+00  0.126E+00  0.137E+00  0.137E+00
  -6.750  0.392E+00  0.133E+00  0.129E+00  0.129E+00
  -6.740  0.386E+00  0.142E+00  0.122E+00  0.122E+00
  -6.730  0.382E+00  0.151E+00  0.115E+00  0.115E+00
  -6.720  0.381E+00  0.158E+00  0.111E+00  0.111E+00
  -6.710  0.383E+00  0.162E+00  0.111E+00  0.111E+00
  -6.700  0.387E+00  0.162E+00  0.112E+00  0.112E+00
  -6.690  0.391E+00  0.160E+00  0.116E+00  0.116E+00
  -6.680  0.394E+00  0.155E+00  0.120E+00  0.120E+00
  -6.670  0.394E+00  0.148E+00  0.123E+00  0.123E+00
  -6.660  0.390E+00  0.141E+00  0.125E+00  0.125E+00
  -6.650  0.383E+00  0.134E+00  0.125E+00  0.125E+00
  -6.640  0.374E+00  0.128E+00  0.123E+00  0.123E+00
  -6.630  0.365E+00  0.124E+00  0.121E+00  0.121E+00
  -6.620  0.357E+00  0.120E+00  0.119E+00  0.119E+00
  -6.610  0.352E+00  0.117E+00  0.118E+00  0.118E+00
  -6.600  0.351E+00  0.115E+00  0.118E+00  0.118E+00
  -6.590  0.354E+00  0.114E+00  0.120E+00  0.120E+00
  -6.580  0.358E+00  0.114E+00  0.122E+00  0.122E+00
  -6.570  0.364E+00  0.117E+00  0.123E+00  0.123E+00
  -6.560  0.370E+00  0.123E+00  0.123E+00  0.123E+00
  -6.550  0.374E+00  0.131E+00  0.121E+00  0.121E+00
  -6.540  0.377E+00  0.142E+00  0.118E+00  0.118E+00
  -6.530  0.377E+00  0.152E+00  0.112E+00  0.112E+00
  -6.520  0.375E+00  0.162E+00  0.107E+00  0.107E+00
  -6.510  0.372E+00  0.169E+00  0.102E+00  0.102E+00
  -6.500  0.369E+00  0.171E+00  0.989E-01  0.989E-01
  -6.490  0.367E+00  0.170E+00  0.983E-01  0.983E-01
  -6.480  0.365E+00  0.164E+00  0.101E+00  0.101E+00
  -6.470  0.366E+00  0.155E+00  0.106E+00  0.106E+00
  -6.460  0.368E+00  0.144E+00  0.112E+00  0.112E+00
  -6.450  0.373E+00  0.132E+00  0.120E+00  0.120E+00
  -6.440  0.377E+00  0.122E+00  0.127E+00  0.127E+00
  -6.430  0.380E+00  0.115E+00  0.133E+00  0.133E+00
  -6.420  0.381E+00  0.111E+00  0.135E+00  0.135E+00
  -6.410  0.377E+00  0.110E+00  0.134E+00  0.134E+00
  -6.400  0.370E+00  0.112E+00  0.129E+00  0.129E+00
  -6.390  0.358E+00  0.116E+00  0.121E+00  0.121E+00
  -6.380  0.344E+00  0.121E+00  0.111E+00  0.111E+00
  -6.370  0.330E+00  0.127E+00  0.101E+00  0.101E+00
  -6.360  0.318E+00  0.133E+00  0.926E-01  0.926E-01
  -6.350  0.311E+00  0.139E+00  0.862E-01  0.862E-01
  -6.340  0.310E+00  0.144E+00  0.829E-01  0.829E-01
  -6.330  0.314E+00  0.149E+00  0.825E-01  0.825E-01
  -6.320  0.323E+00  0.154E+00  0.846E-01  0.846E-01
  -6.310  0.334E+00  0.158E+00  0.882E-01  0.882E-01
  -6.300  0.345E+00  0.160E+00  0.923E-01  0.923E-01
  -6.290  0.353E+00  0.161E+00  0.960E-01  0.960E-01
  -6.280  0.356E+00  0.159E+00  0.985E-01  0.985E-01
  -6.270  0.354E+00  0.155E+00  0.996E-01  0.996E-01
  -6.260  0.348E+00  0.149E+00  0.996E-01  0.996E-01
  -6.250  0.339E+00  0.141E+00  0.991E-01  0.991E-01
  -6.240  0.330E+00  0.132E+00  0.990E-01  0.990E-01
  -6.230  0.323E+00  0.123E+00  0.999E-01  0.999E-01
  -6.220  0.320E+00  0.115E+00  0.103E+00  0.103E+00
  -6.210  0.323E+00  0.109E+00  0.107E+00  0.107E+00
  -6.200  0.330E+00  0.104E+00  0.113E+00  0.113E+00
  -6.190  0.340E+00  0.103E+00  0.119E+00  0.119E+00
  -6.180  0.352E+00  0.104E+00  0.124E+00  0.124E+00
  -6.170  0.362E+00  0.108E+00  0.127E+00  0.127E+00
  -6.160  0.369E+00  0.114E+00  0.128E+00  0.128E+00
  -6.150  0.371E+00  0.121E+00  0.125E+00  0.125E+00
  -6.140  0.369E+00  0.130E+00  0.120E+00  0.120E+00
  -6.130  0.362E+00  0.138E+00  0.112E+00  0.112E+00
  -6.120  0.352E+00  0.147E+00  0.102E+00  0.102E+00
  -6.110  0.339E+00  0.155E+00  0.920E-01  0.920E-01
  -6.100  0.326E+00  0.162E+00  0.821E-01  0.821E-01
  -6.090  0.315E+00  0.168E+00  0.734E-01  0.734E-01
  -6.080  0.305E+00  0.172E+00  0.668E-01  0.668E-01
  -6.070  0.299E+00  0.173E+00  0.627E-01  0.627E-01
  -6.060  0.296E+00  0.173E+00  0.615E-01  0.615E-01
  -6.050  0.296E+00  0.170E+00  0.630E-01  0.630E-01
  -6.040  0.298E+00  0.164E+00  0.671E-01  0.671E-01
  -6.030  0.304E+00  0.157E+00  0.733E-01  0.733E-01
  -6.020  0.311E+00  0.149E+00  0.811E-01  0.811E-01
  -6.010  0.320E+00  0.140E+00  0.899E-01  0.899E-01
  -6.000  0.329E+00  0.131E+00  0.987E-01  0.987E-01
  -5.990  0.337E+00  0.123E+00  0.107E+00  0.107E+00
  -5.980  0.344E+00  0.117E+00  0.114E+00  0.114E+00
  -5.970  0.348E+00  0.112E+00  0.118E+00  0.118E+00
  -5.960  0.348E+00  0.108E+00  0.120E+00  0.120E+00
  -5.950  0.344E+00  0.107E+00  0.118E+00  0.118E+00
  -5.940  0.337E+00  0.109E+00  0.114E+00  0.114E+00
  -5.930  0.328E+00  0.113E+00  0.107E+00  0.107E+00
  -5.920  0.319E+00  0.120E+00  0.997E-01  0.997E-01
  -5.910  0.313E+00  0.129E+00  0.920E-01  0.920E-01
  -5.900  0.311E+00  0.140E+00  0.854E-01  0.854E-01
  -5.890  0.313E+00  0.151E+00  0.809E-01  0.809E-01
  -5.880  0.319E+00  0.161E+00  0.789E-01  0.789E-01
  -5.870  0.327E+00  0.169E+00  0.794E-01  0.794E-01
  -5.860  0.337E+00  0.173E+00  0.819E-01  0.819E-01
  -5.850  0.345E+00  0.174E+00  0.856E-01  0.856E-01
  -5.840  0.351E+00  0.171E+00  0.897E-01  0.897E-01
  -5.830  0.352E+00  0.166E+00  0.931E-01  0.931E-01
  -5.820  0.350E+00  0.160E+00  0.950E-01  0.950E-01
  -5.810  0.342E+00  0.153E+00  0.949E-01  0.949E-01
  -5.800  0.331E+00  0.146E+00  0.925E-01  0.925E-01
  -5.790  0.317E+00  0.141E+00  0.880E-01  0.880E-01
  -5.780  0.302E+00  0.137E+00  0.822E-01  0.822E-01
  -5.770  0.287E+00  0.135E+00  0.759E-01  0.759E-01
  -5.760  0.274E+00  0.133E+00  0.702E-01  0.702E-01
  -5.750  0.264E+00  0.132E+00  0.662E-01  0.662E-01
  -5.740  0.259E+00  0.130E+00  0.645E-01  0.645E-01
  -5.730  0.259E+00  0.128E+00  0.655E-01  0.655E-01
  -5.720  0.263E+00  0.125E+00  0.689E-01  0.689E-01
  -5.710  0.270E+00  0.121E+00  0.743E-01  0.743E-01
  -5.700  0.280E+00  0.118E+00  0.810E-01  0.810E-01
  -5.690  0.293E+00  0.116E+00  0.883E-01  0.883E-01
  -5.680  0.307E+00  0.116E+00  0.955E-01  0.955E-01
  -5.670  0.323E+00  0.119E+00  0.102E+00  0.102E+00
  -5.660  0.340E+00  0.125E+00  0.108E+00  0.108E+00
  -5.650  0.357E+00  0.134E+00  0.112E+00  0.112E+00
  -5.640  0.373E+00  0.146E+00  0.113E+00  0.113E+00
  -5.630  0.384E+00  0.159E+00  0.113E+00  0.113E+00
  -5.620  0.388E+00  0.171E+00  0.109E+00  0.109E+00
  -5.610  0.384E+00  0.181E+00  0.101E+00  0.101E+00
  -5.600  0.370E+00  0.187E+00  0.914E-01  0.914E-01
  -5.590  0.347E+00  0.188E+00  0.795E-01  0.795E-01
  -5.580  0.319E+00  0.184E+00  0.673E-01  0.673E-01
  -5.570  0.288E+00  0.176E+00  0.564E-01  0.564E-01
  -5.560  0.261E+00  0.165E+00  0.483E-01  0.483E-01
  -5.550  0.241E+00  0.152E+00  0.443E-01  0.443E-01
  -5.540  0.231E+00  0.141E+00  0.451E-01  0.451E-01
  -5.530  0.232E+00  0.131E+00  0.505E-01  0.505E-01
  -5.520  0.243E+00  0.123E+00  0.599E-01  0.599E-01
  -5.510  0.261E+00  0.118E+00  0.718E-01  0.718E-01
  -5.500  0.284E+00  0.115E+00  0.847E-01  0.847E-01
  -5.490  0.307E+00  0.113E+00  0.967E-01  0.967E-01
  -5.480  0.326E+00  0.113E+00  0.106E+00  0.106E+00
  -5.470  0.338E+00  0.114E+00  0.112E+00  0.112E+00
  -5.460  0.343E+00  0.116E+00  0.114E+00  0.114E+00
  -5.450  0.340E+00  0.119E+00  0.110E+00  0.110E+00
  -5.440  0.330E+00  0.124E+00  0.103E+00  0.103E+00
  -5.430  0.315E+00  0.129E+00  0.929E-01  0.929E-01
  -5.420  0.299E+00  0.137E+00  0.809E-01  0.809E-01
  -5.410  0.283E+00  0.145E+00  0.688E-01  0.688E-01
  -5.400  0.271E+00  0.155E+00  0.580E-01  0.580E-01
  -5.390  0.264E+00  0.165E+00  0.498E-01  0.498E-01
  -5.380  0.264E+00  0.174E+00  0.450E-01  0.450E-01
  -5.370  0.270E+00  0.181E+00  0.441E-01  0.441E-01
  -5.360  0.281E+00  0.187E+00  0.471E-01  0.471E-01
  -5.350  0.295E+00  0.188E+00  0.536E-01  0.536E-01
  -5.340  0.312E+00  0.186E+00  0.630E-01  0.630E-01
  -5.330  0.329E+00  0.180E+00  0.744E-01  0.744E-01
  -5.320  0.344E+00  0.170E+00  0.867E-01  0.867E-01
  -5.310  0.356E+00  0.159E+00  0.984E-01  0.984E-01
  -5.300  0.363E+00  0.147E+00  0.108E+00  0.108E+00
  -5.290  0.364E+00  0.135E+00  0.115E+00  0.115E+00
  -5.280  0.358E+00  0.125E+00  0.117E+00  0.117E+00
  -5.270  0.345E+00  0.117E+00  0.114E+00  0.114E+00
  -5.260  0.325E+00  0.113E+00  0.106E+00  0.106E+00
  -5.250  0.300E+00  0.111E+00  0.942E-01  0.942E-01
  -5.240  0.272E+00  0.112E+00  0.800E-01  0.800E-01
  -5.230  0.246E+00  0.116E+00  0.652E-01  0.652E-01
  -5.220  0.224E+00  0.121E+00  0.516E-01  0.516E-01
  -5.210  0.208E+00  0.127E+00  0.407E-01  0.407E-01
  -5.200  0.201E+00  0.133E+00  0.337E-01  0.337E-01
  -5.190  0.202E+00  0.140E+00  0.310E-01  0.310E-01
  -5.180  0.212E+00  0.147E+00  0.326E-01  0.326E-01
  -5.170  0.229E+00  0.153E+00  0.380E-01  0.380E-01
  -5.160  0.251E+00  0.158E+00  0.464E-01  0.464E-01
  -5.150  0.276E+00  0.162E+00  0.570E-01  0.570E-01
  -5.140  0.303E+00  0.165E+00  0.691E-01  0.691E-01
  -5.130  0.330E+00  0.167E+00  0.815E-01  0.815E-01
  -5.120  0.355E+00  0.168E+00  0.934E-01  0.934E-01
  -5.110  0.376E+00  0.168E+00  0.104E+00  0.104E+00
  -5.100  0.390E+00  0.168E+00  0.111E+00  0.111E+00
  -5.090  0.397E+00  0.168E+00  0.115E+00  0.115E+00
  -5.080  0.394E+00  0.167E+00  0.114E+00  0.114E+00
  -5.070  0.382E+00  0.165E+00  0.108E+00  0.108E+00
  -5.060  0.361E+00  0.163E+00  0.986E-01  0.986E-01
  -5.050  0.333E+00  0.161E+00  0.861E-01  0.861E-01
  -5.040  0.301E+00  0.157E+00  0.722E-01  0.722E-01
  -5.030  0.269E+00  0.152E+00  0.587E-01  0.587E-01
  -5.020  0.241E+00  0.146E+00  0.474E-01  0.474E-01
  -5.010  0.218E+00  0.140E+00  0.393E-01  0.393E-01
  -5.000  0.204E+00  0.134E+00  0.351E-01  0.351E-01
  -4.990  0.198E+00  0.129E+00  0.348E-01  0.348E-01
  -4.980  0.200E+00  0.124E+00  0.380E-01  0.380E-01
  -4.970  0.210E+00  0.122E+00  0.440E-01  0.440E-01
  -4.960  0.224E+00  0.120E+00  0.519E-01  0.519E-01
  -4.950  0.242E+00  0.121E+00  0.608E-01  0.608E-01
  -4.940  0.263E+00  0.123E+00  0.699E-01  0.699E-01
  -4.930  0.283E+00  0.127E+00  0.784E-01  0.784E-01
  -4.920  0.303E+00  0.132E+00  0.855E-01  0.855E-01
  -4.910  0.321E+00  0.140E+00  0.905E-01  0.905E-01
  -4.900  0.334E+00  0.148E+00  0.931E-01  0.931E-01
  -4.890  0.343E+00  0.157E+00  0.928E-01  0.928E-01
  -4.880  0.346E+00  0.167E+00  0.898E-01  0.898E-01
  -4.870  0.344E+00  0.175E+00  0.845E-01  0.845E-01
  -4.860  0.336E+00  0.181E+00  0.778E-01  0.778E-01
  -4.850  0.325E+00  0.184E+00  0.705E-01  0.705E-01
  -4.840  0.312E+00  0.185E+00  0.636E-01  0.636E-01
  -4.830  0.300E+00  0.184E+00  0.579E-01  0.579E-01
  -4.820  0.289E+00  0.181E+00  0.539E-01  0.539E-01
  -4.810  0.281E+00  0.177E+00  0.520E-01  0.520E-01
  -4.800  0.276E+00  0.172E+00  0.520E-01  0.520E-01
  -4.790  0.275E+00  0.168E+00  0.539E-01  0.539E-01
  -4.780  0.277E+00  0.163E+00  0.572E-01  0.572E-01
  -4.770  0.280E+00  0.157E+00  0.615E-01  0.615E-01
  -4.760  0.284E+00  0.151E+00  0.662E-01  0.662E-01
  -4.750  0.286E+00  0.145E+00  0.707E-01  0.707E-01
  -4.740  0.286E+00  0.137E+00  0.742E-01  0.742E-01
  -4.730  0.282E+00  0.129E+00  0.761E-01  0.761E-01
  -4.720  0.274E+00  0.122E+00  0.759E-01  0.759E-01
  -4.710  0.263E+00  0.116E+00  0.736E-01  0.736E-01
  -4.700  0.251E+00  0.112E+00  0.694E-01  0.694E-01
  -4.690  0.239E+00  0.110E+00  0.641E-01  0.641E-01
  -4.680  0.229E+00  0.112E+00  0.587E-01  0.587E-01
  -4.670  0.225E+00  0.116E+00  0.542E-01  0.542E-01
  -4.660  0.228E+00  0.124E+00  0.517E-01  0.517E-01
  -4.650  0.239E+00  0.136E+00  0.517E-01  0.517E-01
  -4.640  0.258E+00  0.150E+00  0.544E-01  0.544E-01
  -4.630  0.284E+00  0.165E+00  0.592E-01  0.592E-01
  -4.620  0.312E+00  0.181E+00  0.654E-01  0.654E-01
  -4.610  0.339E+00  0.195E+00  0.718E-01  0.718E-01
  -4.600  0.360E+00  0.206E+00  0.772E-01  0.772E-01
  -4.590  0.373E+00  0.211E+00  0.805E-01  0.805E-01
  -4.580  0.374E+00  0.212E+00  0.811E-01  0.811E-01
  -4.570  0.364E+00  0.206E+00  0.788E-01  0.788E-01
  -4.560  0.344E+00  0.196E+00  0.738E-01  0.738E-01
  -4.550  0.317E+00  0.183E+00  0.669E-01  0.669E-01
  -4.540  0.288E+00  0.170E+00  0.592E-01  0.592E-01
  -4.530  0.261E+00  0.157E+00  0.518E-01  0.518E-01
  -4.520  0.240E+00  0.147E+00  0.461E-01  0.461E-01
  -4.510  0.227E+00  0.141E+00  0.429E-01  0.429E-01
  -4.500  0.222E+00  0.137E+00  0.426E-01  0.426E-01
  -4.490  0.226E+00  0.135E+00  0.454E-01  0.454E-01
  -4.480  0.235E+00  0.133E+00  0.507E-01  0.507E-01
  -4.470  0.247E+00  0.132E+00  0.575E-01  0.575E-01
  -4.460  0.260E+00  0.130E+00  0.648E-01  0.648E-01
  -4.450  0.271E+00  0.128E+00  0.713E-01  0.713E-01
  -4.440  0.279E+00  0.126E+00  0.760E-01  0.760E-01
  -4.430  0.282E+00  0.126E+00  0.782E-01  0.782E-01
  -4.420  0.282E+00  0.127E+00  0.776E-01  0.776E-01
  -4.410  0.280E+00  0.131E+00  0.745E-01  0.745E-01
  -4.400  0.277E+00  0.138E+00  0.694E-01  0.694E-01
  -4.390  0.275E+00  0.148E+00  0.634E-01  0.634E-01
  -4.380  0.274E+00  0.159E+00  0.575E-01  0.575E-01
  -4.370  0.276E+00  0.171E+00  0.525E-01  0.525E-01
  -4.360  0.282E+00  0.183E+00  0.492E-01  0.492E-01
  -4.350  0.289E+00  0.193E+00  0.480E-01  0.480E-01
  -4.340  0.299E+00  0.201E+00  0.488E-01  0.488E-01
  -4.330  0.308E+00  0.206E+00  0.512E-01  0.512E-01
  -4.320  0.315E+00  0.206E+00  0.545E-01  0.545E-01
  -4.310  0.319E+00  0.203E+00  0.581E-01  0.581E-01
  -4.300  0.319E+00  0.196E+00  0.612E-01  0.612E-01
  -4.290  0.314E+00  0.187E+00  0.635E-01  0.635E-01
  -4.280  0.305E+00  0.175E+00  0.647E-01  0.647E-01
  -4.270  0.293E+00  0.164E+00  0.647E-01  0.647E-01
  -4.260  0.282E+00  0.154E+00  0.639E-01  0.639E-01
  -4.250  0.271E+00  0.146E+00  0.625E-01  0.625E-01
  -4.240  0.263E+00  0.142E+00  0.608E-01  0.608E-01
  -4.230  0.259E+00  0.140E+00  0.592E-01  0.592E-01
  -4.220  0.257E+00  0.142E+00  0.578E-01  0.578E-01
  -4.210  0.258E+00  0.144E+00  0.567E-01  0.567E-01
  -4.200  0.260E+00  0.148E+00  0.559E-01  0.559E-01
  -4.190  0.261E+00  0.151E+00  0.554E-01  0.554E-01
  -4.180  0.262E+00  0.152E+00  0.551E-01  0.551E-01
  -4.170  0.263E+00  0.153E+00  0.550E-01  0.550E-01
  -4.160  0.262E+00  0.152E+00  0.551E-01  0.551E-01
  -4.150  0.262E+00  0.151E+00  0.554E-01  0.554E-01
  -4.140  0.262E+00  0.150E+00  0.560E-01  0.560E-01
  -4.130  0.264E+00  0.150E+00  0.569E-01  0.569E-01
  -4.120  0.268E+00  0.152E+00  0.578E-01  0.578E-01
  -4.110  0.274E+00  0.157E+00  0.585E-01  0.585E-01
  -4.100  0.280E+00  0.163E+00  0.588E-01  0.588E-01
  -4.090  0.288E+00  0.171E+00  0.586E-01  0.586E-01
  -4.080  0.295E+00  0.180E+00  0.579E-01  0.579E-01
  -4.070  0.302E+00  0.188E+00  0.568E-01  0.568E-01
  -4.060  0.307E+00  0.196E+00  0.555E-01  0.555E-01
  -4.050  0.310E+00  0.201E+00  0.545E-01  0.545E-01
  -4.040  0.310E+00  0.202E+00  0.538E-01  0.538E-01
  -4.030  0.308E+00  0.201E+00  0.536E-01  0.536E-01
  -4.020  0.304E+00  0.197E+00  0.536E-01  0.536E-01
  -4.010  0.297E+00  0.190E+00  0.536E-01  0.536E-01
  -4.000  0.290E+00  0.183E+00  0.533E-01  0.533E-01
  -3.990  0.281E+00  0.176E+00  0.523E-01  0.523E-01
  -3.980  0.272E+00  0.171E+00  0.504E-01  0.504E-01
  -3.970  0.264E+00  0.169E+00  0.477E-01  0.477E-01
  -3.960  0.256E+00  0.168E+00  0.440E-01  0.440E-01
  -3.950  0.247E+00  0.168E+00  0.394E-01  0.394E-01
  -3.940  0.237E+00  0.168E+00  0.342E-01  0.342E-01
  -3.930  0.224E+00  0.167E+00  0.285E-01  0.285E-01
  -3.920  0.210E+00  0.165E+00  0.225E-01  0.225E-01
  -3.910  0.194E+00  0.161E+00  0.165E-01  0.165E-01
  -3.900  0.177E+00  0.155E+00  0.109E-01  0.109E-01
  -3.890  0.161E+00  0.149E+00  0.591E-02  0.591E-02
  -3.880  0.147E+00  0.143E+00  0.183E-02  0.183E-02
  -3.870  0.138E+00  0.140E+00 -0.122E-02 -0.122E-02
  -3.860  0.134E+00  0.140E+00 -0.322E-02 -0.322E-02
  -3.850  0.135E+00  0.144E+00 -0.427E-02 -0.427E-02
  -3.840  0.143E+00  0.152E+00 -0.454E-02 -0.454E-02
  -3.830  0.154E+00  0.163E+00 -0.425E-02 -0.425E-02
  -3.820  0.169E+00  0.176E+00 -0.364E-02 -0.364E-02
  -3.810  0.184E+00  0.190E+00 -0.290E-02 -0.290E-02
  -3.800  0.199E+00  0.203E+00 -0.217E-02 -0.217E-02
  -3.790  0.211E+00  0.214E+00 -0.153E-02 -0.153E-02
  -3.780  0.221E+00  0.223E+00 -0.102E-02 -0.102E-02
  -3.770  0.226E+00  0.227E+00 -0.640E-03 -0.640E-03
  -3.760  0.228E+00  0.228E+00 -0.381E-03 -0.381E-03
  -3.750  0.226E+00  0.226E+00 -0.213E-03 -0.213E-03
  -3.740  0.221E+00  0.221E+00 -0.110E-03 -0.110E-03
  -3.730  0.215E+00  0.215E+00 -0.508E-04 -0.508E-04
  -3.720  0.208E+00  0.208E+00 -0.181E-04 -0.181E-04
  -3.710  0.200E+00  0.200E+00 -0.132E-05 -0.132E-05
  -3.700  0.192E+00  0.192E+00  0.666E-05  0.666E-05
  -3.690  0.184E+00  0.184E+00  0.998E-05  0.998E-05
  -3.680  0.176E+00  0.176E+00  0.110E-04  0.110E-04
  -3.670  0.168E+00  0.168E+00  0.110E-04  0.110E-04
  -3.660  0.161E+00  0.161E+00  0.105E-04  0.105E-04
  -3.650  0.154E+00  0.154E+00  0.986E-05  0.986E-05
  -3.640  0.148E+00  0.148E+00  0.920E-05  0.920E-05
  -3.630  0.145E+00  0.145E+00  0.854E-05  0.854E-05
  -3.620  0.144E+00  0.144E+00  0.787E-05  0.787E-05
  -3.610  0.147E+00  0.147E+00  0.719E-05  0.719E-05
  -3.600  0.152E+00  0.152E+00  0.650E-05  0.650E-05
  -3.590  0.161E+00  0.161E+00  0.581E-05  0.581E-05
  -3.580  0.172E+00  0.172E+00  0.515E-05  0.515E-05
  -3.570  0.186E+00  0.186E+00  0.454E-05  0.454E-05
  -3.560  0.201E+00  0.201E+00  0.403E-05  0.403E-05
  -3.550  0.217E+00  0.217E+00  0.362E-05  0.362E-05
  -3.540  0.233E+00  0.233E+00  0.332E-05  0.332E-05
  -3.530  0.247E+00  0.247E+00  0.312E-05  0.312E-05
  -3.520  0.257E+00  0.257E+00  0.300E-05  0.300E-05
  -3.510  0.264E+00  0.264E+00  0.292E-05  0.292E-05
  -3.500  0.265E+00  0.265E+00  0.286E-05  0.286E-05
  -3.490  0.262E+00  0.261E+00  0.279E-05  0.279E-05
  -3.480  0.254E+00  0.254E+00  0.270E-05  0.270E-05
  -3.470  0.242E+00  0.242E+00  0.258E-05  0.258E-05
  -3.460  0.229E+00  0.229E+00  0.245E-05  0.245E-05
  -3.450  0.216E+00  0.216E+00  0.230E-05  0.230E-05
  -3.440  0.204E+00  0.204E+00  0.216E-05  0.216E-05
  -3.430  0.193E+00  0.193E+00  0.205E-05  0.205E-05
  -3.420  0.185E+00  0.185E+00  0.196E-05  0.196E-05
  -3.410  0.180E+00  0.180E+00  0.190E-05  0.190E-05
  -3.400  0.178E+00  0.178E+00  0.188E-05  0.188E-05
  -3.390  0.178E+00  0.178E+00  0.189E-05  0.189E-05
  -3.380  0.181E+00  0.181E+00  0.195E-05  0.195E-05
  -3.370  0.187E+00  0.187E+00  0.206E-05  0.206E-05
  -3.360  0.195E+00  0.195E+00  0.221E-05  0.221E-05
  -3.350  0.206E+00  0.206E+00  0.241E-05  0.241E-05
  -3.340  0.219E+00  0.219E+00  0.264E-05  0.264E-05
  -3.330  0.235E+00  0.235E+00  0.290E-05  0.290E-05
  -3.320  0.253E+00  0.253E+00  0.316E-05  0.316E-05
  -3.310  0.271E+00  0.271E+00  0.341E-05  0.341E-05
  -3.300  0.288E+00  0.288E+00  0.361E-05  0.361E-05
  -3.290  0.303E+00  0.303E+00  0.376E-05  0.376E-05
  -3.280  0.314E+00  0.314E+00  0.383E-05  0.383E-05
  -3.270  0.320E+00  0.320E+00  0.383E-05  0.383E-05
  -3.260  0.321E+00  0.321E+00  0.376E-05  0.376E-05
  -3.250  0.316E+00  0.316E+00  0.363E-05  0.363E-05
  -3.240  0.306E+00  0.306E+00  0.345E-05  0.345E-05
  -3.230  0.292E+00  0.292E+00  0.324E-05  0.324E-05
  -3.220  0.275E+00  0.275E+00  0.303E-05  0.303E-05
  -3.210  0.259E+00  0.259E+00  0.283E-05  0.283E-05
  -3.200  0.244E+00  0.244E+00  0.267E-05  0.267E-05
  -3.190  0.232E+00  0.232E+00  0.254E-05  0.254E-05
  -3.180  0.225E+00  0.225E+00  0.246E-05  0.246E-05
  -3.170  0.221E+00  0.221E+00  0.244E-05  0.244E-05
  -3.160  0.223E+00  0.223E+00  0.248E-05  0.248E-05
  -3.150  0.228E+00  0.228E+00  0.258E-05  0.258E-05
  -3.140  0.237E+00  0.237E+00  0.272E-05  0.272E-05
  -3.130  0.249E+00  0.249E+00  0.292E-05  0.292E-05
  -3.120  0.263E+00  0.263E+00  0.314E-05  0.314E-05
  -3.110  0.278E+00  0.278E+00  0.338E-05  0.338E-05
  -3.100  0.292E+00  0.292E+00  0.361E-05  0.361E-05
  -3.090  0.305E+00  0.305E+00  0.380E-05  0.380E-05
  -3.080  0.314E+00  0.314E+00  0.395E-05  0.395E-05
  -3.070  0.320E+00  0.320E+00  0.402E-05  0.402E-05
  -3.060  0.320E+00  0.320E+00  0.402E-05  0.402E-05
  -3.050  0.314E+00  0.314E+00  0.393E-05  0.393E-05
  -3.040  0.303E+00  0.303E+00  0.376E-05  0.376E-05
  -3.030  0.287E+00  0.287E+00  0.352E-05  0.352E-05
  -3.020  0.267E+00  0.267E+00  0.323E-05  0.323E-05
  -3.010  0.245E+00  0.245E+00  0.291E-05  0.291E-05
  -3.000  0.223E+00  0.223E+00  0.259E-05  0.259E-05
  -2.990  0.202E+00  0.202E+00  0.230E-05  0.230E-05
  -2.980  0.185E+00  0.185E+00  0.206E-05  0.206E-05
  -2.970  0.173E+00  0.173E+00  0.191E-05  0.191E-05
  -2.960  0.168E+00  0.168E+00  0.185E-05  0.185E-05
  -2.950  0.169E+00  0.169E+00  0.189E-05  0.189E-05
  -2.940  0.175E+00  0.175E+00  0.203E-05  0.203E-05
  -2.930  0.184E+00  0.184E+00  0.221E-05  0.221E-05
  -2.920  0.194E+00  0.194E+00  0.242E-05  0.242E-05
  -2.910  0.202E+00  0.202E+00  0.261E-05  0.261E-05
  -2.900  0.207E+00  0.207E+00  0.275E-05  0.275E-05
  -2.890  0.206E+00  0.206E+00  0.281E-05  0.281E-05
  -2.880  0.200E+00  0.200E+00  0.280E-05  0.280E-05
  -2.870  0.191E+00  0.191E+00  0.273E-05  0.273E-05
  -2.860  0.180E+00  0.180E+00  0.262E-05  0.262E-05
  -2.850  0.168E+00  0.168E+00  0.249E-05  0.249E-05
  -2.840  0.158E+00  0.158E+00  0.237E-05  0.237E-05
  -2.830  0.151E+00  0.151E+00  0.226E-05  0.226E-05
  -2.820  0.146E+00  0.146E+00  0.217E-05  0.217E-05
  -2.810  0.145E+00  0.145E+00  0.210E-05  0.210E-05
  -2.800  0.145E+00  0.145E+00  0.203E-05  0.203E-05
  -2.790  0.147E+00  0.147E+00  0.196E-05  0.196E-05
  -2.780  0.149E+00  0.149E+00  0.189E-05  0.189E-05
  -2.770  0.152E+00  0.152E+00  0.183E-05  0.183E-05
  -2.760  0.156E+00  0.156E+00  0.179E-05  0.179E-05
  -2.750  0.160E+00  0.160E+00  0.178E-05  0.178E-05
  -2.740  0.164E+00  0.164E+00  0.181E-05  0.181E-05
  -2.730  0.168E+00  0.168E+00  0.186E-05  0.186E-05
  -2.720  0.171E+00  0.171E+00  0.193E-05  0.193E-05
  -2.710  0.172E+00  0.172E+00  0.200E-05  0.200E-05
  -2.700  0.170E+00  0.170E+00  0.207E-05  0.207E-05
  -2.690  0.165E+00  0.165E+00  0.211E-05  0.211E-05
  -2.680  0.156E+00  0.156E+00  0.212E-05  0.212E-05
  -2.670  0.145E+00  0.145E+00  0.210E-05  0.210E-05
  -2.660  0.134E+00  0.134E+00  0.205E-05  0.205E-05
  -2.650  0.123E+00  0.123E+00  0.198E-05  0.198E-05
  -2.640  0.114E+00  0.114E+00  0.190E-05  0.190E-05
  -2.630  0.109E+00  0.109E+00  0.181E-05  0.181E-05
  -2.620  0.106E+00  0.106E+00  0.172E-05  0.172E-05
  -2.610  0.106E+00  0.106E+00  0.162E-05  0.162E-05
  -2.600  0.109E+00  0.109E+00  0.153E-05  0.153E-05
  -2.590  0.112E+00  0.112E+00  0.145E-05  0.145E-05
  -2.580  0.117E+00  0.117E+00  0.140E-05  0.140E-05
  -2.570  0.122E+00  0.122E+00  0.138E-05  0.138E-05
  -2.560  0.127E+00  0.127E+00  0.140E-05  0.140E-05
  -2.550  0.132E+00  0.132E+00  0.146E-05  0.146E-05
  -2.540  0.137E+00  0.137E+00  0.155E-05  0.155E-05
  -2.530  0.143E+00  0.143E+00  0.165E-05  0.165E-05
  -2.520  0.147E+00  0.147E+00  0.176E-05  0.176E-05
  -2.510  0.149E+00  0.149E+00  0.185E-05  0.185E-05
  -2.500  0.148E+00  0.148E+00  0.190E-05  0.190E-05
  -2.490  0.144E+00  0.144E+00  0.190E-05  0.190E-05
  -2.480  0.137E+00  0.137E+00  0.185E-05  0.185E-05
  -2.470  0.126E+00  0.126E+00  0.176E-05  0.176E-05
  -2.460  0.114E+00  0.114E+00  0.163E-05  0.163E-05
  -2.450  0.100E+00  0.100E+00  0.149E-05  0.149E-05
  -2.440  0.885E-01  0.885E-01  0.136E-05  0.136E-05
  -2.430  0.791E-01  0.791E-01  0.126E-05  0.126E-05
  -2.420  0.735E-01  0.735E-01  0.119E-05  0.119E-05
  -2.410  0.722E-01  0.722E-01  0.117E-05  0.117E-05
  -2.400  0.751E-01  0.751E-01  0.118E-05  0.118E-05
  -2.390  0.816E-01  0.816E-01  0.123E-05  0.123E-05
  -2.380  0.905E-01  0.905E-01  0.128E-05  0.128E-05
  -2.370  0.100E+00  0.100E+00  0.134E-05  0.134E-05
  -2.360  0.110E+00  0.110E+00  0.138E-05  0.138E-05
  -2.350  0.118E+00  0.118E+00  0.142E-05  0.142E-05
  -2.340  0.124E+00  0.124E+00  0.143E-05  0.143E-05
  -2.330  0.127E+00  0.127E+00  0.143E-05  0.143E-05
  -2.320  0.128E+00  0.128E+00  0.141E-05  0.141E-05
  -2.310  0.126E+00  0.126E+00  0.138E-05  0.138E-05
  -2.300  0.122E+00  0.122E+00  0.133E-05  0.133E-05
  -2.290  0.116E+00  0.116E+00  0.126E-05  0.126E-05
  -2.280  0.109E+00  0.109E+00  0.116E-05  0.116E-05
  -2.270  0.101E+00  0.101E+00  0.104E-05  0.104E-05
  -2.260  0.921E-01  0.921E-01  0.893E-06  0.893E-06
  -2.250  0.842E-01  0.842E-01  0.734E-06  0.734E-06
  -2.240  0.777E-01  0.777E-01  0.570E-06  0.570E-06
  -2.230  0.729E-01  0.729E-01  0.412E-06  0.412E-06
  -2.220  0.700E-01  0.700E-01  0.270E-06  0.270E-06
  -2.210  0.688E-01  0.688E-01  0.153E-06  0.153E-06
  -2.200  0.688E-01  0.688E-01  0.651E-07  0.651E-07
  -2.190  0.694E-01  0.694E-01  0.714E-08  0.714E-08
  -2.180  0.703E-01  0.703E-01 -0.230E-07 -0.230E-07
  -2.170  0.713E-01  0.713E-01 -0.301E-07 -0.301E-07
  -2.160  0.728E-01  0.728E-01 -0.198E-07 -0.198E-07
  -2.150  0.754E-01  0.754E-01  0.190E-08  0.190E-08
  -2.140  0.794E-01  0.794E-01  0.296E-07  0.296E-07
  -2.130  0.852E-01  0.852E-01  0.590E-07  0.590E-07
  -2.120  0.923E-01  0.923E-01  0.868E-07  0.868E-07
  -2.110  0.100E+00  0.100E+00  0.110E-06  0.110E-06
  -2.100  0.107E+00  0.107E+00  0.128E-06  0.128E-06
  -2.090  0.112E+00  0.112E+00  0.138E-06  0.138E-06
  -2.080  0.114E+00  0.114E+00  0.141E-06  0.141E-06
  -2.070  0.112E+00  0.112E+00  0.136E-06  0.136E-06
  -2.060  0.106E+00  0.106E+00  0.124E-06  0.124E-06
  -2.050  0.965E-01  0.965E-01  0.107E-06  0.107E-06
  -2.040  0.844E-01  0.844E-01  0.870E-07  0.870E-07
  -2.030  0.715E-01  0.715E-01  0.664E-07  0.664E-07
  -2.020  0.594E-01  0.594E-01  0.473E-07  0.473E-07
  -2.010  0.494E-01  0.494E-01  0.316E-07  0.316E-07
  -2.000  0.421E-01  0.421E-01  0.201E-07  0.201E-07
  -1.990  0.380E-01  0.380E-01  0.133E-07  0.133E-07
  -1.980  0.369E-01  0.369E-01  0.105E-07  0.105E-07
  -1.970  0.384E-01  0.384E-01  0.111E-07  0.111E-07
  -1.960  0.420E-01  0.420E-01  0.140E-07  0.140E-07
  -1.950  0.474E-01  0.474E-01  0.184E-07  0.184E-07
  -1.940  0.543E-01  0.543E-01  0.238E-07  0.238E-07
  -1.930  0.624E-01  0.624E-01  0.296E-07  0.296E-07
  -1.920  0.711E-01  0.711E-01  0.356E-07  0.356E-07
  -1.910  0.798E-01  0.798E-01  0.417E-07  0.417E-07
  -1.900  0.877E-01  0.877E-01  0.474E-07  0.474E-07
  -1.890  0.936E-01  0.936E-01  0.523E-07  0.523E-07
  -1.880  0.969E-01  0.969E-01  0.562E-07  0.562E-07
  -1.870  0.968E-01  0.968E-01  0.584E-07  0.584E-07
  -1.860  0.932E-01  0.932E-01  0.587E-07  0.587E-07
  -1.850  0.865E-01  0.865E-01  0.569E-07  0.569E-07
  -1.840  0.776E-01  0.776E-01  0.530E-07  0.530E-07
  -1.830  0.674E-01  0.674E-01  0.474E-07  0.474E-07
  -1.820  0.573E-01  0.573E-01  0.404E-07  0.404E-07
  -1.810  0.484E-01  0.484E-01  0.329E-07  0.329E-07
  -1.800  0.415E-01  0.415E-01  0.254E-07  0.254E-07
  -1.790  0.370E-01  0.370E-01  0.186E-07  0.186E-07
  -1.780  0.350E-01  0.350E-01  0.130E-07  0.130E-07
  -1.770  0.350E-01  0.350E-01  0.890E-08  0.890E-08
  -1.760  0.365E-01  0.365E-01  0.629E-08  0.629E-08
  -1.750  0.388E-01  0.388E-01  0.500E-08  0.500E-08
  -1.740  0.413E-01  0.413E-01  0.477E-08  0.477E-08
  -1.730  0.435E-01  0.435E-01  0.529E-08  0.529E-08
  -1.720  0.454E-01  0.454E-01  0.633E-08  0.633E-08
  -1.710  0.470E-01  0.470E-01  0.773E-08  0.773E-08
  -1.700  0.485E-01  0.485E-01  0.939E-08  0.939E-08
  -1.690  0.502E-01  0.502E-01  0.113E-07  0.113E-07
  -1.680  0.520E-01  0.520E-01  0.133E-07  0.133E-07
  -1.670  0.540E-01  0.540E-01  0.154E-07  0.154E-07
  -1.660  0.558E-01  0.558E-01  0.174E-07  0.174E-07
  -1.650  0.572E-01  0.572E-01  0.191E-07  0.191E-07
  -1.640  0.579E-01  0.579E-01  0.204E-07  0.204E-07
  -1.630  0.579E-01  0.579E-01  0.212E-07  0.212E-07
  -1.620  0.570E-01  0.570E-01  0.213E-07  0.213E-07
  -1.610  0.554E-01  0.554E-01  0.207E-07  0.207E-07
  -1.600  0.533E-01  0.533E-01  0.195E-07  0.195E-07
  -1.590  0.509E-01  0.509E-01  0.178E-07  0.178E-07
  -1.580  0.484E-01  0.484E-01  0.157E-07  0.157E-07
  -1.570  0.461E-01  0.461E-01  0.134E-07  0.134E-07
  -1.560  0.438E-01  0.438E-01  0.110E-07  0.110E-07
  -1.550  0.416E-01  0.416E-01  0.873E-08  0.873E-08
  -1.540  0.393E-01  0.393E-01  0.672E-08  0.672E-08
  -1.530  0.366E-01  0.366E-01  0.503E-08  0.503E-08
  -1.520  0.334E-01  0.334E-01  0.369E-08  0.369E-08
  -1.510  0.296E-01  0.296E-01  0.268E-08  0.268E-08
  -1.500  0.255E-01  0.255E-01  0.199E-08  0.199E-08
  -1.490  0.214E-01  0.214E-01  0.159E-08  0.159E-08
  -1.480  0.181E-01  0.181E-01  0.149E-08  0.149E-08
  -1.470  0.161E-01  0.161E-01  0.169E-08  0.169E-08
  -1.460  0.160E-01  0.160E-01  0.219E-08  0.219E-08
  -1.450  0.180E-01  0.180E-01  0.300E-08  0.300E-08
  -1.440  0.220E-01  0.220E-01  0.407E-08  0.407E-08
  -1.430  0.275E-01  0.275E-01  0.530E-08  0.530E-08
  -1.420  0.336E-01  0.336E-01  0.658E-08  0.658E-08
  -1.410  0.397E-01  0.397E-01  0.777E-08  0.777E-08
  -1.400  0.448E-01  0.448E-01  0.873E-08  0.873E-08
  -1.390  0.484E-01  0.484E-01  0.936E-08  0.936E-08
  -1.380  0.501E-01  0.501E-01  0.960E-08  0.960E-08
  -1.370  0.499E-01  0.499E-01  0.944E-08  0.944E-08
  -1.360  0.481E-01  0.481E-01  0.894E-08  0.894E-08
  -1.350  0.450E-01  0.450E-01  0.815E-08  0.815E-08
  -1.340  0.409E-01  0.409E-01  0.718E-08  0.718E-08
  -1.330  0.363E-01  0.363E-01  0.610E-08  0.610E-08
  -1.320  0.313E-01  0.313E-01  0.499E-08  0.499E-08
  -1.310  0.262E-01  0.262E-01  0.390E-08  0.390E-08
  -1.300  0.211E-01  0.211E-01  0.288E-08  0.288E-08
  -1.290  0.161E-01  0.161E-01  0.197E-08  0.197E-08
  -1.280  0.114E-01  0.114E-01  0.119E-08  0.119E-08
  -1.270  0.723E-02  0.723E-02  0.564E-09  0.564E-09
  -1.260  0.392E-02  0.392E-02  0.122E-09  0.122E-09
  -1.250  0.171E-02  0.171E-02 -0.127E-09 -0.127E-09
  -1.240  0.819E-03  0.819E-03 -0.175E-09 -0.175E-09
  -1.230  0.138E-02  0.138E-02 -0.238E-10 -0.238E-10
  -1.220  0.342E-02  0.342E-02  0.320E-09  0.320E-09
  -1.210  0.688E-02  0.688E-02  0.838E-09  0.838E-09
  -1.200  0.116E-01  0.116E-01  0.150E-08  0.150E-08
  -1.190  0.171E-01  0.171E-01  0.227E-08  0.227E-08
  -1.180  0.231E-01  0.231E-01  0.308E-08  0.308E-08
  -1.170  0.288E-01  0.288E-01  0.385E-08  0.385E-08
  -1.160  0.336E-01  0.336E-01  0.450E-08  0.450E-08
  -1.150  0.368E-01  0.368E-01  0.493E-08  0.493E-08
  -1.140  0.380E-01  0.380E-01  0.509E-08  0.509E-08
  -1.130  0.368E-01  0.368E-01  0.492E-08  0.492E-08
  -1.120  0.332E-01  0.332E-01  0.445E-08  0.445E-08
  -1.110  0.279E-01  0.279E-01  0.373E-08  0.373E-08
  -1.100  0.213E-01  0.213E-01  0.286E-08  0.286E-08
  -1.090  0.145E-01  0.145E-01  0.194E-08  0.194E-08
  -1.080  0.811E-02  0.811E-02  0.108E-08  0.108E-08
  -1.070  0.281E-02  0.281E-02  0.375E-09  0.375E-09
  -1.060 -0.107E-02 -0.107E-02 -0.145E-09 -0.145E-09
  -1.050 -0.347E-02 -0.347E-02 -0.468E-09 -0.468E-09
  -1.040 -0.455E-02 -0.455E-02 -0.617E-09 -0.617E-09
  -1.030 -0.462E-02 -0.462E-02 -0.634E-09 -0.634E-09
  -1.020 -0.401E-02 -0.401E-02 -0.567E-09 -0.567E-09
  -1.010 -0.302E-02 -0.302E-02 -0.456E-09 -0.456E-09
  -1.000 -0.184E-02 -0.184E-02 -0.334E-09 -0.334E-09
  -0.990 -0.573E-03 -0.573E-03 -0.217E-09 -0.217E-09
  -0.980  0.749E-03  0.749E-03 -0.113E-09 -0.113E-09
  -0.970  0.216E-02  0.216E-02 -0.155E-10 -0.155E-10
  -0.960  0.369E-02  0.369E-02  0.831E-10  0.831E-10
  -0.950  0.536E-02  0.536E-02  0.195E-09  0.195E-09
  -0.940  0.710E-02  0.710E-02  0.333E-09  0.333E-09
  -0.930  0.881E-02  0.881E-02  0.504E-09  0.504E-09
  -0.920  0.103E-01  0.103E-01  0.711E-09  0.711E-09
  -0.910  0.114E-01  0.114E-01  0.949E-09  0.949E-09
  -0.900  0.120E-01  0.120E-01  0.120E-08  0.120E-08
  -0.890  0.118E-01  0.118E-01  0.145E-08  0.145E-08
  -0.880  0.109E-01  0.109E-01  0.165E-08  0.165E-08
  -0.870  0.941E-02  0.941E-02  0.179E-08  0.179E-08
  -0.860  0.747E-02  0.747E-02  0.183E-08  0.183E-08
  -0.850  0.533E-02  0.533E-02  0.176E-08  0.176E-08
  -0.840  0.325E-02  0.325E-02  0.159E-08  0.159E-08
  -0.830  0.145E-02  0.145E-02  0.133E-08  0.133E-08
  -0.820  0.661E-04  0.661E-04  0.101E-08  0.101E-08
  -0.810 -0.857E-03 -0.857E-03  0.687E-09  0.687E-09
  -0.800 -0.134E-02 -0.134E-02  0.384E-09  0.384E-09
  -0.790 -0.148E-02 -0.148E-02  0.134E-09  0.134E-09
  -0.780 -0.136E-02 -0.136E-02 -0.457E-10 -0.457E-10
  -0.770 -0.109E-02 -0.109E-02 -0.150E-09 -0.150E-09
  -0.760 -0.718E-03 -0.718E-03 -0.183E-09 -0.183E-09
  -0.750 -0.275E-03 -0.275E-03 -0.153E-09 -0.153E-09
  -0.740  0.270E-03  0.270E-03 -0.645E-10 -0.645E-10
  -0.730  0.994E-03  0.994E-03  0.830E-10  0.830E-10
  -0.720  0.201E-02  0.201E-02  0.300E-09  0.300E-09
  -0.710  0.347E-02  0.347E-02  0.605E-09  0.605E-09
  -0.700  0.551E-02  0.551E-02  0.102E-08  0.102E-08
  -0.690  0.825E-02  0.825E-02  0.157E-08  0.157E-08
  -0.680  0.117E-01  0.117E-01  0.226E-08  0.226E-08
  -0.670  0.159E-01  0.159E-01  0.307E-08  0.307E-08
  -0.660  0.204E-01  0.204E-01  0.396E-08  0.396E-08
  -0.650  0.250E-01  0.250E-01  0.485E-08  0.485E-08
  -0.640  0.291E-01  0.291E-01  0.564E-08  0.564E-08
  -0.630  0.321E-01  0.321E-01  0.622E-08  0.622E-08
  -0.620  0.334E-01  0.334E-01  0.649E-08  0.649E-08
  -0.610  0.329E-01  0.329E-01  0.638E-08  0.638E-08
  -0.600  0.304E-01  0.304E-01  0.590E-08  0.590E-08
  -0.590  0.262E-01  0.262E-01  0.508E-08  0.508E-08
  -0.580  0.208E-01  0.208E-01  0.405E-08  0.405E-08
  -0.570  0.150E-01  0.150E-01  0.294E-08  0.294E-08
  -0.560  0.965E-02  0.965E-02  0.190E-08  0.190E-08
  -0.550  0.528E-02  0.528E-02  0.108E-08  0.108E-08
  -0.540  0.239E-02  0.239E-02  0.547E-09  0.547E-09
  -0.530  0.121E-02  0.121E-02  0.361E-09  0.361E-09
  -0.520  0.173E-02  0.173E-02  0.519E-09  0.519E-09
  -0.510  0.377E-02  0.377E-02  0.984E-09  0.984E-09
  -0.500  0.705E-02  0.705E-02  0.170E-08  0.170E-08
  -0.490  0.112E-01  0.112E-01  0.259E-08  0.259E-08
  -0.480  0.159E-01  0.159E-01  0.357E-08  0.357E-08
  -0.470  0.209E-01  0.209E-01  0.458E-08  0.458E-08
  -0.460  0.257E-01  0.257E-01  0.555E-08  0.555E-08
  -0.450  0.303E-01  0.303E-01  0.643E-08  0.643E-08
  -0.440  0.345E-01  0.345E-01  0.719E-08  0.719E-08
  -0.430  0.381E-01  0.381E-01  0.782E-08  0.782E-08
  -0.420  0.411E-01  0.411E-01  0.833E-08  0.833E-08
  -0.410  0.435E-01  0.435E-01  0.872E-08  0.872E-08
  -0.400  0.452E-01  0.452E-01  0.900E-08  0.900E-08
  -0.390  0.461E-01  0.461E-01  0.915E-08  0.915E-08
  -0.380  0.459E-01  0.459E-01  0.915E-08  0.915E-08
  -0.370  0.447E-01  0.447E-01  0.895E-08  0.895E-08
  -0.360  0.422E-01  0.422E-01  0.854E-08  0.854E-08
  -0.350  0.385E-01  0.385E-01  0.792E-08  0.792E-08
  -0.340  0.340E-01  0.340E-01  0.715E-08  0.715E-08
  -0.330  0.292E-01  0.292E-01  0.634E-08  0.634E-08
  -0.320  0.247E-01  0.247E-01  0.563E-08  0.563E-08
  -0.310  0.212E-01  0.212E-01  0.516E-08  0.516E-08
  -0.300  0.192E-01  0.192E-01  0.506E-08  0.506E-08
  -0.290  0.192E-01  0.192E-01  0.538E-08  0.538E-08
  -0.280  0.209E-01  0.209E-01  0.609E-08  0.609E-08
  -0.270  0.240E-01  0.240E-01  0.705E-08  0.705E-08
  -0.260  0.278E-01  0.278E-01  0.810E-08  0.810E-08
  -0.250  0.315E-01  0.315E-01  0.902E-08  0.902E-08
  -0.240  0.345E-01  0.345E-01  0.965E-08  0.965E-08
  -0.230  0.364E-01  0.364E-01  0.990E-08  0.990E-08
  -0.220  0.373E-01  0.373E-01  0.978E-08  0.978E-08
  -0.210  0.377E-01  0.377E-01  0.942E-08  0.942E-08
  -0.200  0.382E-01  0.382E-01  0.901E-08  0.901E-08
  -0.190  0.394E-01  0.394E-01  0.877E-08  0.877E-08
  -0.180  0.419E-01  0.419E-01  0.890E-08  0.890E-08
  -0.170  0.459E-01  0.459E-01  0.949E-08  0.949E-08
  -0.160  0.511E-01  0.511E-01  0.106E-07  0.106E-07
  -0.150  0.571E-01  0.571E-01  0.121E-07  0.121E-07
  -0.140  0.630E-01  0.630E-01  0.138E-07  0.138E-07
  -0.130  0.679E-01  0.679E-01  0.155E-07  0.155E-07
  -0.120  0.712E-01  0.712E-01  0.170E-07  0.170E-07
  -0.110  0.724E-01  0.724E-01  0.181E-07  0.181E-07
  -0.100  0.714E-01  0.714E-01  0.187E-07  0.187E-07
  -0.090  0.684E-01  0.684E-01  0.188E-07  0.188E-07
  -0.080  0.639E-01  0.639E-01  0.185E-07  0.185E-07
  -0.070  0.585E-01  0.585E-01  0.178E-07  0.178E-07
  -0.060  0.528E-01  0.528E-01  0.169E-07  0.169E-07
  -0.050  0.474E-01  0.474E-01  0.158E-07  0.158E-07
  -0.040  0.426E-01  0.426E-01  0.148E-07  0.148E-07
  -0.030  0.384E-01  0.384E-01  0.137E-07  0.137E-07
  -0.020  0.350E-01  0.350E-01  0.127E-07  0.127E-07
  -0.010  0.321E-01  0.321E-01  0.119E-07  0.119E-07
   0.000  0.299E-01  0.299E-01  0.112E-07  0.112E-07
   0.010  0.287E-01  0.287E-01  0.108E-07  0.108E-07
   0.020  0.291E-01  0.291E-01  0.108E-07  0.108E-07
   0.030  0.314E-01  0.314E-01  0.115E-07  0.115E-07
   0.040  0.363E-01  0.363E-01  0.129E-07  0.129E-07
   0.050  0.438E-01  0.438E-01  0.151E-07  0.151E-07
   0.060  0.537E-01  0.537E-01  0.179E-07  0.179E-07
   0.070  0.654E-01  0.654E-01  0.210E-07  0.210E-07
   0.080  0.777E-01  0.777E-01  0.241E-07  0.241E-07
   0.090  0.893E-01  0.893E-01  0.269E-07  0.269E-07
   0.100  0.991E-01  0.991E-01  0.290E-07  0.290E-07
   0.110  0.106E+00  0.106E+00  0.303E-07  0.303E-07
   0.120  0.109E+00  0.109E+00  0.309E-07  0.309E-07
   0.130  0.109E+00  0.109E+00  0.310E-07  0.310E-07
   0.140  0.107E+00  0.107E+00  0.308E-07  0.308E-07
   0.150  0.101E+00  0.101E+00  0.306E-07  0.306E-07
   0.160  0.951E-01  0.951E-01  0.306E-07  0.306E-07
   0.170  0.884E-01  0.884E-01  0.309E-07  0.309E-07
   0.180  0.820E-01  0.820E-01  0.314E-07  0.314E-07
   0.190  0.762E-01  0.762E-01  0.321E-07  0.321E-07
   0.200  0.711E-01  0.711E-01  0.328E-07  0.328E-07
   0.210  0.667E-01  0.667E-01  0.331E-07  0.331E-07
   0.220  0.625E-01  0.625E-01  0.331E-07  0.331E-07
   0.230  0.586E-01  0.586E-01  0.326E-07  0.326E-07
   0.240  0.548E-01  0.548E-01  0.317E-07  0.317E-07
   0.250  0.513E-01  0.513E-01  0.306E-07  0.306E-07
   0.260  0.483E-01  0.483E-01  0.294E-07  0.294E-07
   0.270  0.463E-01  0.463E-01  0.284E-07  0.284E-07
   0.280  0.457E-01  0.457E-01  0.279E-07  0.279E-07
   0.290  0.471E-01  0.471E-01  0.281E-07  0.281E-07
   0.300  0.511E-01  0.511E-01  0.292E-07  0.292E-07
   0.310  0.581E-01  0.581E-01  0.313E-07  0.313E-07
   0.320  0.684E-01  0.684E-01  0.344E-07  0.344E-07
   0.330  0.819E-01  0.819E-01  0.385E-07  0.385E-07
   0.340  0.979E-01  0.979E-01  0.434E-07  0.434E-07
   0.350  0.115E+00  0.115E+00  0.488E-07  0.488E-07
   0.360  0.133E+00  0.133E+00  0.544E-07  0.544E-07
   0.370  0.150E+00  0.150E+00  0.602E-07  0.602E-07
   0.380  0.163E+00  0.163E+00  0.659E-07  0.659E-07
   0.390  0.173E+00  0.173E+00  0.713E-07  0.713E-07
   0.400  0.177E+00  0.177E+00  0.762E-07  0.762E-07
   0.410  0.175E+00  0.175E+00  0.803E-07  0.803E-07
   0.420  0.168E+00  0.168E+00  0.834E-07  0.834E-07
   0.430  0.156E+00  0.156E+00  0.852E-07  0.852E-07
   0.440  0.142E+00  0.142E+00  0.856E-07  0.856E-07
   0.450  0.125E+00  0.125E+00  0.847E-07  0.847E-07
   0.460  0.109E+00  0.109E+00  0.825E-07  0.825E-07
   0.470  0.935E-01  0.935E-01  0.794E-07  0.794E-07
   0.480  0.800E-01  0.800E-01  0.759E-07  0.759E-07
   0.490  0.691E-01  0.691E-01  0.723E-07  0.723E-07
   0.500  0.609E-01  0.609E-01  0.690E-07  0.690E-07
   0.510  0.555E-01  0.555E-01  0.666E-07  0.666E-07
   0.520  0.529E-01  0.529E-01  0.652E-07  0.652E-07
   0.530  0.532E-01  0.532E-01  0.653E-07  0.653E-07
   0.540  0.568E-01  0.568E-01  0.676E-07  0.676E-07
   0.550  0.645E-01  0.645E-01  0.726E-07  0.726E-07
   0.560  0.771E-01  0.771E-01  0.812E-07  0.812E-07
   0.570  0.954E-01  0.954E-01  0.939E-07  0.939E-07
   0.580  0.120E+00  0.120E+00  0.111E-06  0.111E-06
   0.590  0.150E+00  0.150E+00  0.133E-06  0.133E-06
   0.600  0.184E+00  0.184E+00  0.157E-06  0.157E-06
   0.610  0.220E+00  0.220E+00  0.183E-06  0.183E-06
   0.620  0.253E+00  0.253E+00  0.207E-06  0.207E-06
   0.630  0.280E+00  0.280E+00  0.227E-06  0.227E-06
   0.640  0.297E+00  0.297E+00  0.241E-06  0.241E-06
   0.650  0.301E+00  0.301E+00  0.247E-06  0.247E-06
   0.660  0.291E+00  0.291E+00  0.246E-06  0.246E-06
   0.670  0.270E+00  0.270E+00  0.240E-06  0.240E-06
   0.680  0.240E+00  0.240E+00  0.231E-06  0.231E-06
   0.690  0.208E+00  0.208E+00  0.225E-06  0.225E-06
   0.700  0.178E+00  0.178E+00  0.227E-06  0.227E-06
   0.710  0.156E+00  0.156E+00  0.238E-06  0.238E-06
   0.720  0.145E+00  0.145E+00  0.263E-06  0.263E-06
   0.730  0.146E+00  0.146E+00  0.300E-06  0.300E-06
   0.740  0.159E+00  0.159E+00  0.350E-06  0.350E-06
   0.750  0.181E+00  0.181E+00  0.410E-06  0.410E-06
   0.760  0.210E+00  0.210E+00  0.476E-06  0.476E-06
   0.770  0.241E+00  0.241E+00  0.548E-06  0.548E-06
   0.780  0.273E+00  0.273E+00  0.620E-06  0.620E-06
   0.790  0.304E+00  0.304E+00  0.692E-06  0.692E-06
   0.800  0.332E+00  0.332E+00  0.760E-06  0.760E-06
   0.810  0.356E+00  0.356E+00  0.821E-06  0.821E-06
   0.820  0.375E+00  0.375E+00  0.872E-06  0.872E-06
   0.830  0.389E+00  0.389E+00  0.909E-06  0.909E-06
   0.840  0.398E+00  0.398E+00  0.929E-06  0.929E-06
   0.850  0.401E+00  0.401E+00  0.930E-06  0.930E-06
   0.860  0.400E+00  0.400E+00  0.912E-06  0.912E-06
   0.870  0.393E+00  0.393E+00  0.877E-06  0.877E-06
   0.880  0.384E+00  0.384E+00  0.830E-06  0.830E-06
   0.890  0.372E+00  0.372E+00  0.776E-06  0.776E-06
   0.900  0.359E+00  0.359E+00  0.719E-06  0.719E-06
   0.910  0.345E+00  0.345E+00  0.664E-06  0.664E-06
   0.920  0.331E+00  0.331E+00  0.615E-06  0.615E-06
   0.930  0.316E+00  0.316E+00  0.573E-06  0.573E-06
   0.940  0.299E+00  0.299E+00  0.539E-06  0.539E-06
   0.950  0.282E+00  0.282E+00  0.513E-06  0.513E-06
   0.960  0.263E+00  0.263E+00  0.493E-06  0.493E-06
   0.970  0.244E+00  0.244E+00  0.478E-06  0.478E-06
   0.980  0.226E+00  0.226E+00  0.468E-06  0.468E-06
   0.990  0.210E+00  0.210E+00  0.462E-06  0.462E-06
   1.000  0.196E+00  0.196E+00  0.457E-06  0.457E-06
   1.010  0.185E+00  0.185E+00  0.452E-06  0.452E-06
   1.020  0.177E+00  0.177E+00  0.446E-06  0.446E-06
   1.030  0.172E+00  0.172E+00  0.439E-06  0.439E-06
   1.040  0.169E+00  0.169E+00  0.431E-06  0.431E-06
   1.050  0.168E+00  0.168E+00  0.423E-06  0.423E-06
   1.060  0.170E+00  0.170E+00  0.418E-06  0.418E-06
   1.070  0.173E+00  0.173E+00  0.417E-06  0.417E-06
   1.080  0.178E+00  0.178E+00  0.419E-06  0.419E-06
   1.090  0.183E+00  0.183E+00  0.424E-06  0.424E-06
   1.100  0.188E+00  0.188E+00  0.428E-06  0.428E-06
   1.110  0.192E+00  0.192E+00  0.430E-06  0.430E-06
   1.120  0.195E+00  0.195E+00  0.426E-06  0.426E-06
   1.130  0.196E+00  0.196E+00  0.417E-06  0.417E-06
   1.140  0.196E+00  0.196E+00  0.403E-06  0.403E-06
   1.150  0.197E+00  0.197E+00  0.388E-06  0.388E-06
   1.160  0.198E+00  0.198E+00  0.375E-06  0.375E-06
   1.170  0.202E+00  0.202E+00  0.368E-06  0.368E-06
   1.180  0.208E+00  0.208E+00  0.369E-06  0.369E-06
   1.190  0.216E+00  0.216E+00  0.376E-06  0.376E-06
   1.200  0.224E+00  0.224E+00  0.388E-06  0.388E-06
   1.210  0.230E+00  0.230E+00  0.401E-06  0.401E-06
   1.220  0.233E+00  0.233E+00  0.411E-06  0.411E-06
   1.230  0.231E+00  0.231E+00  0.413E-06  0.413E-06
   1.240  0.224E+00  0.224E+00  0.407E-06  0.407E-06
   1.250  0.212E+00  0.212E+00  0.393E-06  0.393E-06
   1.260  0.197E+00  0.197E+00  0.371E-06  0.371E-06
   1.270  0.179E+00  0.179E+00  0.348E-06  0.348E-06
   1.280  0.161E+00  0.161E+00  0.326E-06  0.326E-06
   1.290  0.146E+00  0.146E+00  0.311E-06  0.311E-06
   1.300  0.134E+00  0.134E+00  0.306E-06  0.306E-06
   1.310  0.128E+00  0.128E+00  0.312E-06  0.312E-06
   1.320  0.126E+00  0.126E+00  0.329E-06  0.329E-06
   1.330  0.130E+00  0.130E+00  0.352E-06  0.352E-06
   1.340  0.137E+00  0.137E+00  0.379E-06  0.379E-06
   1.350  0.144E+00  0.144E+00  0.402E-06  0.402E-06
   1.360  0.151E+00  0.151E+00  0.416E-06  0.416E-06
   1.370  0.155E+00  0.155E+00  0.417E-06  0.417E-06
   1.380  0.155E+00  0.155E+00  0.405E-06  0.405E-06
   1.390  0.152E+00  0.152E+00  0.381E-06  0.381E-06
   1.400  0.146E+00  0.146E+00  0.348E-06  0.348E-06
   1.410  0.140E+00  0.140E+00  0.315E-06  0.315E-06
   1.420  0.136E+00  0.136E+00  0.288E-06  0.288E-06
   1.430  0.135E+00  0.135E+00  0.272E-06  0.272E-06
   1.440  0.138E+00  0.138E+00  0.271E-06  0.271E-06
   1.450  0.147E+00  0.147E+00  0.285E-06  0.285E-06
   1.460  0.159E+00  0.159E+00  0.312E-06  0.312E-06
   1.470  0.173E+00  0.173E+00  0.347E-06  0.347E-06
   1.480  0.187E+00  0.187E+00  0.384E-06  0.384E-06
   1.490  0.200E+00  0.200E+00  0.414E-06  0.414E-06
   1.500  0.209E+00  0.209E+00  0.433E-06  0.433E-06
   1.510  0.212E+00  0.212E+00  0.437E-06  0.437E-06
   1.520  0.210E+00  0.210E+00  0.425E-06  0.425E-06
   1.530  0.203E+00  0.203E+00  0.399E-06  0.399E-06
   1.540  0.191E+00  0.191E+00  0.363E-06  0.363E-06
   1.550  0.176E+00  0.176E+00  0.324E-06  0.324E-06
   1.560  0.161E+00  0.161E+00  0.288E-06  0.288E-06
   1.570  0.146E+00  0.146E+00  0.260E-06  0.260E-06
   1.580  0.132E+00  0.132E+00  0.244E-06  0.244E-06
   1.590  0.122E+00  0.122E+00  0.242E-06  0.242E-06
   1.600  0.115E+00  0.115E+00  0.253E-06  0.253E-06
   1.610  0.112E+00  0.112E+00  0.277E-06  0.277E-06
   1.620  0.112E+00  0.112E+00  0.309E-06  0.309E-06
   1.630  0.115E+00  0.115E+00  0.346E-06  0.346E-06
   1.640  0.121E+00  0.121E+00  0.383E-06  0.383E-06
   1.650  0.127E+00  0.127E+00  0.415E-06  0.415E-06
   1.660  0.134E+00  0.134E+00  0.437E-06  0.437E-06
   1.670  0.139E+00  0.139E+00  0.447E-06  0.447E-06
   1.680  0.142E+00  0.142E+00  0.440E-06  0.440E-06
   1.690  0.141E+00  0.141E+00  0.419E-06  0.419E-06
   1.700  0.136E+00  0.136E+00  0.384E-06  0.384E-06
   1.710  0.129E+00  0.129E+00  0.340E-06  0.340E-06
   1.720  0.121E+00  0.121E+00  0.295E-06  0.295E-06
   1.730  0.114E+00  0.114E+00  0.255E-06  0.255E-06
   1.740  0.109E+00  0.109E+00  0.227E-06  0.227E-06
   1.750  0.109E+00  0.109E+00  0.215E-06  0.215E-06
   1.760  0.114E+00  0.114E+00  0.222E-06  0.222E-06
   1.770  0.123E+00  0.123E+00  0.246E-06  0.246E-06
   1.780  0.137E+00  0.137E+00  0.285E-06  0.285E-06
   1.790  0.153E+00  0.153E+00  0.333E-06  0.333E-06
   1.800  0.170E+00  0.170E+00  0.383E-06  0.383E-06
   1.810  0.186E+00  0.186E+00  0.429E-06  0.429E-06
   1.820  0.197E+00  0.197E+00  0.464E-06  0.464E-06
   1.830  0.203E+00  0.203E+00  0.483E-06  0.483E-06
   1.840  0.203E+00  0.203E+00  0.482E-06  0.482E-06
   1.850  0.196E+00  0.196E+00  0.463E-06  0.463E-06
   1.860  0.183E+00  0.183E+00  0.427E-06  0.427E-06
   1.870  0.165E+00  0.165E+00  0.379E-06  0.379E-06
   1.880  0.145E+00  0.145E+00  0.328E-06  0.328E-06
   1.890  0.126E+00  0.126E+00  0.279E-06  0.279E-06
   1.900  0.109E+00  0.109E+00  0.240E-06  0.240E-06
   1.910  0.957E-01  0.957E-01  0.216E-06  0.216E-06
   1.920  0.874E-01  0.874E-01  0.207E-06  0.207E-06
   1.930  0.837E-01  0.837E-01  0.214E-06  0.214E-06
   1.940  0.842E-01  0.842E-01  0.235E-06  0.235E-06
   1.950  0.878E-01  0.878E-01  0.267E-06  0.267E-06
   1.960  0.938E-01  0.938E-01  0.307E-06  0.307E-06
   1.970  0.101E+00  0.101E+00  0.351E-06  0.351E-06
   1.980  0.110E+00  0.110E+00  0.396E-06  0.396E-06
   1.990  0.119E+00  0.119E+00  0.438E-06  0.438E-06
   2.000  0.127E+00  0.127E+00  0.473E-06  0.473E-06
   2.010  0.135E+00  0.135E+00  0.497E-06  0.497E-06
   2.020  0.140E+00  0.140E+00  0.505E-06  0.505E-06
   2.030  0.142E+00  0.142E+00  0.495E-06  0.495E-06
   2.040  0.140E+00  0.140E+00  0.468E-06  0.468E-06
   2.050  0.135E+00  0.135E+00  0.425E-06  0.425E-06
   2.060  0.127E+00  0.127E+00  0.371E-06  0.371E-06
   2.070  0.119E+00  0.119E+00  0.314E-06  0.314E-06
   2.080  0.111E+00  0.111E+00  0.262E-06  0.262E-06
   2.090  0.105E+00  0.105E+00  0.221E-06  0.221E-06
   2.100  0.104E+00  0.104E+00  0.197E-06  0.197E-06
   2.110  0.107E+00  0.107E+00  0.193E-06  0.193E-06
   2.120  0.114E+00  0.114E+00  0.211E-06  0.211E-06
   2.130  0.126E+00  0.126E+00  0.246E-06  0.246E-06
   2.140  0.141E+00  0.141E+00  0.296E-06  0.296E-06
   2.150  0.156E+00  0.156E+00  0.354E-06  0.354E-06
   2.160  0.170E+00  0.170E+00  0.417E-06  0.417E-06
   2.170  0.180E+00  0.180E+00  0.479E-06  0.479E-06
   2.180  0.185E+00  0.185E+00  0.539E-06  0.539E-06
   2.190  0.184E+00  0.184E+00  0.599E-06  0.599E-06
   2.200  0.177E+00  0.177E+00  0.673E-06  0.673E-06
   2.210  0.163E+00  0.163E+00  0.786E-06  0.786E-06
   2.220  0.145E+00  0.145E+00  0.988E-06  0.988E-06
   2.230  0.125E+00  0.125E+00  0.136E-05  0.136E-05
   2.240  0.105E+00  0.105E+00  0.201E-05  0.201E-05
   2.250  0.876E-01  0.876E-01  0.312E-05  0.312E-05
   2.260  0.748E-01  0.748E-01  0.491E-05  0.491E-05
   2.270  0.672E-01  0.672E-01  0.766E-05  0.766E-05
   2.280  0.645E-01  0.645E-01  0.117E-04  0.117E-04
   2.290  0.659E-01  0.659E-01  0.174E-04  0.174E-04
   2.300  0.701E-01  0.700E-01  0.250E-04  0.250E-04
   2.310  0.758E-01  0.757E-01  0.349E-04  0.349E-04
   2.320  0.822E-01  0.821E-01  0.472E-04  0.472E-04
   2.330  0.892E-01  0.890E-01  0.620E-04  0.620E-04
   2.340  0.967E-01  0.965E-01  0.791E-04  0.791E-04
   2.350  0.105E+00  0.105E+00  0.984E-04  0.984E-04
   2.360  0.114E+00  0.114E+00  0.119E-03  0.119E-03
   2.370  0.124E+00  0.124E+00  0.142E-03  0.142E-03
   2.380  0.134E+00  0.134E+00  0.165E-03  0.165E-03
   2.390  0.143E+00  0.142E+00  0.188E-03  0.188E-03
   2.400  0.149E+00  0.149E+00  0.211E-03  0.211E-03
   2.410  0.152E+00  0.152E+00  0.233E-03  0.233E-03
   2.420  0.151E+00  0.151E+00  0.255E-03  0.255E-03
   2.430  0.147E+00  0.146E+00  0.276E-03  0.276E-03
   2.440  0.140E+00  0.140E+00  0.296E-03  0.296E-03
   2.450  0.132E+00  0.131E+00  0.315E-03  0.315E-03
   2.460  0.124E+00  0.123E+00  0.334E-03  0.334E-03
   2.470  0.118E+00  0.117E+00  0.353E-03  0.353E-03
   2.480  0.114E+00  0.113E+00  0.370E-03  0.370E-03
   2.490  0.113E+00  0.112E+00  0.387E-03  0.387E-03
   2.500  0.114E+00  0.113E+00  0.404E-03  0.404E-03
   2.510  0.117E+00  0.117E+00  0.420E-03  0.420E-03
   2.520  0.121E+00  0.121E+00  0.436E-03  0.436E-03
   2.530  0.125E+00  0.125E+00  0.452E-03  0.452E-03
   2.540  0.129E+00  0.128E+00  0.468E-03  0.468E-03
   2.550  0.130E+00  0.129E+00  0.484E-03  0.484E-03
   2.560  0.130E+00  0.129E+00  0.500E-03  0.500E-03
   2.570  0.128E+00  0.127E+00  0.514E-03  0.514E-03
   2.580  0.125E+00  0.124E+00  0.528E-03  0.528E-03
   2.590  0.121E+00  0.119E+00  0.540E-03  0.540E-03
   2.600  0.115E+00  0.114E+00  0.551E-03  0.551E-03
   2.610  0.110E+00  0.109E+00  0.563E-03  0.563E-03
   2.620  0.104E+00  0.103E+00  0.577E-03  0.577E-03
   2.630  0.100E+00  0.988E-01  0.593E-03  0.593E-03
   2.640  0.966E-01  0.954E-01  0.610E-03  0.610E-03
   2.650  0.946E-01  0.933E-01  0.627E-03  0.627E-03
   2.660  0.939E-01  0.926E-01  0.642E-03  0.642E-03
   2.670  0.943E-01  0.930E-01  0.654E-03  0.654E-03
   2.680  0.954E-01  0.941E-01  0.661E-03  0.661E-03
   2.690  0.971E-01  0.957E-01  0.666E-03  0.666E-03
   2.700  0.992E-01  0.978E-01  0.670E-03  0.670E-03
   2.710  0.102E+00  0.101E+00  0.677E-03  0.677E-03
   2.720  0.106E+00  0.105E+00  0.689E-03  0.689E-03
   2.730  0.112E+00  0.111E+00  0.706E-03  0.706E-03
   2.740  0.120E+00  0.119E+00  0.728E-03  0.728E-03
   2.750  0.130E+00  0.129E+00  0.751E-03  0.751E-03
   2.760  0.142E+00  0.141E+00  0.770E-03  0.770E-03
   2.770  0.155E+00  0.153E+00  0.782E-03  0.782E-03
   2.780  0.167E+00  0.166E+00  0.787E-03  0.787E-03
   2.790  0.178E+00  0.176E+00  0.784E-03  0.784E-03
   2.800  0.185E+00  0.184E+00  0.778E-03  0.778E-03
   2.810  0.188E+00  0.187E+00  0.775E-03  0.775E-03
   2.820  0.186E+00  0.184E+00  0.780E-03  0.780E-03
   2.830  0.178E+00  0.177E+00  0.796E-03  0.796E-03
   2.840  0.165E+00  0.164E+00  0.825E-03  0.825E-03
   2.850  0.149E+00  0.147E+00  0.862E-03  0.862E-03
   2.860  0.129E+00  0.127E+00  0.903E-03  0.903E-03
   2.870  0.110E+00  0.108E+00  0.939E-03  0.939E-03
   2.880  0.927E-01  0.908E-01  0.964E-03  0.964E-03
   2.890  0.794E-01  0.775E-01  0.974E-03  0.974E-03
   2.900  0.713E-01  0.694E-01  0.969E-03  0.969E-03
   2.910  0.686E-01  0.667E-01  0.952E-03  0.952E-03
   2.920  0.708E-01  0.689E-01  0.932E-03  0.932E-03
   2.930  0.766E-01  0.748E-01  0.915E-03  0.915E-03
   2.940  0.846E-01  0.827E-01  0.912E-03  0.912E-03
   2.950  0.931E-01  0.912E-01  0.925E-03  0.925E-03
   2.960  0.101E+00  0.990E-01  0.957E-03  0.957E-03
   2.970  0.107E+00  0.105E+00  0.100E-02  0.100E-02
   2.980  0.112E+00  0.110E+00  0.106E-02  0.106E-02
   2.990  0.116E+00  0.114E+00  0.111E-02  0.111E-02
   3.000  0.118E+00  0.116E+00  0.114E-02  0.114E-02
   3.010  0.119E+00  0.117E+00  0.116E-02  0.116E-02
   3.020  0.120E+00  0.118E+00  0.116E-02  0.116E-02
   3.030  0.120E+00  0.118E+00  0.114E-02  0.114E-02
   3.040  0.119E+00  0.116E+00  0.110E-02  0.110E-02
   3.050  0.117E+00  0.114E+00  0.106E-02  0.106E-02
   3.060  0.113E+00  0.111E+00  0.103E-02  0.103E-02
   3.070  0.109E+00  0.107E+00  0.101E-02  0.101E-02
   3.080  0.105E+00  0.103E+00  0.101E-02  0.101E-02
   3.090  0.101E+00  0.990E-01  0.104E-02  0.104E-02
   3.100  0.981E-01  0.959E-01  0.109E-02  0.109E-02
   3.110  0.970E-01  0.947E-01  0.115E-02  0.115E-02
   3.120  0.985E-01  0.961E-01  0.122E-02  0.122E-02
   3.130  0.103E+00  0.100E+00  0.128E-02  0.128E-02
   3.140  0.110E+00  0.107E+00  0.132E-02  0.132E-02
   3.150  0.119E+00  0.117E+00  0.133E-02  0.133E-02
   3.160  0.130E+00  0.128E+00  0.131E-02  0.131E-02
   3.170  0.141E+00  0.139E+00  0.127E-02  0.127E-02
   3.180  0.151E+00  0.149E+00  0.122E-02  0.122E-02
   3.190  0.158E+00  0.156E+00  0.117E-02  0.117E-02
   3.200  0.162E+00  0.160E+00  0.112E-02  0.112E-02
   3.210  0.161E+00  0.159E+00  0.109E-02  0.109E-02
   3.220  0.155E+00  0.153E+00  0.108E-02  0.108E-02
   3.230  0.145E+00  0.143E+00  0.109E-02  0.109E-02
   3.240  0.130E+00  0.128E+00  0.113E-02  0.113E-02
   3.250  0.113E+00  0.111E+00  0.118E-02  0.118E-02
   3.260  0.957E-01  0.932E-01  0.125E-02  0.125E-02
   3.270  0.790E-01  0.764E-01  0.132E-02  0.132E-02
   3.280  0.654E-01  0.626E-01  0.139E-02  0.139E-02
   3.290  0.561E-01  0.532E-01  0.144E-02  0.144E-02
   3.300  0.518E-01  0.489E-01  0.146E-02  0.146E-02
   3.310  0.524E-01  0.495E-01  0.146E-02  0.146E-02
   3.320  0.570E-01  0.542E-01  0.143E-02  0.143E-02
   3.330  0.641E-01  0.614E-01  0.137E-02  0.137E-02
   3.340  0.722E-01  0.696E-01  0.129E-02  0.129E-02
   3.350  0.799E-01  0.775E-01  0.121E-02  0.121E-02
   3.360  0.865E-01  0.843E-01  0.114E-02  0.114E-02
   3.370  0.919E-01  0.897E-01  0.110E-02  0.110E-02
   3.380  0.966E-01  0.944E-01  0.109E-02  0.109E-02
   3.390  0.101E+00  0.990E-01  0.110E-02  0.110E-02
   3.400  0.107E+00  0.104E+00  0.115E-02  0.115E-02
   3.410  0.113E+00  0.111E+00  0.123E-02  0.123E-02
   3.420  0.121E+00  0.118E+00  0.132E-02  0.132E-02
   3.430  0.129E+00  0.126E+00  0.141E-02  0.141E-02
   3.440  0.136E+00  0.133E+00  0.150E-02  0.150E-02
   3.450  0.141E+00  0.138E+00  0.156E-02  0.156E-02
   3.460  0.144E+00  0.141E+00  0.159E-02  0.159E-02
   3.470  0.145E+00  0.141E+00  0.158E-02  0.158E-02
   3.480  0.142E+00  0.139E+00  0.154E-02  0.154E-02
   3.490  0.137E+00  0.134E+00  0.147E-02  0.147E-02
   3.500  0.130E+00  0.127E+00  0.138E-02  0.138E-02
   3.510  0.122E+00  0.119E+00  0.128E-02  0.128E-02
   3.520  0.114E+00  0.111E+00  0.119E-02  0.119E-02
   3.530  0.105E+00  0.103E+00  0.112E-02  0.112E-02
   3.540  0.979E-01  0.957E-01  0.108E-02  0.108E-02
   3.550  0.916E-01  0.894E-01  0.108E-02  0.108E-02
   3.560  0.870E-01  0.847E-01  0.112E-02  0.112E-02
   3.570  0.843E-01  0.819E-01  0.120E-02  0.120E-02
   3.580  0.838E-01  0.813E-01  0.129E-02  0.129E-02
   3.590  0.855E-01  0.827E-01  0.139E-02  0.139E-02
   3.600  0.890E-01  0.860E-01  0.149E-02  0.149E-02
   3.610  0.937E-01  0.905E-01  0.156E-02  0.156E-02
   3.620  0.986E-01  0.954E-01  0.161E-02  0.161E-02
   3.630  0.103E+00  0.997E-01  0.162E-02  0.162E-02
   3.640  0.106E+00  0.103E+00  0.160E-02  0.160E-02
   3.650  0.106E+00  0.103E+00  0.155E-02  0.155E-02
   3.660  0.105E+00  0.102E+00  0.149E-02  0.149E-02
   3.670  0.100E+00  0.976E-01  0.142E-02  0.142E-02
   3.680  0.948E-01  0.921E-01  0.135E-02  0.135E-02
   3.690  0.885E-01  0.859E-01  0.129E-02  0.129E-02
   3.700  0.825E-01  0.800E-01  0.124E-02  0.124E-02
   3.710  0.778E-01  0.754E-01  0.120E-02  0.120E-02
   3.720  0.749E-01  0.726E-01  0.118E-02  0.118E-02
   3.730  0.741E-01  0.717E-01  0.118E-02  0.118E-02
   3.740  0.750E-01  0.726E-01  0.118E-02  0.118E-02
   3.750  0.771E-01  0.746E-01  0.121E-02  0.121E-02
   3.760  0.797E-01  0.772E-01  0.125E-02  0.125E-02
   3.770  0.826E-01  0.800E-01  0.130E-02  0.130E-02
   3.780  0.857E-01  0.830E-01  0.137E-02  0.137E-02
   3.790  0.894E-01  0.865E-01  0.144E-02  0.144E-02
   3.800  0.941E-01  0.911E-01  0.151E-02  0.151E-02
   3.810  0.100E+00  0.974E-01  0.157E-02  0.157E-02
   3.820  0.109E+00  0.106E+00  0.160E-02  0.160E-02
   3.830  0.119E+00  0.116E+00  0.161E-02  0.161E-02
   3.840  0.130E+00  0.127E+00  0.159E-02  0.159E-02
   3.850  0.141E+00  0.138E+00  0.155E-02  0.155E-02
   3.860  0.151E+00  0.148E+00  0.149E-02  0.149E-02
   3.870  0.158E+00  0.155E+00  0.142E-02  0.142E-02
   3.880  0.160E+00  0.157E+00  0.136E-02  0.136E-02
   3.890  0.157E+00  0.155E+00  0.130E-02  0.130E-02
   3.900  0.149E+00  0.146E+00  0.125E-02  0.125E-02
   3.910  0.135E+00  0.133E+00  0.122E-02  0.122E-02
   3.920  0.117E+00  0.115E+00  0.119E-02  0.119E-02
   3.930  0.974E-01  0.950E-01  0.116E-02  0.116E-02
   3.940  0.770E-01  0.747E-01  0.115E-02  0.115E-02
   3.950  0.588E-01  0.565E-01  0.115E-02  0.115E-02
   3.960  0.447E-01  0.424E-01  0.117E-02  0.117E-02
   3.970  0.362E-01  0.338E-01  0.121E-02  0.121E-02
   3.980  0.339E-01  0.314E-01  0.127E-02  0.127E-02
   3.990  0.374E-01  0.347E-01  0.136E-02  0.136E-02
   4.000  0.457E-01  0.427E-01  0.146E-02  0.146E-02
   4.010  0.569E-01  0.538E-01  0.156E-02  0.156E-02
   4.020  0.693E-01  0.660E-01  0.165E-02  0.165E-02
   4.030  0.811E-01  0.777E-01  0.171E-02  0.171E-02
   4.040  0.910E-01  0.875E-01  0.173E-02  0.173E-02
   4.050  0.981E-01  0.947E-01  0.172E-02  0.172E-02
   4.060  0.103E+00  0.992E-01  0.166E-02  0.166E-02
   4.070  0.105E+00  0.102E+00  0.156E-02  0.156E-02
   4.080  0.105E+00  0.102E+00  0.145E-02  0.145E-02
   4.090  0.105E+00  0.102E+00  0.133E-02  0.133E-02
   4.100  0.104E+00  0.101E+00  0.122E-02  0.122E-02
   4.110  0.103E+00  0.101E+00  0.113E-02  0.113E-02
   4.120  0.102E+00  0.100E+00  0.107E-02  0.107E-02
   4.130  0.102E+00  0.999E-01  0.103E-02  0.103E-02
   4.140  0.101E+00  0.993E-01  0.103E-02  0.103E-02
   4.150  0.101E+00  0.987E-01  0.105E-02  0.105E-02
   4.160  0.100E+00  0.980E-01  0.109E-02  0.109E-02
   4.170  0.997E-01  0.974E-01  0.116E-02  0.116E-02
   4.180  0.995E-01  0.970E-01  0.124E-02  0.124E-02
   4.190  0.998E-01  0.971E-01  0.133E-02  0.133E-02
   4.200  0.100E+00  0.976E-01  0.143E-02  0.143E-02
   4.210  0.101E+00  0.983E-01  0.154E-02  0.154E-02
   4.220  0.103E+00  0.993E-01  0.163E-02  0.163E-02
   4.230  0.104E+00  0.100E+00  0.171E-02  0.171E-02
   4.240  0.105E+00  0.101E+00  0.175E-02  0.175E-02
   4.250  0.105E+00  0.102E+00  0.176E-02  0.176E-02
   4.260  0.106E+00  0.103E+00  0.173E-02  0.173E-02
   4.270  0.107E+00  0.103E+00  0.166E-02  0.166E-02
   4.280  0.107E+00  0.104E+00  0.156E-02  0.156E-02
   4.290  0.107E+00  0.104E+00  0.144E-02  0.144E-02
   4.300  0.107E+00  0.104E+00  0.132E-02  0.132E-02
   4.310  0.106E+00  0.103E+00  0.120E-02  0.120E-02
   4.320  0.103E+00  0.100E+00  0.110E-02  0.110E-02
   4.330  0.975E-01  0.955E-01  0.101E-02  0.101E-02
   4.340  0.901E-01  0.882E-01  0.955E-03  0.955E-03
   4.350  0.807E-01  0.788E-01  0.929E-03  0.929E-03
   4.360  0.701E-01  0.682E-01  0.937E-03  0.937E-03
   4.370  0.595E-01  0.576E-01  0.980E-03  0.980E-03
   4.380  0.506E-01  0.484E-01  0.105E-02  0.105E-02
   4.390  0.446E-01  0.423E-01  0.115E-02  0.115E-02
   4.400  0.425E-01  0.400E-01  0.127E-02  0.127E-02
   4.410  0.448E-01  0.420E-01  0.139E-02  0.139E-02
   4.420  0.508E-01  0.478E-01  0.151E-02  0.151E-02
   4.430  0.595E-01  0.562E-01  0.162E-02  0.162E-02
   4.440  0.693E-01  0.659E-01  0.169E-02  0.169E-02
   4.450  0.789E-01  0.754E-01  0.173E-02  0.173E-02
   4.460  0.871E-01  0.836E-01  0.172E-02  0.172E-02
   4.470  0.935E-01  0.901E-01  0.168E-02  0.168E-02
   4.480  0.982E-01  0.950E-01  0.160E-02  0.160E-02
   4.490  0.102E+00  0.988E-01  0.151E-02  0.151E-02
   4.500  0.105E+00  0.102E+00  0.140E-02  0.140E-02
   4.510  0.109E+00  0.106E+00  0.129E-02  0.129E-02
   4.520  0.113E+00  0.111E+00  0.120E-02  0.120E-02
   4.530  0.118E+00  0.116E+00  0.112E-02  0.112E-02
   4.540  0.122E+00  0.120E+00  0.107E-02  0.107E-02
   4.550  0.126E+00  0.124E+00  0.104E-02  0.104E-02
   4.560  0.128E+00  0.126E+00  0.102E-02  0.102E-02
   4.570  0.128E+00  0.126E+00  0.101E-02  0.101E-02
   4.580  0.125E+00  0.123E+00  0.101E-02  0.101E-02
   4.590  0.119E+00  0.117E+00  0.103E-02  0.103E-02
   4.600  0.112E+00  0.109E+00  0.106E-02  0.106E-02
   4.610  0.102E+00  0.997E-01  0.110E-02  0.110E-02
   4.620  0.910E-01  0.887E-01  0.116E-02  0.116E-02
   4.630  0.796E-01  0.772E-01  0.123E-02  0.123E-02
   4.640  0.689E-01  0.663E-01  0.132E-02  0.132E-02
   4.650  0.599E-01  0.571E-01  0.140E-02  0.140E-02
   4.660  0.539E-01  0.509E-01  0.147E-02  0.147E-02
   4.670  0.515E-01  0.485E-01  0.153E-02  0.153E-02
   4.680  0.532E-01  0.501E-01  0.156E-02  0.156E-02
   4.690  0.586E-01  0.555E-01  0.156E-02  0.156E-02
   4.700  0.669E-01  0.638E-01  0.152E-02  0.152E-02
   4.710  0.764E-01  0.735E-01  0.147E-02  0.147E-02
   4.720  0.857E-01  0.829E-01  0.139E-02  0.139E-02
   4.730  0.929E-01  0.903E-01  0.130E-02  0.130E-02
   4.740  0.970E-01  0.946E-01  0.122E-02  0.122E-02
   4.750  0.972E-01  0.949E-01  0.115E-02  0.115E-02
   4.760  0.935E-01  0.913E-01  0.109E-02  0.109E-02
   4.770  0.867E-01  0.846E-01  0.106E-02  0.106E-02
   4.780  0.782E-01  0.761E-01  0.105E-02  0.105E-02
   4.790  0.697E-01  0.676E-01  0.106E-02  0.106E-02
   4.800  0.629E-01  0.607E-01  0.108E-02  0.108E-02
   4.810  0.590E-01  0.568E-01  0.110E-02  0.110E-02
   4.820  0.589E-01  0.566E-01  0.112E-02  0.112E-02
   4.830  0.625E-01  0.602E-01  0.113E-02  0.113E-02
   4.840  0.692E-01  0.669E-01  0.113E-02  0.113E-02
   4.850  0.779E-01  0.757E-01  0.112E-02  0.112E-02
   4.860  0.874E-01  0.852E-01  0.111E-02  0.111E-02
   4.870  0.967E-01  0.945E-01  0.110E-02  0.110E-02
   4.880  0.105E+00  0.103E+00  0.110E-02  0.110E-02
   4.890  0.112E+00  0.109E+00  0.112E-02  0.112E-02
   4.900  0.117E+00  0.114E+00  0.115E-02  0.115E-02
   4.910  0.120E+00  0.118E+00  0.120E-02  0.120E-02
   4.920  0.122E+00  0.120E+00  0.125E-02  0.125E-02
   4.930  0.123E+00  0.121E+00  0.131E-02  0.131E-02
   4.940  0.123E+00  0.120E+00  0.136E-02  0.136E-02
   4.950  0.121E+00  0.118E+00  0.141E-02  0.141E-02
   4.960  0.118E+00  0.115E+00  0.144E-02  0.144E-02
   4.970  0.114E+00  0.111E+00  0.146E-02  0.146E-02
   4.980  0.109E+00  0.106E+00  0.147E-02  0.147E-02
   4.990  0.103E+00  0.997E-01  0.147E-02  0.147E-02
   5.000  0.954E-01  0.925E-01  0.146E-02  0.146E-02
   5.010  0.877E-01  0.848E-01  0.144E-02  0.144E-02
   5.020  0.797E-01  0.768E-01  0.141E-02  0.141E-02
   5.030  0.717E-01  0.689E-01  0.137E-02  0.137E-02
   5.040  0.641E-01  0.615E-01  0.131E-02  0.131E-02
   5.050  0.572E-01  0.548E-01  0.123E-02  0.123E-02
   5.060  0.513E-01  0.490E-01  0.115E-02  0.115E-02
   5.070  0.464E-01  0.443E-01  0.106E-02  0.106E-02
   5.080  0.426E-01  0.407E-01  0.964E-03  0.964E-03
   5.090  0.399E-01  0.381E-01  0.878E-03  0.878E-03
   5.100  0.379E-01  0.363E-01  0.804E-03  0.804E-03
   5.110  0.365E-01  0.350E-01  0.749E-03  0.749E-03
   5.120  0.355E-01  0.341E-01  0.715E-03  0.715E-03
   5.130  0.346E-01  0.332E-01  0.703E-03  0.703E-03
   5.140  0.336E-01  0.322E-01  0.712E-03  0.712E-03
   5.150  0.325E-01  0.310E-01  0.735E-03  0.735E-03
   5.160  0.311E-01  0.296E-01  0.763E-03  0.763E-03
   5.170  0.294E-01  0.278E-01  0.787E-03  0.787E-03
   5.180  0.275E-01  0.259E-01  0.798E-03  0.798E-03
   5.190  0.256E-01  0.241E-01  0.787E-03  0.787E-03
   5.200  0.241E-01  0.226E-01  0.753E-03  0.753E-03
   5.210  0.235E-01  0.221E-01  0.700E-03  0.700E-03
   5.220  0.243E-01  0.230E-01  0.636E-03  0.636E-03
   5.230  0.274E-01  0.262E-01  0.575E-03  0.575E-03
   5.240  0.335E-01  0.324E-01  0.532E-03  0.532E-03
   5.250  0.432E-01  0.422E-01  0.521E-03  0.521E-03
   5.260  0.569E-01  0.558E-01  0.553E-03  0.553E-03
   5.270  0.743E-01  0.730E-01  0.633E-03  0.633E-03
   5.280  0.947E-01  0.932E-01  0.757E-03  0.757E-03
   5.290  0.117E+00  0.115E+00  0.915E-03  0.915E-03
   5.300  0.139E+00  0.137E+00  0.109E-02  0.109E-02
   5.310  0.158E+00  0.156E+00  0.127E-02  0.127E-02
   5.320  0.173E+00  0.170E+00  0.142E-02  0.142E-02
   5.330  0.182E+00  0.179E+00  0.153E-02  0.153E-02
   5.340  0.183E+00  0.180E+00  0.158E-02  0.158E-02
   5.350  0.177E+00  0.174E+00  0.157E-02  0.157E-02
   5.360  0.164E+00  0.161E+00  0.150E-02  0.150E-02
   5.370  0.147E+00  0.144E+00  0.138E-02  0.138E-02
   5.380  0.126E+00  0.124E+00  0.123E-02  0.123E-02
   5.390  0.105E+00  0.103E+00  0.107E-02  0.107E-02
   5.400  0.848E-01  0.830E-01  0.924E-03  0.924E-03
   5.410  0.671E-01  0.655E-01  0.801E-03  0.801E-03
   5.420  0.529E-01  0.515E-01  0.715E-03  0.715E-03
   5.430  0.430E-01  0.416E-01  0.669E-03  0.669E-03
   5.440  0.374E-01  0.361E-01  0.661E-03  0.661E-03
   5.450  0.364E-01  0.351E-01  0.685E-03  0.685E-03
   5.460  0.395E-01  0.381E-01  0.733E-03  0.733E-03
   5.470  0.461E-01  0.445E-01  0.793E-03  0.793E-03
   5.480  0.551E-01  0.534E-01  0.857E-03  0.857E-03
   5.490  0.652E-01  0.634E-01  0.915E-03  0.915E-03
   5.500  0.749E-01  0.730E-01  0.959E-03  0.959E-03
   5.510  0.829E-01  0.809E-01  0.986E-03  0.986E-03
   5.520  0.883E-01  0.863E-01  0.992E-03  0.992E-03
   5.530  0.906E-01  0.887E-01  0.976E-03  0.976E-03
   5.540  0.900E-01  0.882E-01  0.939E-03  0.939E-03
   5.550  0.873E-01  0.855E-01  0.886E-03  0.886E-03
   5.560  0.833E-01  0.816E-01  0.820E-03  0.820E-03
   5.570  0.792E-01  0.777E-01  0.749E-03  0.749E-03
   5.580  0.760E-01  0.747E-01  0.679E-03  0.679E-03
   5.590  0.745E-01  0.733E-01  0.613E-03  0.613E-03
   5.600  0.750E-01  0.739E-01  0.557E-03  0.557E-03
   5.610  0.776E-01  0.766E-01  0.512E-03  0.512E-03
   5.620  0.819E-01  0.810E-01  0.477E-03  0.477E-03
   5.630  0.874E-01  0.865E-01  0.451E-03  0.451E-03
   5.640  0.933E-01  0.924E-01  0.432E-03  0.432E-03
   5.650  0.989E-01  0.980E-01  0.418E-03  0.418E-03
   5.660  0.103E+00  0.103E+00  0.407E-03  0.407E-03
   5.670  0.106E+00  0.105E+00  0.399E-03  0.399E-03
   5.680  0.107E+00  0.106E+00  0.396E-03  0.396E-03
   5.690  0.106E+00  0.105E+00  0.399E-03  0.399E-03
   5.700  0.103E+00  0.102E+00  0.413E-03  0.413E-03
   5.710  0.984E-01  0.976E-01  0.440E-03  0.440E-03
   5.720  0.933E-01  0.923E-01  0.482E-03  0.482E-03
   5.730  0.876E-01  0.865E-01  0.536E-03  0.536E-03
   5.740  0.817E-01  0.805E-01  0.598E-03  0.598E-03
   5.750  0.757E-01  0.743E-01  0.664E-03  0.664E-03
   5.760  0.694E-01  0.680E-01  0.723E-03  0.723E-03
   5.770  0.629E-01  0.614E-01  0.770E-03  0.770E-03
   5.780  0.561E-01  0.545E-01  0.797E-03  0.797E-03
   5.790  0.492E-01  0.476E-01  0.803E-03  0.803E-03
   5.800  0.426E-01  0.410E-01  0.788E-03  0.788E-03
   5.810  0.369E-01  0.354E-01  0.755E-03  0.755E-03
   5.820  0.329E-01  0.315E-01  0.709E-03  0.709E-03
   5.830  0.314E-01  0.301E-01  0.656E-03  0.656E-03
   5.840  0.329E-01  0.317E-01  0.602E-03  0.602E-03
   5.850  0.376E-01  0.365E-01  0.549E-03  0.549E-03
   5.860  0.452E-01  0.442E-01  0.501E-03  0.501E-03
   5.870  0.550E-01  0.541E-01  0.457E-03  0.457E-03
   5.880  0.657E-01  0.649E-01  0.418E-03  0.418E-03
   5.890  0.761E-01  0.753E-01  0.384E-03  0.384E-03
   5.900  0.848E-01  0.841E-01  0.355E-03  0.355E-03
   5.910  0.910E-01  0.904E-01  0.329E-03  0.329E-03
   5.920  0.943E-01  0.937E-01  0.309E-03  0.309E-03
   5.930  0.948E-01  0.942E-01  0.293E-03  0.293E-03
   5.940  0.931E-01  0.925E-01  0.282E-03  0.282E-03
   5.950  0.900E-01  0.894E-01  0.274E-03  0.274E-03
   5.960  0.864E-01  0.858E-01  0.270E-03  0.270E-03
   5.970  0.829E-01  0.824E-01  0.270E-03  0.270E-03
   5.980  0.802E-01  0.796E-01  0.275E-03  0.275E-03
   5.990  0.782E-01  0.776E-01  0.285E-03  0.285E-03
   6.000  0.769E-01  0.763E-01  0.303E-03  0.303E-03
   6.010  0.762E-01  0.755E-01  0.331E-03  0.331E-03
   6.020  0.757E-01  0.749E-01  0.371E-03  0.371E-03
   6.030  0.751E-01  0.743E-01  0.423E-03  0.423E-03
   6.040  0.744E-01  0.734E-01  0.487E-03  0.487E-03
   6.050  0.733E-01  0.722E-01  0.560E-03  0.560E-03
   6.060  0.718E-01  0.705E-01  0.638E-03  0.638E-03
   6.070  0.700E-01  0.685E-01  0.719E-03  0.719E-03
   6.080  0.680E-01  0.664E-01  0.799E-03  0.799E-03
   6.090  0.661E-01  0.644E-01  0.878E-03  0.878E-03
   6.100  0.648E-01  0.629E-01  0.957E-03  0.957E-03
   6.110  0.643E-01  0.623E-01  0.104E-02  0.104E-02
   6.120  0.650E-01  0.628E-01  0.113E-02  0.113E-02
   6.130  0.669E-01  0.645E-01  0.122E-02  0.122E-02
   6.140  0.698E-01  0.671E-01  0.133E-02  0.133E-02
   6.150  0.730E-01  0.702E-01  0.143E-02  0.143E-02
   6.160  0.760E-01  0.729E-01  0.154E-02  0.154E-02
   6.170  0.777E-01  0.744E-01  0.163E-02  0.163E-02
   6.180  0.775E-01  0.741E-01  0.171E-02  0.171E-02
   6.190  0.751E-01  0.716E-01  0.176E-02  0.176E-02
   6.200  0.706E-01  0.670E-01  0.178E-02  0.178E-02
   6.210  0.647E-01  0.611E-01  0.179E-02  0.179E-02
   6.220  0.584E-01  0.548E-01  0.179E-02  0.179E-02
   6.230  0.531E-01  0.495E-01  0.182E-02  0.182E-02
   6.240  0.501E-01  0.463E-01  0.190E-02  0.190E-02
   6.250  0.503E-01  0.461E-01  0.209E-02  0.209E-02
   6.260  0.542E-01  0.493E-01  0.244E-02  0.244E-02
   6.270  0.616E-01  0.555E-01  0.304E-02  0.304E-02
   6.280  0.719E-01  0.640E-01  0.397E-02  0.397E-02
   6.290  0.842E-01  0.736E-01  0.529E-02  0.529E-02
   6.300  0.974E-01  0.833E-01  0.707E-02  0.707E-02
   6.310  0.111E+00  0.919E-01  0.932E-02  0.932E-02
   6.320  0.123E+00  0.987E-01  0.120E-01  0.120E-01
   6.330  0.133E+00  0.103E+00  0.151E-01  0.151E-01
   6.340  0.142E+00  0.106E+00  0.183E-01  0.183E-01
   6.350  0.149E+00  0.106E+00  0.216E-01  0.216E-01
   6.360  0.154E+00  0.104E+00  0.248E-01  0.248E-01
   6.370  0.156E+00  0.101E+00  0.276E-01  0.276E-01
   6.380  0.156E+00  0.956E-01  0.300E-01  0.300E-01
   6.390  0.153E+00  0.895E-01  0.319E-01  0.319E-01
   6.400  0.150E+00  0.826E-01  0.335E-01  0.335E-01
   6.410  0.144E+00  0.752E-01  0.346E-01  0.346E-01
   6.420  0.139E+00  0.678E-01  0.356E-01  0.356E-01
   6.430  0.134E+00  0.608E-01  0.364E-01  0.364E-01
   6.440  0.128E+00  0.546E-01  0.370E-01  0.370E-01
   6.450  0.124E+00  0.494E-01  0.373E-01  0.373E-01
   6.460  0.120E+00  0.456E-01  0.372E-01  0.372E-01
   6.470  0.116E+00  0.433E-01  0.365E-01  0.365E-01
   6.480  0.113E+00  0.424E-01  0.352E-01  0.352E-01
   6.490  0.109E+00  0.431E-01  0.332E-01  0.332E-01
   6.500  0.107E+00  0.454E-01  0.307E-01  0.307E-01
   6.510  0.105E+00  0.490E-01  0.279E-01  0.279E-01
   6.520  0.104E+00  0.538E-01  0.252E-01  0.252E-01
   6.530  0.106E+00  0.596E-01  0.230E-01  0.230E-01
   6.540  0.109E+00  0.658E-01  0.214E-01  0.214E-01
   6.550  0.113E+00  0.719E-01  0.208E-01  0.208E-01
   6.560  0.119E+00  0.773E-01  0.210E-01  0.210E-01
   6.570  0.126E+00  0.815E-01  0.221E-01  0.221E-01
   6.580  0.132E+00  0.838E-01  0.239E-01  0.239E-01
   6.590  0.136E+00  0.839E-01  0.261E-01  0.261E-01
   6.600  0.139E+00  0.817E-01  0.284E-01  0.284E-01
   6.610  0.139E+00  0.774E-01  0.307E-01  0.307E-01
   6.620  0.137E+00  0.715E-01  0.327E-01  0.327E-01
   6.630  0.133E+00  0.646E-01  0.343E-01  0.343E-01
   6.640  0.128E+00  0.574E-01  0.355E-01  0.355E-01
   6.650  0.123E+00  0.506E-01  0.363E-01  0.363E-01
   6.660  0.118E+00  0.447E-01  0.367E-01  0.367E-01
   6.670  0.114E+00  0.402E-01  0.369E-01  0.369E-01
   6.680  0.110E+00  0.369E-01  0.368E-01  0.368E-01
   6.690  0.108E+00  0.350E-01  0.365E-01  0.365E-01
   6.700  0.106E+00  0.341E-01  0.361E-01  0.361E-01
   6.710  0.105E+00  0.342E-01  0.357E-01  0.357E-01
   6.720  0.106E+00  0.352E-01  0.352E-01  0.352E-01
   6.730  0.107E+00  0.373E-01  0.350E-01  0.350E-01
   6.740  0.111E+00  0.407E-01  0.350E-01  0.350E-01
   6.750  0.116E+00  0.456E-01  0.354E-01  0.354E-01
   6.760  0.125E+00  0.519E-01  0.365E-01  0.365E-01
   6.770  0.135E+00  0.593E-01  0.381E-01  0.381E-01
   6.780  0.148E+00  0.672E-01  0.402E-01  0.402E-01
   6.790  0.160E+00  0.747E-01  0.426E-01  0.426E-01
   6.800  0.171E+00  0.809E-01  0.451E-01  0.451E-01
   6.810  0.180E+00  0.849E-01  0.474E-01  0.474E-01
   6.820  0.184E+00  0.864E-01  0.490E-01  0.490E-01
   6.830  0.185E+00  0.852E-01  0.499E-01  0.499E-01
   6.840  0.182E+00  0.820E-01  0.500E-01  0.500E-01
   6.850  0.176E+00  0.774E-01  0.493E-01  0.493E-01
   6.860  0.168E+00  0.723E-01  0.478E-01  0.478E-01
   6.870  0.159E+00  0.674E-01  0.458E-01  0.458E-01
   6.880  0.150E+00  0.632E-01  0.435E-01  0.435E-01
   6.890  0.142E+00  0.599E-01  0.411E-01  0.411E-01
   6.900  0.135E+00  0.571E-01  0.388E-01  0.388E-01
   6.910  0.128E+00  0.545E-01  0.367E-01  0.367E-01
   6.920  0.122E+00  0.518E-01  0.351E-01  0.351E-01
   6.930  0.117E+00  0.489E-01  0.342E-01  0.342E-01
   6.940  0.114E+00  0.461E-01  0.340E-01  0.340E-01
   6.950  0.113E+00  0.438E-01  0.347E-01  0.347E-01
   6.960  0.115E+00  0.427E-01  0.362E-01  0.362E-01
   6.970  0.121E+00  0.436E-01  0.385E-01  0.385E-01
   6.980  0.130E+00  0.469E-01  0.414E-01  0.414E-01
   6.990  0.142E+00  0.528E-01  0.447E-01  0.447E-01
   7.000  0.157E+00  0.610E-01  0.482E-01  0.482E-01
   7.010  0.174E+00  0.706E-01  0.516E-01  0.516E-01
   7.020  0.190E+00  0.806E-01  0.547E-01  0.547E-01
   7.030  0.205E+00  0.898E-01  0.576E-01  0.576E-01
   7.040  0.217E+00  0.974E-01  0.600E-01  0.600E-01
   7.050  0.226E+00  0.102E+00  0.618E-01  0.618E-01
   7.060  0.231E+00  0.105E+00  0.631E-01  0.631E-01
   7.070  0.232E+00  0.105E+00  0.639E-01  0.639E-01
   7.080  0.230E+00  0.102E+00  0.640E-01  0.640E-01
   7.090  0.225E+00  0.974E-01  0.637E-01  0.637E-01
   7.100  0.217E+00  0.915E-01  0.628E-01  0.628E-01
   7.110  0.208E+00  0.846E-01  0.615E-01  0.615E-01
   7.120  0.197E+00  0.773E-01  0.598E-01  0.598E-01
   7.130  0.186E+00  0.699E-01  0.580E-01  0.580E-01
   7.140  0.175E+00  0.629E-01  0.562E-01  0.562E-01
   7.150  0.166E+00  0.565E-01  0.545E-01  0.545E-01
   7.160  0.157E+00  0.511E-01  0.532E-01  0.532E-01
   7.170  0.151E+00  0.467E-01  0.523E-01  0.523E-01
   7.180  0.148E+00  0.435E-01  0.521E-01  0.521E-01
   7.190  0.146E+00  0.414E-01  0.525E-01  0.525E-01
   7.200  0.148E+00  0.405E-01  0.537E-01  0.537E-01
   7.210  0.152E+00  0.407E-01  0.558E-01  0.558E-01
   7.220  0.159E+00  0.421E-01  0.587E-01  0.587E-01
   7.230  0.169E+00  0.446E-01  0.624E-01  0.624E-01
   7.240  0.182E+00  0.480E-01  0.669E-01  0.669E-01
   7.250  0.196E+00  0.518E-01  0.721E-01  0.721E-01
   7.260  0.211E+00  0.555E-01  0.779E-01  0.779E-01
   7.270  0.227E+00  0.584E-01  0.842E-01  0.842E-01
   7.280  0.242E+00  0.599E-01  0.910E-01  0.910E-01
   7.290  0.256E+00  0.596E-01  0.983E-01  0.983E-01
   7.300  0.270E+00  0.577E-01  0.106E+00  0.106E+00
   7.310  0.284E+00  0.546E-01  0.115E+00  0.115E+00
   7.320  0.301E+00  0.512E-01  0.125E+00  0.125E+00
   7.330  0.320E+00  0.484E-01  0.136E+00  0.136E+00
   7.340  0.345E+00  0.475E-01  0.149E+00  0.149E+00
   7.350  0.374E+00  0.491E-01  0.163E+00  0.163E+00
   7.360  0.409E+00  0.537E-01  0.178E+00  0.178E+00
   7.370  0.448E+00  0.612E-01  0.193E+00  0.193E+00
   7.380  0.488E+00  0.709E-01  0.209E+00  0.209E+00
   7.390  0.528E+00  0.818E-01  0.223E+00  0.223E+00
   7.400  0.564E+00  0.924E-01  0.236E+00  0.236E+00
   7.410  0.595E+00  0.101E+00  0.247E+00  0.247E+00
   7.420  0.617E+00  0.107E+00  0.255E+00  0.255E+00
   7.430  0.630E+00  0.110E+00  0.260E+00  0.260E+00
   7.440  0.632E+00  0.107E+00  0.262E+00  0.262E+00
   7.450  0.624E+00  0.101E+00  0.262E+00  0.262E+00
   7.460  0.607E+00  0.906E-01  0.258E+00  0.258E+00
   7.470  0.582E+00  0.779E-01  0.252E+00  0.252E+00
   7.480  0.552E+00  0.642E-01  0.244E+00  0.244E+00
   7.490  0.518E+00  0.511E-01  0.234E+00  0.234E+00
   7.500  0.483E+00  0.401E-01  0.222E+00  0.222E+00
   7.510  0.449E+00  0.321E-01  0.209E+00  0.209E+00
   7.520  0.418E+00  0.277E-01  0.195E+00  0.195E+00
   7.530  0.391E+00  0.268E-01  0.182E+00  0.182E+00
   7.540  0.368E+00  0.287E-01  0.170E+00  0.170E+00
   7.550  0.350E+00  0.327E-01  0.159E+00  0.159E+00
   7.560  0.336E+00  0.377E-01  0.149E+00  0.149E+00
   7.570  0.326E+00  0.430E-01  0.142E+00  0.142E+00
   7.580  0.320E+00  0.480E-01  0.136E+00  0.136E+00
   7.590  0.317E+00  0.523E-01  0.132E+00  0.132E+00
   7.600  0.316E+00  0.560E-01  0.130E+00  0.130E+00
   7.610  0.315E+00  0.589E-01  0.128E+00  0.128E+00
   7.620  0.315E+00  0.610E-01  0.127E+00  0.127E+00
   7.630  0.313E+00  0.624E-01  0.125E+00  0.125E+00
   7.640  0.310E+00  0.629E-01  0.123E+00  0.123E+00
   7.650  0.304E+00  0.626E-01  0.121E+00  0.121E+00
   7.660  0.297E+00  0.616E-01  0.118E+00  0.118E+00
   7.670  0.290E+00  0.600E-01  0.115E+00  0.115E+00
   7.680  0.282E+00  0.582E-01  0.112E+00  0.112E+00
   7.690  0.276E+00  0.567E-01  0.110E+00  0.110E+00
   7.700  0.271E+00  0.558E-01  0.108E+00  0.108E+00
   7.710  0.268E+00  0.559E-01  0.106E+00  0.106E+00
   7.720  0.266E+00  0.573E-01  0.104E+00  0.104E+00
   7.730  0.265E+00  0.601E-01  0.102E+00  0.102E+00
   7.740  0.263E+00  0.640E-01  0.996E-01  0.996E-01
   7.750  0.261E+00  0.688E-01  0.959E-01  0.959E-01
   7.760  0.257E+00  0.739E-01  0.916E-01  0.916E-01
   7.770  0.253E+00  0.787E-01  0.872E-01  0.872E-01
   7.780  0.249E+00  0.826E-01  0.832E-01  0.832E-01
   7.790  0.246E+00  0.849E-01  0.805E-01  0.805E-01
   7.800  0.244E+00  0.853E-01  0.794E-01  0.794E-01
   7.810  0.244E+00  0.834E-01  0.802E-01  0.802E-01
   7.820  0.245E+00  0.793E-01  0.827E-01  0.827E-01
   7.830  0.246E+00  0.732E-01  0.866E-01  0.866E-01
   7.840  0.248E+00  0.656E-01  0.910E-01  0.910E-01
   7.850  0.248E+00  0.572E-01  0.953E-01  0.953E-01
   7.860  0.246E+00  0.488E-01  0.985E-01  0.985E-01
   7.870  0.241E+00  0.412E-01  0.100E+00  0.100E+00
   7.880  0.234E+00  0.350E-01  0.994E-01  0.994E-01
   7.890  0.224E+00  0.307E-01  0.964E-01  0.964E-01
   7.900  0.211E+00  0.286E-01  0.912E-01  0.912E-01
   7.910  0.197E+00  0.284E-01  0.842E-01  0.842E-01
   7.920  0.182E+00  0.299E-01  0.759E-01  0.759E-01
   7.930  0.167E+00  0.325E-01  0.674E-01  0.674E-01
   7.940  0.155E+00  0.358E-01  0.596E-01  0.596E-01
   7.950  0.146E+00  0.393E-01  0.535E-01  0.535E-01
   7.960  0.143E+00  0.429E-01  0.501E-01  0.501E-01
   7.970  0.146E+00  0.468E-01  0.498E-01  0.498E-01
   7.980  0.157E+00  0.511E-01  0.531E-01  0.531E-01
   7.990  0.176E+00  0.562E-01  0.597E-01  0.597E-01
   8.000  0.200E+00  0.621E-01  0.691E-01  0.691E-01
   8.010  0.229E+00  0.688E-01  0.801E-01  0.801E-01
   8.020  0.259E+00  0.757E-01  0.916E-01  0.916E-01
   8.030  0.286E+00  0.819E-01  0.102E+00  0.102E+00
   8.040  0.308E+00  0.868E-01  0.110E+00  0.110E+00
   8.050  0.320E+00  0.895E-01  0.115E+00  0.115E+00
   8.060  0.322E+00  0.897E-01  0.116E+00  0.116E+00
   8.070  0.314E+00  0.874E-01  0.113E+00  0.113E+00
   8.080  0.295E+00  0.830E-01  0.106E+00  0.106E+00
   8.090  0.270E+00  0.772E-01  0.964E-01  0.964E-01
   8.100  0.240E+00  0.706E-01  0.848E-01  0.848E-01
   8.110  0.209E+00  0.639E-01  0.726E-01  0.726E-01
   8.120  0.180E+00  0.578E-01  0.609E-01  0.609E-01
   8.130  0.154E+00  0.526E-01  0.508E-01  0.508E-01
   8.140  0.135E+00  0.485E-01  0.431E-01  0.431E-01
   8.150  0.122E+00  0.457E-01  0.380E-01  0.380E-01
   8.160  0.115E+00  0.440E-01  0.357E-01  0.357E-01
   8.170  0.115E+00  0.432E-01  0.359E-01  0.359E-01
   8.180  0.119E+00  0.428E-01  0.383E-01  0.383E-01
   8.190  0.127E+00  0.425E-01  0.424E-01  0.424E-01
   8.200  0.137E+00  0.420E-01  0.476E-01  0.476E-01
   8.210  0.148E+00  0.411E-01  0.534E-01  0.534E-01
   8.220  0.159E+00  0.401E-01  0.593E-01  0.593E-01
   8.230  0.169E+00  0.391E-01  0.650E-01  0.650E-01
   8.240  0.178E+00  0.384E-01  0.700E-01  0.700E-01
   8.250  0.187E+00  0.384E-01  0.744E-01  0.744E-01
   8.260  0.195E+00  0.392E-01  0.778E-01  0.778E-01
   8.270  0.202E+00  0.409E-01  0.804E-01  0.804E-01
   8.280  0.207E+00  0.434E-01  0.820E-01  0.820E-01
   8.290  0.212E+00  0.466E-01  0.827E-01  0.827E-01
   8.300  0.215E+00  0.505E-01  0.825E-01  0.825E-01
   8.310  0.218E+00  0.551E-01  0.815E-01  0.815E-01
   8.320  0.220E+00  0.604E-01  0.798E-01  0.798E-01
   8.330  0.221E+00  0.666E-01  0.774E-01  0.774E-01
   8.340  0.222E+00  0.732E-01  0.745E-01  0.745E-01
   8.350  0.222E+00  0.799E-01  0.711E-01  0.711E-01
   8.360  0.221E+00  0.859E-01  0.675E-01  0.675E-01
   8.370  0.218E+00  0.901E-01  0.638E-01  0.638E-01
   8.380  0.212E+00  0.916E-01  0.601E-01  0.601E-01
   8.390  0.203E+00  0.898E-01  0.567E-01  0.567E-01
   8.400  0.191E+00  0.843E-01  0.536E-01  0.536E-01
   8.410  0.177E+00  0.756E-01  0.509E-01  0.509E-01
   8.420  0.162E+00  0.643E-01  0.487E-01  0.487E-01
   8.430  0.146E+00  0.518E-01  0.472E-01  0.472E-01
   8.440  0.132E+00  0.394E-01  0.465E-01  0.465E-01
   8.450  0.122E+00  0.284E-01  0.467E-01  0.467E-01
   8.460  0.116E+00  0.199E-01  0.480E-01  0.480E-01
   8.470  0.115E+00  0.145E-01  0.504E-01  0.504E-01
   8.480  0.120E+00  0.126E-01  0.536E-01  0.536E-01
   8.490  0.129E+00  0.141E-01  0.574E-01  0.574E-01
   8.500  0.141E+00  0.183E-01  0.611E-01  0.611E-01
   8.510  0.154E+00  0.246E-01  0.645E-01  0.645E-01
   8.520  0.166E+00  0.321E-01  0.671E-01  0.671E-01
   8.530  0.177E+00  0.399E-01  0.687E-01  0.687E-01
   8.540  0.186E+00  0.472E-01  0.693E-01  0.693E-01
   8.550  0.192E+00  0.535E-01  0.691E-01  0.691E-01
   8.560  0.195E+00  0.585E-01  0.682E-01  0.682E-01
   8.570  0.196E+00  0.623E-01  0.670E-01  0.670E-01
   8.580  0.196E+00  0.649E-01  0.655E-01  0.655E-01
   8.590  0.195E+00  0.667E-01  0.639E-01  0.639E-01
   8.600  0.193E+00  0.682E-01  0.623E-01  0.623E-01
   8.610  0.191E+00  0.694E-01  0.608E-01  0.608E-01
   8.620  0.190E+00  0.708E-01  0.596E-01  0.596E-01
   8.630  0.190E+00  0.722E-01  0.587E-01  0.587E-01
   8.640  0.190E+00  0.738E-01  0.581E-01  0.581E-01
   8.650  0.191E+00  0.753E-01  0.578E-01  0.578E-01
   8.660  0.192E+00  0.767E-01  0.575E-01  0.575E-01
   8.670  0.191E+00  0.777E-01  0.567E-01  0.567E-01
   8.680  0.189E+00  0.779E-01  0.554E-01  0.554E-01
   8.690  0.183E+00  0.770E-01  0.531E-01  0.531E-01
   8.700  0.175E+00  0.747E-01  0.501E-01  0.501E-01
   8.710  0.164E+00  0.707E-01  0.465E-01  0.465E-01
   8.720  0.151E+00  0.651E-01  0.430E-01  0.430E-01
   8.730  0.138E+00  0.580E-01  0.400E-01  0.400E-01
   8.740  0.126E+00  0.500E-01  0.383E-01  0.383E-01
   8.750  0.118E+00  0.417E-01  0.381E-01  0.381E-01
   8.760  0.113E+00  0.341E-01  0.397E-01  0.397E-01
   8.770  0.114E+00  0.279E-01  0.429E-01  0.429E-01
   8.780  0.118E+00  0.238E-01  0.473E-01  0.473E-01
   8.790  0.127E+00  0.223E-01  0.523E-01  0.523E-01
   8.800  0.138E+00  0.234E-01  0.572E-01  0.572E-01
   8.810  0.150E+00  0.269E-01  0.613E-01  0.613E-01
   8.820  0.161E+00  0.323E-01  0.641E-01  0.641E-01
   8.830  0.170E+00  0.389E-01  0.654E-01  0.654E-01
   8.840  0.177E+00  0.458E-01  0.654E-01  0.654E-01
   8.850  0.182E+00  0.526E-01  0.645E-01  0.645E-01
   8.860  0.185E+00  0.588E-01  0.632E-01  0.632E-01
   8.870  0.188E+00  0.641E-01  0.620E-01  0.620E-01
   8.880  0.191E+00  0.687E-01  0.614E-01  0.614E-01
   8.890  0.195E+00  0.724E-01  0.614E-01  0.614E-01
   8.900  0.199E+00  0.752E-01  0.620E-01  0.620E-01
   8.910  0.203E+00  0.770E-01  0.628E-01  0.628E-01
   8.920  0.204E+00  0.777E-01  0.634E-01  0.634E-01
   8.930  0.204E+00  0.768E-01  0.634E-01  0.634E-01
   8.940  0.199E+00  0.744E-01  0.625E-01  0.625E-01
   8.950  0.192E+00  0.705E-01  0.608E-01  0.608E-01
   8.960  0.182E+00  0.654E-01  0.583E-01  0.583E-01
   8.970  0.170E+00  0.596E-01  0.552E-01  0.552E-01
   8.980  0.158E+00  0.538E-01  0.521E-01  0.521E-01
   8.990  0.146E+00  0.484E-01  0.490E-01  0.490E-01
   9.000  0.136E+00  0.439E-01  0.462E-01  0.462E-01
   9.010  0.128E+00  0.404E-01  0.440E-01  0.440E-01
   9.020  0.122E+00  0.378E-01  0.423E-01  0.423E-01
   9.030  0.118E+00  0.358E-01  0.413E-01  0.413E-01
   9.040  0.116E+00  0.342E-01  0.410E-01  0.410E-01
   9.050  0.115E+00  0.329E-01  0.411E-01  0.411E-01
   9.060  0.116E+00  0.320E-01  0.418E-01  0.418E-01
   9.070  0.117E+00  0.318E-01  0.426E-01  0.426E-01
   9.080  0.120E+00  0.327E-01  0.435E-01  0.435E-01
   9.090  0.123E+00  0.351E-01  0.441E-01  0.441E-01
   9.100  0.128E+00  0.390E-01  0.445E-01  0.445E-01
   9.110  0.134E+00  0.446E-01  0.446E-01  0.446E-01
   9.120  0.140E+00  0.512E-01  0.445E-01  0.445E-01
   9.130  0.147E+00  0.585E-01  0.444E-01  0.444E-01
   9.140  0.155E+00  0.656E-01  0.448E-01  0.448E-01
   9.150  0.164E+00  0.719E-01  0.459E-01  0.459E-01
   9.160  0.172E+00  0.765E-01  0.480E-01  0.480E-01
   9.170  0.181E+00  0.790E-01  0.511E-01  0.511E-01
   9.180  0.189E+00  0.790E-01  0.551E-01  0.551E-01
   9.190  0.195E+00  0.762E-01  0.596E-01  0.596E-01
   9.200  0.199E+00  0.709E-01  0.640E-01  0.640E-01
   9.210  0.199E+00  0.636E-01  0.677E-01  0.677E-01
   9.220  0.195E+00  0.550E-01  0.700E-01  0.700E-01
   9.230  0.188E+00  0.463E-01  0.706E-01  0.706E-01
   9.240  0.177E+00  0.386E-01  0.692E-01  0.692E-01
   9.250  0.165E+00  0.327E-01  0.660E-01  0.660E-01
   9.260  0.152E+00  0.292E-01  0.614E-01  0.614E-01
   9.270  0.140E+00  0.282E-01  0.560E-01  0.560E-01
   9.280  0.131E+00  0.293E-01  0.507E-01  0.507E-01
   9.290  0.124E+00  0.318E-01  0.461E-01  0.461E-01
   9.300  0.121E+00  0.352E-01  0.429E-01  0.429E-01
   9.310  0.122E+00  0.387E-01  0.415E-01  0.415E-01
   9.320  0.125E+00  0.421E-01  0.416E-01  0.416E-01
   9.330  0.132E+00  0.454E-01  0.431E-01  0.431E-01
   9.340  0.140E+00  0.487E-01  0.454E-01  0.454E-01
   9.350  0.148E+00  0.524E-01  0.478E-01  0.478E-01
   9.360  0.156E+00  0.563E-01  0.499E-01  0.499E-01
   9.370  0.163E+00  0.603E-01  0.512E-01  0.512E-01
   9.380  0.168E+00  0.640E-01  0.518E-01  0.518E-01
   9.390  0.170E+00  0.666E-01  0.516E-01  0.516E-01
   9.400  0.170E+00  0.675E-01  0.511E-01  0.511E-01
   9.410  0.167E+00  0.664E-01  0.503E-01  0.503E-01
   9.420  0.162E+00  0.631E-01  0.495E-01  0.495E-01
   9.430  0.156E+00  0.581E-01  0.489E-01  0.489E-01
   9.440  0.148E+00  0.518E-01  0.482E-01  0.482E-01
   9.450  0.140E+00  0.454E-01  0.473E-01  0.473E-01
   9.460  0.132E+00  0.397E-01  0.462E-01  0.462E-01
   9.470  0.125E+00  0.355E-01  0.447E-01  0.447E-01
   9.480  0.119E+00  0.333E-01  0.431E-01  0.431E-01
   9.490  0.116E+00  0.331E-01  0.414E-01  0.414E-01
   9.500  0.115E+00  0.347E-01  0.401E-01  0.401E-01
   9.510  0.117E+00  0.375E-01  0.395E-01  0.395E-01
   9.520  0.121E+00  0.410E-01  0.400E-01  0.400E-01
   9.530  0.128E+00  0.445E-01  0.417E-01  0.417E-01
   9.540  0.137E+00  0.476E-01  0.448E-01  0.448E-01
   9.550  0.148E+00  0.499E-01  0.489E-01  0.489E-01
   9.560  0.159E+00  0.515E-01  0.539E-01  0.539E-01
   9.570  0.171E+00  0.524E-01  0.591E-01  0.591E-01
   9.580  0.181E+00  0.528E-01  0.639E-01  0.639E-01
   9.590  0.189E+00  0.530E-01  0.678E-01  0.678E-01
   9.600  0.193E+00  0.531E-01  0.702E-01  0.702E-01
   9.610  0.195E+00  0.533E-01  0.706E-01  0.706E-01
   9.620  0.192E+00  0.538E-01  0.689E-01  0.689E-01
   9.630  0.185E+00  0.543E-01  0.652E-01  0.652E-01
   9.640  0.174E+00  0.548E-01  0.598E-01  0.598E-01
   9.650  0.162E+00  0.551E-01  0.535E-01  0.535E-01
   9.660  0.149E+00  0.549E-01  0.469E-01  0.469E-01
   9.670  0.136E+00  0.541E-01  0.411E-01  0.411E-01
   9.680  0.126E+00  0.526E-01  0.369E-01  0.369E-01
   9.690  0.120E+00  0.504E-01  0.346E-01  0.346E-01
   9.700  0.117E+00  0.479E-01  0.345E-01  0.345E-01
   9.710  0.118E+00  0.455E-01  0.365E-01  0.365E-01
   9.720  0.123E+00  0.436E-01  0.399E-01  0.399E-01
   9.730  0.131E+00  0.429E-01  0.440E-01  0.440E-01
   9.740  0.140E+00  0.436E-01  0.480E-01  0.480E-01
   9.750  0.148E+00  0.459E-01  0.512E-01  0.512E-01
   9.760  0.156E+00  0.494E-01  0.532E-01  0.532E-01
   9.770  0.161E+00  0.536E-01  0.537E-01  0.537E-01
   9.780  0.164E+00  0.578E-01  0.531E-01  0.531E-01
   9.790  0.165E+00  0.613E-01  0.516E-01  0.516E-01
   9.800  0.163E+00  0.632E-01  0.500E-01  0.500E-01
   9.810  0.160E+00  0.634E-01  0.486E-01  0.486E-01
   9.820  0.157E+00  0.616E-01  0.477E-01  0.477E-01
   9.830  0.154E+00  0.584E-01  0.476E-01  0.476E-01
   9.840  0.150E+00  0.541E-01  0.480E-01  0.480E-01
   9.850  0.147E+00  0.496E-01  0.487E-01  0.487E-01
   9.860  0.144E+00  0.453E-01  0.494E-01  0.494E-01
   9.870  0.142E+00  0.419E-01  0.498E-01  0.498E-01
   9.880  0.140E+00  0.396E-01  0.501E-01  0.501E-01
   9.890  0.139E+00  0.383E-01  0.503E-01  0.503E-01
   9.900  0.139E+00  0.378E-01  0.508E-01  0.508E-01
   9.910  0.141E+00  0.377E-01  0.518E-01  0.518E-01
   9.920  0.145E+00  0.375E-01  0.535E-01  0.535E-01
   9.930  0.149E+00  0.368E-01  0.559E-01  0.559E-01
   9.940  0.153E+00  0.352E-01  0.587E-01  0.587E-01
   9.950  0.156E+00  0.326E-01  0.615E-01  0.615E-01
   9.960  0.157E+00  0.289E-01  0.639E-01  0.639E-01
   9.970  0.155E+00  0.242E-01  0.656E-01  0.656E-01
   9.980  0.152E+00  0.190E-01  0.665E-01  0.665E-01
   9.990  0.147E+00  0.138E-01  0.664E-01  0.664E-01
  10.000  0.140E+00  0.884E-02  0.655E-01  0.655E-01
  10.010  0.133E+00  0.468E-02  0.639E-01  0.639E-01
  10.020  0.125E+00  0.151E-02  0.619E-01  0.619E-01
  10.030  0.118E+00 -0.567E-03  0.594E-01  0.594E-01
  10.040  0.111E+00 -0.164E-02  0.564E-01  0.564E-01
  10.050  0.104E+00 -0.189E-02  0.530E-01  0.530E-01
  10.060  0.970E-01 -0.157E-02  0.493E-01  0.493E-01
  10.070  0.895E-01 -0.934E-03  0.452E-01  0.452E-01
  10.080  0.820E-01 -0.189E-03  0.411E-01  0.411E-01
  10.090  0.752E-01  0.517E-03  0.373E-01  0.373E-01
  10.100  0.696E-01  0.110E-02  0.342E-01  0.342E-01
  10.110  0.658E-01  0.154E-02  0.321E-01  0.321E-01
  10.120  0.644E-01  0.186E-02  0.313E-01  0.313E-01
  10.130  0.654E-01  0.208E-02  0.317E-01  0.317E-01
  10.140  0.686E-01  0.224E-02  0.332E-01  0.332E-01
  10.150  0.735E-01  0.238E-02  0.355E-01  0.355E-01
  10.160  0.793E-01  0.250E-02  0.384E-01  0.384E-01
  10.170  0.851E-01  0.261E-02  0.413E-01  0.413E-01
  10.180  0.905E-01  0.271E-02  0.439E-01  0.439E-01
  10.190  0.949E-01  0.276E-02  0.461E-01  0.461E-01
  10.200  0.985E-01  0.277E-02  0.479E-01  0.479E-01
  10.210  0.102E+00  0.272E-02  0.496E-01  0.496E-01
  10.220  0.106E+00  0.262E-02  0.517E-01  0.517E-01
  10.230  0.112E+00  0.249E-02  0.546E-01  0.546E-01
  10.240  0.120E+00  0.234E-02  0.587E-01  0.587E-01
  10.250  0.130E+00  0.220E-02  0.641E-01  0.641E-01
  10.260  0.143E+00  0.209E-02  0.705E-01  0.705E-01
  10.270  0.156E+00  0.204E-02  0.772E-01  0.772E-01
  10.280  0.168E+00  0.205E-02  0.830E-01  0.830E-01
  10.290  0.176E+00  0.212E-02  0.870E-01  0.870E-01
  10.300  0.178E+00  0.223E-02  0.881E-01  0.881E-01
  10.310  0.174E+00  0.236E-02  0.857E-01  0.857E-01
  10.320  0.162E+00  0.248E-02  0.798E-01  0.798E-01
  10.330  0.145E+00  0.257E-02  0.710E-01  0.710E-01
  10.340  0.123E+00  0.262E-02  0.603E-01  0.603E-01
  10.350  0.101E+00  0.262E-02  0.491E-01  0.491E-01
  10.360  0.798E-01  0.258E-02  0.386E-01  0.386E-01
  10.370  0.626E-01  0.252E-02  0.300E-01  0.300E-01
  10.380  0.504E-01  0.245E-02  0.240E-01  0.240E-01
  10.390  0.436E-01  0.239E-02  0.206E-01  0.206E-01
  10.400  0.417E-01  0.235E-02  0.196E-01  0.196E-01
  10.410  0.434E-01  0.234E-02  0.205E-01  0.205E-01
  10.420  0.474E-01  0.235E-02  0.225E-01  0.225E-01
  10.430  0.522E-01  0.238E-02  0.249E-01  0.249E-01
  10.440  0.569E-01  0.240E-02  0.273E-01  0.273E-01
  10.450  0.608E-01  0.242E-02  0.292E-01  0.292E-01
  10.460  0.637E-01  0.242E-02  0.306E-01  0.306E-01
  10.470  0.656E-01  0.241E-02  0.316E-01  0.316E-01
  10.480  0.667E-01  0.238E-02  0.322E-01  0.322E-01
  10.490  0.670E-01  0.234E-02  0.323E-01  0.323E-01
  10.500  0.667E-01  0.229E-02  0.322E-01  0.322E-01
  10.510  0.658E-01  0.225E-02  0.318E-01  0.318E-01
  10.520  0.645E-01  0.220E-02  0.312E-01  0.312E-01
  10.530  0.632E-01  0.216E-02  0.305E-01  0.305E-01
  10.540  0.624E-01  0.211E-02  0.302E-01  0.302E-01
  10.550  0.628E-01  0.207E-02  0.304E-01  0.304E-01
  10.560  0.648E-01  0.202E-02  0.314E-01  0.314E-01
  10.570  0.690E-01  0.197E-02  0.335E-01  0.335E-01
  10.580  0.754E-01  0.193E-02  0.367E-01  0.367E-01
  10.590  0.839E-01  0.189E-02  0.410E-01  0.410E-01
  10.600  0.940E-01  0.187E-02  0.461E-01  0.461E-01
  10.610  0.105E+00  0.187E-02  0.516E-01  0.516E-01
  10.620  0.116E+00  0.190E-02  0.572E-01  0.572E-01
  10.630  0.127E+00  0.196E-02  0.627E-01  0.627E-01
  10.640  0.137E+00  0.203E-02  0.677E-01  0.677E-01
  10.650  0.146E+00  0.211E-02  0.720E-01  0.720E-01
  10.660  0.153E+00  0.219E-02  0.756E-01  0.756E-01
  10.670  0.159E+00  0.226E-02  0.783E-01  0.783E-01
  10.680  0.162E+00  0.230E-02  0.799E-01  0.799E-01
  10.690  0.163E+00  0.230E-02  0.803E-01  0.803E-01
  10.700  0.161E+00  0.228E-02  0.791E-01  0.791E-01
  10.710  0.155E+00  0.223E-02  0.763E-01  0.763E-01
  10.720  0.146E+00  0.216E-02  0.718E-01  0.718E-01
  10.730  0.134E+00  0.208E-02  0.657E-01  0.657E-01
  10.740  0.119E+00  0.203E-02  0.586E-01  0.586E-01
  10.750  0.104E+00  0.201E-02  0.511E-01  0.511E-01
  10.760  0.898E-01  0.203E-02  0.439E-01  0.439E-01
  10.770  0.773E-01  0.211E-02  0.376E-01  0.376E-01
  10.780  0.677E-01  0.224E-02  0.327E-01  0.327E-01
  10.790  0.614E-01  0.243E-02  0.295E-01  0.295E-01
  10.800  0.581E-01  0.266E-02  0.277E-01  0.277E-01
  10.810  0.573E-01  0.291E-02  0.272E-01  0.272E-01
  10.820  0.580E-01  0.316E-02  0.274E-01  0.274E-01
  10.830  0.592E-01  0.339E-02  0.279E-01  0.279E-01
  10.840  0.603E-01  0.359E-02  0.283E-01  0.283E-01
  10.850  0.607E-01  0.373E-02  0.285E-01  0.285E-01
  10.860  0.604E-01  0.382E-02  0.283E-01  0.283E-01
  10.870  0.595E-01  0.385E-02  0.278E-01  0.278E-01
  10.880  0.584E-01  0.383E-02  0.273E-01  0.273E-01
  10.890  0.575E-01  0.377E-02  0.269E-01  0.269E-01
  10.900  0.574E-01  0.369E-02  0.269E-01  0.269E-01
  10.910  0.585E-01  0.360E-02  0.274E-01  0.274E-01
  10.920  0.609E-01  0.351E-02  0.287E-01  0.287E-01
  10.930  0.648E-01  0.345E-02  0.307E-01  0.307E-01
  10.940  0.701E-01  0.342E-02  0.333E-01  0.333E-01
  10.950  0.764E-01  0.341E-02  0.365E-01  0.365E-01
  10.960  0.835E-01  0.342E-02  0.400E-01  0.400E-01
  10.970  0.906E-01  0.344E-02  0.436E-01  0.436E-01
  10.980  0.974E-01  0.343E-02  0.470E-01  0.470E-01
  10.990  0.103E+00  0.340E-02  0.500E-01  0.500E-01
  11.000  0.109E+00  0.331E-02  0.527E-01  0.527E-01
  11.010  0.113E+00  0.318E-02  0.550E-01  0.550E-01
  11.020  0.117E+00  0.300E-02  0.570E-01  0.570E-01
  11.030  0.121E+00  0.278E-02  0.589E-01  0.589E-01
  11.040  0.124E+00  0.254E-02  0.610E-01  0.610E-01
  11.050  0.129E+00  0.232E-02  0.631E-01  0.631E-01
  11.060  0.133E+00  0.212E-02  0.654E-01  0.654E-01
  11.070  0.137E+00  0.197E-02  0.677E-01  0.677E-01
  11.080  0.141E+00  0.189E-02  0.696E-01  0.696E-01
  11.090  0.144E+00  0.189E-02  0.711E-01  0.711E-01
  11.100  0.145E+00  0.195E-02  0.716E-01  0.716E-01
  11.110  0.144E+00  0.206E-02  0.709E-01  0.709E-01
  11.120  0.140E+00  0.218E-02  0.688E-01  0.688E-01
  11.130  0.133E+00  0.230E-02  0.653E-01  0.653E-01
  11.140  0.123E+00  0.237E-02  0.603E-01  0.603E-01
  11.150  0.111E+00  0.239E-02  0.544E-01  0.544E-01
  11.160  0.981E-01  0.236E-02  0.478E-01  0.478E-01
  11.170  0.851E-01  0.228E-02  0.414E-01  0.414E-01
  11.180  0.736E-01  0.219E-02  0.357E-01  0.357E-01
  11.190  0.646E-01  0.210E-02  0.312E-01  0.312E-01
  11.200  0.590E-01  0.205E-02  0.285E-01  0.285E-01
  11.210  0.571E-01  0.205E-02  0.275E-01  0.275E-01
  11.220  0.586E-01  0.211E-02  0.283E-01  0.283E-01
  11.230  0.629E-01  0.222E-02  0.303E-01  0.303E-01
  11.240  0.687E-01  0.237E-02  0.332E-01  0.332E-01
  11.250  0.748E-01  0.252E-02  0.362E-01  0.362E-01
  11.260  0.799E-01  0.265E-02  0.386E-01  0.386E-01
  11.270  0.831E-01  0.274E-02  0.402E-01  0.402E-01
  11.280  0.839E-01  0.276E-02  0.406E-01  0.406E-01
  11.290  0.824E-01  0.270E-02  0.399E-01  0.399E-01
  11.300  0.792E-01  0.258E-02  0.383E-01  0.383E-01
  11.310  0.750E-01  0.240E-02  0.363E-01  0.363E-01
  11.320  0.707E-01  0.218E-02  0.342E-01  0.342E-01
  11.330  0.669E-01  0.195E-02  0.325E-01  0.325E-01
  11.340  0.640E-01  0.174E-02  0.311E-01  0.311E-01
  11.350  0.623E-01  0.156E-02  0.304E-01  0.304E-01
  11.360  0.616E-01  0.142E-02  0.301E-01  0.301E-01
  11.370  0.620E-01  0.135E-02  0.303E-01  0.303E-01
  11.380  0.633E-01  0.133E-02  0.310E-01  0.310E-01
  11.390  0.657E-01  0.135E-02  0.322E-01  0.322E-01
  11.400  0.691E-01  0.141E-02  0.338E-01  0.338E-01
  11.410  0.736E-01  0.149E-02  0.360E-01  0.360E-01
  11.420  0.790E-01  0.157E-02  0.387E-01  0.387E-01
  11.430  0.850E-01  0.164E-02  0.417E-01  0.417E-01
  11.440  0.913E-01  0.170E-02  0.448E-01  0.448E-01
  11.450  0.971E-01  0.173E-02  0.477E-01  0.477E-01
  11.460  0.102E+00  0.176E-02  0.502E-01  0.502E-01
  11.470  0.106E+00  0.179E-02  0.522E-01  0.522E-01
  11.480  0.109E+00  0.184E-02  0.536E-01  0.536E-01
  11.490  0.111E+00  0.190E-02  0.545E-01  0.545E-01
  11.500  0.112E+00  0.201E-02  0.551E-01  0.551E-01
  11.510  0.113E+00  0.214E-02  0.555E-01  0.555E-01
  11.520  0.115E+00  0.231E-02  0.561E-01  0.561E-01
  11.530  0.117E+00  0.249E-02  0.571E-01  0.571E-01
  11.540  0.120E+00  0.269E-02  0.584E-01  0.584E-01
  11.550  0.123E+00  0.287E-02  0.601E-01  0.601E-01
  11.560  0.127E+00  0.303E-02  0.618E-01  0.618E-01
  11.570  0.130E+00  0.313E-02  0.633E-01  0.633E-01
  11.580  0.131E+00  0.317E-02  0.641E-01  0.641E-01
  11.590  0.131E+00  0.315E-02  0.639E-01  0.639E-01
  11.600  0.128E+00  0.305E-02  0.625E-01  0.625E-01
  11.610  0.123E+00  0.289E-02  0.598E-01  0.598E-01
  11.620  0.115E+00  0.268E-02  0.562E-01  0.562E-01
  11.630  0.106E+00  0.246E-02  0.519E-01  0.519E-01
  11.640  0.971E-01  0.225E-02  0.474E-01  0.474E-01
  11.650  0.887E-01  0.208E-02  0.433E-01  0.433E-01
  11.660  0.819E-01  0.198E-02  0.400E-01  0.400E-01
  11.670  0.772E-01  0.196E-02  0.376E-01  0.376E-01
  11.680  0.746E-01  0.203E-02  0.363E-01  0.363E-01
  11.690  0.738E-01  0.216E-02  0.358E-01  0.358E-01
  11.700  0.745E-01  0.234E-02  0.361E-01  0.361E-01
  11.710  0.758E-01  0.254E-02  0.366E-01  0.366E-01
  11.720  0.771E-01  0.272E-02  0.372E-01  0.372E-01
  11.730  0.779E-01  0.287E-02  0.375E-01  0.375E-01
  11.740  0.778E-01  0.297E-02  0.374E-01  0.374E-01
  11.750  0.766E-01  0.303E-02  0.368E-01  0.368E-01
  11.760  0.745E-01  0.308E-02  0.357E-01  0.357E-01
  11.770  0.715E-01  0.313E-02  0.342E-01  0.342E-01
  11.780  0.680E-01  0.322E-02  0.324E-01  0.324E-01
  11.790  0.644E-01  0.336E-02  0.305E-01  0.305E-01
  11.800  0.609E-01  0.358E-02  0.287E-01  0.287E-01
  11.810  0.580E-01  0.386E-02  0.270E-01  0.270E-01
  11.820  0.558E-01  0.418E-02  0.258E-01  0.258E-01
  11.830  0.544E-01  0.451E-02  0.250E-01  0.250E-01
  11.840  0.541E-01  0.481E-02  0.246E-01  0.246E-01
  11.850  0.546E-01  0.504E-02  0.248E-01  0.248E-01
  11.860  0.562E-01  0.517E-02  0.255E-01  0.255E-01
  11.870  0.589E-01  0.517E-02  0.268E-01  0.268E-01
  11.880  0.627E-01  0.504E-02  0.288E-01  0.288E-01
  11.890  0.679E-01  0.480E-02  0.315E-01  0.315E-01
  11.900  0.745E-01  0.447E-02  0.350E-01  0.350E-01
  11.910  0.826E-01  0.410E-02  0.393E-01  0.393E-01
  11.920  0.920E-01  0.374E-02  0.441E-01  0.441E-01
  11.930  0.102E+00  0.345E-02  0.493E-01  0.493E-01
  11.940  0.112E+00  0.326E-02  0.546E-01  0.546E-01
  11.950  0.122E+00  0.320E-02  0.594E-01  0.594E-01
  11.960  0.130E+00  0.326E-02  0.636E-01  0.636E-01
  11.970  0.137E+00  0.339E-02  0.667E-01  0.667E-01
  11.980  0.141E+00  0.356E-02  0.687E-01  0.687E-01
  11.990  0.143E+00  0.370E-02  0.694E-01  0.694E-01
  12.000  0.142E+00  0.375E-02  0.690E-01  0.690E-01
  12.010  0.139E+00  0.369E-02  0.676E-01  0.676E-01
  12.020  0.135E+00  0.349E-02  0.656E-01  0.656E-01
  12.030  0.129E+00  0.318E-02  0.630E-01  0.630E-01
  12.040  0.123E+00  0.278E-02  0.603E-01  0.603E-01
  12.050  0.117E+00  0.235E-02  0.574E-01  0.574E-01
  12.060  0.111E+00  0.194E-02  0.545E-01  0.545E-01
  12.070  0.105E+00  0.160E-02  0.515E-01  0.515E-01
  12.080  0.980E-01  0.136E-02  0.483E-01  0.483E-01
  12.090  0.911E-01  0.124E-02  0.449E-01  0.449E-01
  12.100  0.839E-01  0.126E-02  0.413E-01  0.413E-01
  12.110  0.766E-01  0.139E-02  0.376E-01  0.376E-01
  12.120  0.696E-01  0.162E-02  0.340E-01  0.340E-01
  12.130  0.630E-01  0.192E-02  0.306E-01  0.306E-01
  12.140  0.574E-01  0.227E-02  0.276E-01  0.276E-01
  12.150  0.528E-01  0.261E-02  0.251E-01  0.251E-01
  12.160  0.493E-01  0.292E-02  0.232E-01  0.232E-01
  12.170  0.471E-01  0.316E-02  0.220E-01  0.220E-01
  12.180  0.461E-01  0.330E-02  0.214E-01  0.214E-01
  12.190  0.465E-01  0.333E-02  0.216E-01  0.216E-01
  12.200  0.482E-01  0.324E-02  0.225E-01  0.225E-01
  12.210  0.511E-01  0.306E-02  0.240E-01  0.240E-01
  12.220  0.553E-01  0.280E-02  0.262E-01  0.262E-01
  12.230  0.603E-01  0.250E-02  0.289E-01  0.289E-01
  12.240  0.658E-01  0.220E-02  0.318E-01  0.318E-01
  12.250  0.713E-01  0.194E-02  0.347E-01  0.347E-01
  12.260  0.764E-01  0.174E-02  0.373E-01  0.373E-01
  12.270  0.806E-01  0.162E-02  0.395E-01  0.395E-01
  12.280  0.838E-01  0.157E-02  0.411E-01  0.411E-01
  12.290  0.858E-01  0.158E-02  0.421E-01  0.421E-01
  12.300  0.868E-01  0.164E-02  0.426E-01  0.426E-01
  12.310  0.867E-01  0.173E-02  0.425E-01  0.425E-01
  12.320  0.857E-01  0.183E-02  0.419E-01  0.419E-01
  12.330  0.837E-01  0.192E-02  0.409E-01  0.409E-01
  12.340  0.808E-01  0.200E-02  0.394E-01  0.394E-01
  12.350  0.770E-01  0.207E-02  0.375E-01  0.375E-01
  12.360  0.725E-01  0.212E-02  0.352E-01  0.352E-01
  12.370  0.677E-01  0.215E-02  0.328E-01  0.328E-01
  12.380  0.631E-01  0.216E-02  0.305E-01  0.305E-01
  12.390  0.595E-01  0.216E-02  0.287E-01  0.287E-01
  12.400  0.578E-01  0.213E-02  0.278E-01  0.278E-01
  12.410  0.584E-01  0.208E-02  0.282E-01  0.282E-01
  12.420  0.618E-01  0.199E-02  0.299E-01  0.299E-01
  12.430  0.681E-01  0.188E-02  0.331E-01  0.331E-01
  12.440  0.769E-01  0.175E-02  0.376E-01  0.376E-01
  12.450  0.873E-01  0.161E-02  0.429E-01  0.429E-01
  12.460  0.985E-01  0.147E-02  0.485E-01  0.485E-01
  12.470  0.109E+00  0.134E-02  0.539E-01  0.539E-01
  12.480  0.118E+00  0.122E-02  0.585E-01  0.585E-01
  12.490  0.125E+00  0.112E-02  0.618E-01  0.618E-01
  12.500  0.128E+00  0.103E-02  0.635E-01  0.635E-01
  12.510  0.128E+00  0.963E-03  0.634E-01  0.634E-01
  12.520  0.124E+00  0.901E-03  0.616E-01  0.616E-01
  12.530  0.118E+00  0.844E-03  0.585E-01  0.585E-01
  12.540  0.110E+00  0.790E-03  0.544E-01  0.544E-01
  12.550  0.101E+00  0.742E-03  0.499E-01  0.499E-01
  12.560  0.918E-01  0.706E-03  0.455E-01  0.455E-01
  12.570  0.839E-01  0.689E-03  0.416E-01  0.416E-01
  12.580  0.775E-01  0.700E-03  0.384E-01  0.384E-01
  12.590  0.728E-01  0.749E-03  0.360E-01  0.360E-01
  12.600  0.697E-01  0.841E-03  0.344E-01  0.344E-01
  12.610  0.679E-01  0.979E-03  0.334E-01  0.334E-01
  12.620  0.669E-01  0.116E-02  0.329E-01  0.329E-01
  12.630  0.663E-01  0.139E-02  0.325E-01  0.325E-01
  12.640  0.657E-01  0.166E-02  0.320E-01  0.320E-01
  12.650  0.649E-01  0.195E-02  0.315E-01  0.315E-01
  12.660  0.638E-01  0.227E-02  0.307E-01  0.307E-01
  12.670  0.623E-01  0.259E-02  0.299E-01  0.299E-01
  12.680  0.608E-01  0.291E-02  0.289E-01  0.289E-01
  12.690  0.595E-01  0.322E-02  0.281E-01  0.281E-01
  12.700  0.587E-01  0.350E-02  0.276E-01  0.276E-01
  12.710  0.586E-01  0.376E-02  0.274E-01  0.274E-01
  12.720  0.594E-01  0.399E-02  0.277E-01  0.277E-01
  12.730  0.612E-01  0.417E-02  0.285E-01  0.285E-01
  12.740  0.638E-01  0.430E-02  0.297E-01  0.297E-01
  12.750  0.671E-01  0.438E-02  0.314E-01  0.314E-01
  12.760  0.708E-01  0.439E-02  0.332E-01  0.332E-01
  12.770  0.748E-01  0.434E-02  0.353E-01  0.353E-01
  12.780  0.788E-01  0.421E-02  0.373E-01  0.373E-01
  12.790  0.825E-01  0.401E-02  0.392E-01  0.392E-01
  12.800  0.856E-01  0.376E-02  0.409E-01  0.409E-01
  12.810  0.878E-01  0.344E-02  0.422E-01  0.422E-01
  12.820  0.889E-01  0.310E-02  0.429E-01  0.429E-01
  12.830  0.888E-01  0.273E-02  0.430E-01  0.430E-01
  12.840  0.873E-01  0.237E-02  0.425E-01  0.425E-01
  12.850  0.846E-01  0.203E-02  0.413E-01  0.413E-01
  12.860  0.808E-01  0.174E-02  0.395E-01  0.395E-01
  12.870  0.762E-01  0.151E-02  0.373E-01  0.373E-01
  12.880  0.711E-01  0.134E-02  0.349E-01  0.349E-01
  12.890  0.656E-01  0.123E-02  0.322E-01  0.322E-01
  12.900  0.601E-01  0.118E-02  0.295E-01  0.295E-01
  12.910  0.545E-01  0.116E-02  0.267E-01  0.267E-01
  12.920  0.490E-01  0.116E-02  0.239E-01  0.239E-01
  12.930  0.436E-01  0.115E-02  0.212E-01  0.212E-01
  12.940  0.386E-01  0.112E-02  0.187E-01  0.187E-01
  12.950  0.342E-01  0.107E-02  0.166E-01  0.166E-01
  12.960  0.307E-01  0.100E-02  0.148E-01  0.148E-01
  12.970  0.283E-01  0.924E-03  0.137E-01  0.137E-01
  12.980  0.272E-01  0.847E-03  0.132E-01  0.132E-01
  12.990  0.273E-01  0.787E-03  0.133E-01  0.133E-01
  13.000  0.284E-01  0.751E-03  0.138E-01  0.138E-01
  13.010  0.300E-01  0.746E-03  0.146E-01  0.146E-01
  13.020  0.319E-01  0.772E-03  0.156E-01  0.156E-01
  13.030  0.337E-01  0.824E-03  0.164E-01  0.164E-01
  13.040  0.351E-01  0.897E-03  0.171E-01  0.171E-01
  13.050  0.361E-01  0.986E-03  0.176E-01  0.176E-01
  13.060  0.368E-01  0.109E-02  0.178E-01  0.178E-01
  13.070  0.372E-01  0.120E-02  0.180E-01  0.180E-01
  13.080  0.378E-01  0.131E-02  0.182E-01  0.182E-01
  13.090  0.385E-01  0.143E-02  0.185E-01  0.185E-01
  13.100  0.396E-01  0.154E-02  0.190E-01  0.190E-01
  13.110  0.408E-01  0.165E-02  0.196E-01  0.196E-01
  13.120  0.420E-01  0.174E-02  0.201E-01  0.201E-01
  13.130  0.428E-01  0.179E-02  0.205E-01  0.205E-01
  13.140  0.430E-01  0.181E-02  0.206E-01  0.206E-01
  13.150  0.422E-01  0.178E-02  0.202E-01  0.202E-01
  13.160  0.404E-01  0.170E-02  0.194E-01  0.194E-01
  13.170  0.377E-01  0.157E-02  0.181E-01  0.181E-01
  13.180  0.344E-01  0.139E-02  0.165E-01  0.165E-01
  13.190  0.308E-01  0.119E-02  0.148E-01  0.148E-01
  13.200  0.275E-01  0.986E-03  0.132E-01  0.132E-01
  13.210  0.248E-01  0.792E-03  0.120E-01  0.120E-01
  13.220  0.229E-01  0.627E-03  0.112E-01  0.112E-01
  13.230  0.220E-01  0.503E-03  0.107E-01  0.107E-01
  13.240  0.218E-01  0.426E-03  0.107E-01  0.107E-01
  13.250  0.221E-01  0.396E-03  0.109E-01  0.109E-01
  13.260  0.227E-01  0.406E-03  0.111E-01  0.111E-01
  13.270  0.231E-01  0.446E-03  0.113E-01  0.113E-01
  13.280  0.233E-01  0.506E-03  0.114E-01  0.114E-01
  13.290  0.233E-01  0.573E-03  0.114E-01  0.114E-01
  13.300  0.232E-01  0.638E-03  0.113E-01  0.113E-01
  13.310  0.231E-01  0.697E-03  0.112E-01  0.112E-01
  13.320  0.233E-01  0.747E-03  0.113E-01  0.113E-01
  13.330  0.240E-01  0.788E-03  0.116E-01  0.116E-01
  13.340  0.249E-01  0.823E-03  0.120E-01  0.120E-01
  13.350  0.261E-01  0.852E-03  0.126E-01  0.126E-01
  13.360  0.270E-01  0.874E-03  0.131E-01  0.131E-01
  13.370  0.275E-01  0.887E-03  0.133E-01  0.133E-01
  13.380  0.271E-01  0.887E-03  0.131E-01  0.131E-01
  13.390  0.258E-01  0.870E-03  0.124E-01  0.124E-01
  13.400  0.234E-01  0.836E-03  0.113E-01  0.113E-01
  13.410  0.204E-01  0.789E-03  0.981E-02  0.981E-02
  13.420  0.171E-01  0.734E-03  0.820E-02  0.820E-02
  13.430  0.141E-01  0.684E-03  0.671E-02  0.671E-02
  13.440  0.118E-01  0.650E-03  0.556E-02  0.556E-02
  13.450  0.104E-01  0.639E-03  0.489E-02  0.489E-02
  13.460  0.101E-01  0.659E-03  0.474E-02  0.474E-02
  13.470  0.108E-01  0.708E-03  0.506E-02  0.506E-02
  13.480  0.121E-01  0.779E-03  0.568E-02  0.568E-02
  13.490  0.137E-01  0.862E-03  0.642E-02  0.642E-02
  13.500  0.151E-01  0.941E-03  0.709E-02  0.709E-02
  13.510  0.160E-01  0.100E-02  0.752E-02  0.752E-02
  13.520  0.163E-01  0.103E-02  0.763E-02  0.763E-02
  13.530  0.158E-01  0.104E-02  0.740E-02  0.740E-02
  13.540  0.148E-01  0.101E-02  0.689E-02  0.689E-02
  13.550  0.134E-01  0.959E-03  0.621E-02  0.621E-02
  13.560  0.119E-01  0.904E-03  0.552E-02  0.552E-02
  13.570  0.107E-01  0.858E-03  0.492E-02  0.492E-02
  13.580  0.989E-02  0.832E-03  0.453E-02  0.453E-02
  13.590  0.958E-02  0.830E-03  0.437E-02  0.437E-02
  13.600  0.974E-02  0.852E-03  0.444E-02  0.444E-02
  13.610  0.102E-01  0.891E-03  0.468E-02  0.468E-02
  13.620  0.109E-01  0.936E-03  0.500E-02  0.500E-02
  13.630  0.116E-01  0.976E-03  0.530E-02  0.530E-02
  13.640  0.120E-01  0.100E-02  0.552E-02  0.552E-02
  13.650  0.122E-01  0.100E-02  0.560E-02  0.560E-02
  13.660  0.120E-01  0.983E-03  0.551E-02  0.551E-02
  13.670  0.115E-01  0.940E-03  0.527E-02  0.527E-02
  13.680  0.107E-01  0.878E-03  0.489E-02  0.489E-02
  13.690  0.965E-02  0.801E-03  0.443E-02  0.443E-02
  13.700  0.851E-02  0.713E-03  0.390E-02  0.390E-02
  13.710  0.729E-02  0.617E-03  0.334E-02  0.334E-02
  13.720  0.606E-02  0.515E-03  0.277E-02  0.277E-02
  13.730  0.483E-02  0.411E-03  0.221E-02  0.221E-02
  13.740  0.365E-02  0.307E-03  0.167E-02  0.167E-02
  13.750  0.255E-02  0.209E-03  0.117E-02  0.117E-02
  13.760  0.157E-02  0.120E-03  0.725E-03  0.725E-03
  13.770  0.751E-03  0.453E-04  0.353E-03  0.353E-03
  13.780  0.131E-03 -0.123E-04  0.717E-04  0.717E-04
  13.790 -0.264E-03 -0.517E-04 -0.106E-03 -0.106E-03
  13.800 -0.430E-03 -0.737E-04 -0.178E-03 -0.178E-03
  13.810 -0.379E-03 -0.811E-04 -0.149E-03 -0.149E-03
  13.820 -0.142E-03 -0.776E-04 -0.320E-04 -0.320E-04
  13.830  0.242E-03 -0.674E-04  0.155E-03  0.155E-03
  13.840  0.727E-03 -0.539E-04  0.391E-03  0.391E-03
  13.850  0.127E-02 -0.402E-04  0.657E-03  0.657E-03
  13.860  0.184E-02 -0.279E-04  0.936E-03  0.936E-03
  13.870  0.241E-02 -0.179E-04  0.121E-02  0.121E-02
  13.880  0.295E-02 -0.104E-04  0.148E-02  0.148E-02
  13.890  0.343E-02 -0.503E-05  0.172E-02  0.172E-02
  13.900  0.385E-02 -0.146E-05  0.193E-02  0.193E-02
  13.910  0.419E-02  0.810E-06  0.209E-02  0.209E-02
  13.920  0.443E-02  0.219E-05  0.221E-02  0.221E-02
  13.930  0.457E-02  0.296E-05  0.228E-02  0.228E-02
  13.940  0.462E-02  0.334E-05  0.231E-02  0.231E-02
  13.950  0.458E-02  0.344E-05  0.229E-02  0.229E-02
  13.960  0.449E-02  0.337E-05  0.224E-02  0.224E-02
  13.970  0.439E-02  0.320E-05  0.219E-02  0.219E-02
  13.980  0.431E-02  0.298E-05  0.215E-02  0.215E-02
  13.990  0.430E-02  0.276E-05  0.215E-02  0.215E-02
  14.000  0.437E-02  0.258E-05  0.219E-02  0.219E-02
  14.010  0.453E-02  0.246E-05  0.226E-02  0.226E-02
  14.020  0.474E-02  0.238E-05  0.237E-02  0.237E-02
  14.030  0.494E-02  0.234E-05  0.247E-02  0.247E-02
  14.040  0.508E-02  0.230E-05  0.254E-02  0.254E-02
  14.050  0.508E-02  0.223E-05  0.254E-02  0.254E-02
  14.060  0.492E-02  0.210E-05  0.246E-02  0.246E-02
  14.070  0.458E-02  0.190E-05  0.229E-02  0.229E-02
  14.080  0.409E-02  0.164E-05  0.205E-02  0.205E-02
  14.090  0.354E-02  0.135E-05  0.177E-02  0.177E-02
  14.100  0.302E-02  0.108E-05  0.151E-02  0.151E-02
  14.110  0.265E-02  0.866E-06  0.132E-02  0.132E-02
  14.120  0.254E-02  0.779E-06  0.127E-02  0.127E-02
  14.130  0.279E-02  0.861E-06  0.140E-02  0.140E-02
  14.140  0.344E-02  0.114E-05  0.172E-02  0.172E-02
  14.150  0.449E-02  0.163E-05  0.224E-02  0.224E-02
  14.160  0.585E-02  0.232E-05  0.293E-02  0.293E-02
  14.170  0.742E-02  0.314E-05  0.371E-02  0.371E-02
  14.180  0.901E-02  0.404E-05  0.450E-02  0.450E-02
  14.190  0.104E-01  0.491E-05  0.522E-02  0.522E-02
  14.200  0.115E-01  0.566E-05  0.575E-02  0.575E-02
  14.210  0.121E-01  0.618E-05  0.604E-02  0.604E-02
  14.220  0.120E-01  0.640E-05  0.602E-02  0.602E-02
  14.230  0.114E-01  0.628E-05  0.570E-02  0.570E-02
  14.240  0.102E-01  0.583E-05  0.512E-02  0.512E-02
  14.250  0.867E-02  0.512E-05  0.433E-02  0.433E-02
  14.260  0.689E-02  0.422E-05  0.344E-02  0.344E-02
  14.270  0.509E-02  0.324E-05  0.254E-02  0.254E-02
  14.280  0.342E-02  0.229E-05  0.171E-02  0.171E-02
  14.290  0.200E-02  0.143E-05  0.998E-03  0.998E-03
  14.300  0.877E-03  0.732E-06  0.438E-03  0.438E-03
  14.310  0.687E-04  0.202E-06  0.343E-04  0.343E-04
  14.320 -0.458E-03 -0.160E-06 -0.229E-03 -0.229E-03
  14.330 -0.752E-03 -0.377E-06 -0.376E-03 -0.376E-03
  14.340 -0.871E-03 -0.479E-06 -0.435E-03 -0.435E-03
  14.350 -0.868E-03 -0.499E-06 -0.434E-03 -0.434E-03
  14.360 -0.790E-03 -0.465E-06 -0.395E-03 -0.395E-03
  14.370 -0.673E-03 -0.401E-06 -0.336E-03 -0.336E-03
  14.380 -0.542E-03 -0.326E-06 -0.271E-03 -0.271E-03
  14.390 -0.415E-03 -0.251E-06 -0.207E-03 -0.207E-03
  14.400 -0.303E-03 -0.184E-06 -0.151E-03 -0.151E-03
  14.410 -0.212E-03 -0.128E-06 -0.106E-03 -0.106E-03
  14.420 -0.141E-03 -0.856E-07 -0.705E-04 -0.705E-04
  14.430 -0.900E-04 -0.546E-07 -0.450E-04 -0.450E-04
  14.440 -0.548E-04 -0.332E-07 -0.274E-04 -0.274E-04
  14.450 -0.319E-04 -0.193E-07 -0.159E-04 -0.159E-04
  14.460 -0.177E-04 -0.107E-07 -0.885E-05 -0.885E-05
