# E (eV)   ldos(E)   pdos(E)    pdos(E)    pdos(E)   
 -20.380  0.869E-09  0.773E-09  0.479E-10  0.479E-10
 -20.370  0.255E-08  0.226E-08  0.146E-09  0.146E-09
 -20.360  0.719E-08  0.634E-08  0.425E-09  0.425E-09
 -20.350  0.194E-07  0.170E-07  0.119E-08  0.119E-08
 -20.340  0.502E-07  0.439E-07  0.319E-08  0.319E-08
 -20.330  0.125E-06  0.108E-06  0.822E-08  0.822E-08
 -20.320  0.296E-06  0.256E-06  0.203E-07  0.203E-07
 -20.310  0.676E-06  0.579E-06  0.483E-07  0.483E-07
 -20.300  0.148E-05  0.126E-05  0.110E-06  0.110E-06
 -20.290  0.310E-05  0.262E-05  0.242E-06  0.242E-06
 -20.280  0.624E-05  0.522E-05  0.509E-06  0.509E-06
 -20.270  0.120E-04  0.998E-05  0.103E-05  0.103E-05
 -20.260  0.223E-04  0.183E-04  0.201E-05  0.201E-05
 -20.250  0.397E-04  0.322E-04  0.376E-05  0.376E-05
 -20.240  0.679E-04  0.543E-04  0.677E-05  0.677E-05
 -20.230  0.111E-03  0.880E-04  0.118E-04  0.118E-04
 -20.220  0.176E-03  0.137E-03  0.197E-04  0.197E-04
 -20.210  0.268E-03  0.204E-03  0.317E-04  0.317E-04
 -20.200  0.391E-03  0.293E-03  0.494E-04  0.494E-04
 -20.190  0.552E-03  0.403E-03  0.742E-04  0.742E-04
 -20.180  0.751E-03  0.535E-03  0.108E-03  0.108E-03
 -20.170  0.987E-03  0.683E-03  0.152E-03  0.152E-03
 -20.160  0.125E-02  0.841E-03  0.207E-03  0.207E-03
 -20.150  0.155E-02  0.999E-03  0.274E-03  0.274E-03
 -20.140  0.185E-02  0.115E-02  0.353E-03  0.353E-03
 -20.130  0.216E-02  0.128E-02  0.443E-03  0.443E-03
 -20.120  0.246E-02  0.138E-02  0.542E-03  0.542E-03
 -20.110  0.275E-02  0.145E-02  0.648E-03  0.648E-03
 -20.100  0.301E-02  0.149E-02  0.760E-03  0.760E-03
 -20.090  0.326E-02  0.150E-02  0.876E-03  0.876E-03
 -20.080  0.348E-02  0.150E-02  0.994E-03  0.994E-03
 -20.070  0.369E-02  0.147E-02  0.111E-02  0.111E-02
 -20.060  0.390E-02  0.143E-02  0.123E-02  0.123E-02
 -20.050  0.409E-02  0.140E-02  0.135E-02  0.135E-02
 -20.040  0.429E-02  0.136E-02  0.147E-02  0.147E-02
 -20.030  0.450E-02  0.132E-02  0.159E-02  0.159E-02
 -20.020  0.472E-02  0.129E-02  0.171E-02  0.171E-02
 -20.010  0.496E-02  0.127E-02  0.184E-02  0.184E-02
 -20.000  0.522E-02  0.125E-02  0.198E-02  0.198E-02
 -19.990  0.552E-02  0.124E-02  0.214E-02  0.214E-02
 -19.980  0.587E-02  0.123E-02  0.232E-02  0.232E-02
 -19.970  0.629E-02  0.122E-02  0.253E-02  0.253E-02
 -19.960  0.678E-02  0.122E-02  0.278E-02  0.278E-02
 -19.950  0.739E-02  0.122E-02  0.308E-02  0.308E-02
 -19.940  0.810E-02  0.123E-02  0.344E-02  0.344E-02
 -19.930  0.894E-02  0.124E-02  0.385E-02  0.385E-02
 -19.920  0.991E-02  0.125E-02  0.433E-02  0.433E-02
 -19.910  0.110E-01  0.125E-02  0.488E-02  0.488E-02
 -19.900  0.122E-01  0.126E-02  0.548E-02  0.548E-02
 -19.890  0.135E-01  0.126E-02  0.613E-02  0.613E-02
 -19.880  0.149E-01  0.126E-02  0.682E-02  0.682E-02
 -19.870  0.163E-01  0.126E-02  0.753E-02  0.753E-02
 -19.860  0.177E-01  0.125E-02  0.825E-02  0.825E-02
 -19.850  0.192E-01  0.124E-02  0.897E-02  0.897E-02
 -19.840  0.206E-01  0.122E-02  0.967E-02  0.967E-02
 -19.830  0.219E-01  0.120E-02  0.104E-01  0.104E-01
 -19.820  0.232E-01  0.119E-02  0.110E-01  0.110E-01
 -19.810  0.245E-01  0.117E-02  0.117E-01  0.117E-01
 -19.800  0.258E-01  0.115E-02  0.123E-01  0.123E-01
 -19.790  0.270E-01  0.114E-02  0.130E-01  0.130E-01
 -19.780  0.283E-01  0.113E-02  0.136E-01  0.136E-01
 -19.770  0.294E-01  0.111E-02  0.142E-01  0.142E-01
 -19.760  0.306E-01  0.110E-02  0.147E-01  0.147E-01
 -19.750  0.317E-01  0.109E-02  0.153E-01  0.153E-01
 -19.740  0.327E-01  0.107E-02  0.158E-01  0.158E-01
 -19.730  0.338E-01  0.106E-02  0.164E-01  0.164E-01
 -19.720  0.349E-01  0.104E-02  0.169E-01  0.169E-01
 -19.710  0.359E-01  0.103E-02  0.175E-01  0.175E-01
 -19.700  0.370E-01  0.102E-02  0.180E-01  0.180E-01
 -19.690  0.381E-01  0.102E-02  0.186E-01  0.186E-01
 -19.680  0.392E-01  0.101E-02  0.191E-01  0.191E-01
 -19.670  0.402E-01  0.100E-02  0.196E-01  0.196E-01
 -19.660  0.411E-01  0.989E-03  0.201E-01  0.201E-01
 -19.650  0.420E-01  0.973E-03  0.205E-01  0.205E-01
 -19.640  0.428E-01  0.956E-03  0.209E-01  0.209E-01
 -19.630  0.437E-01  0.940E-03  0.214E-01  0.214E-01
 -19.620  0.447E-01  0.928E-03  0.219E-01  0.219E-01
 -19.610  0.457E-01  0.921E-03  0.224E-01  0.224E-01
 -19.600  0.468E-01  0.917E-03  0.230E-01  0.230E-01
 -19.590  0.479E-01  0.916E-03  0.235E-01  0.235E-01
 -19.580  0.489E-01  0.913E-03  0.240E-01  0.240E-01
 -19.570  0.497E-01  0.906E-03  0.244E-01  0.244E-01
 -19.560  0.504E-01  0.893E-03  0.247E-01  0.247E-01
 -19.550  0.510E-01  0.876E-03  0.251E-01  0.251E-01
 -19.540  0.516E-01  0.856E-03  0.254E-01  0.254E-01
 -19.530  0.523E-01  0.839E-03  0.257E-01  0.257E-01
 -19.520  0.532E-01  0.826E-03  0.262E-01  0.262E-01
 -19.510  0.543E-01  0.820E-03  0.267E-01  0.267E-01
 -19.500  0.554E-01  0.819E-03  0.273E-01  0.273E-01
 -19.490  0.566E-01  0.821E-03  0.279E-01  0.279E-01
 -19.480  0.575E-01  0.823E-03  0.284E-01  0.284E-01
 -19.470  0.583E-01  0.821E-03  0.287E-01  0.287E-01
 -19.460  0.588E-01  0.812E-03  0.290E-01  0.290E-01
 -19.450  0.592E-01  0.798E-03  0.292E-01  0.292E-01
 -19.440  0.596E-01  0.779E-03  0.294E-01  0.294E-01
 -19.430  0.601E-01  0.759E-03  0.297E-01  0.297E-01
 -19.420  0.608E-01  0.742E-03  0.300E-01  0.300E-01
 -19.410  0.616E-01  0.730E-03  0.305E-01  0.305E-01
 -19.400  0.626E-01  0.725E-03  0.310E-01  0.310E-01
 -19.390  0.637E-01  0.726E-03  0.315E-01  0.315E-01
 -19.380  0.648E-01  0.729E-03  0.320E-01  0.320E-01
 -19.370  0.658E-01  0.733E-03  0.325E-01  0.325E-01
 -19.360  0.667E-01  0.735E-03  0.330E-01  0.330E-01
 -19.350  0.673E-01  0.730E-03  0.333E-01  0.333E-01
 -19.340  0.678E-01  0.720E-03  0.335E-01  0.335E-01
 -19.330  0.681E-01  0.705E-03  0.337E-01  0.337E-01
 -19.320  0.683E-01  0.686E-03  0.338E-01  0.338E-01
 -19.310  0.685E-01  0.667E-03  0.339E-01  0.339E-01
 -19.300  0.688E-01  0.651E-03  0.341E-01  0.341E-01
 -19.290  0.693E-01  0.640E-03  0.343E-01  0.343E-01
 -19.280  0.702E-01  0.636E-03  0.348E-01  0.348E-01
 -19.270  0.713E-01  0.637E-03  0.353E-01  0.353E-01
 -19.260  0.727E-01  0.643E-03  0.360E-01  0.360E-01
 -19.250  0.742E-01  0.650E-03  0.368E-01  0.368E-01
 -19.240  0.755E-01  0.654E-03  0.374E-01  0.374E-01
 -19.230  0.765E-01  0.654E-03  0.379E-01  0.379E-01
 -19.220  0.770E-01  0.647E-03  0.382E-01  0.382E-01
 -19.210  0.770E-01  0.633E-03  0.382E-01  0.382E-01
 -19.200  0.765E-01  0.614E-03  0.379E-01  0.379E-01
 -19.190  0.758E-01  0.593E-03  0.376E-01  0.376E-01
 -19.180  0.752E-01  0.574E-03  0.373E-01  0.373E-01
 -19.170  0.752E-01  0.560E-03  0.373E-01  0.373E-01
 -19.160  0.759E-01  0.553E-03  0.377E-01  0.377E-01
 -19.150  0.773E-01  0.553E-03  0.384E-01  0.384E-01
 -19.140  0.795E-01  0.560E-03  0.395E-01  0.395E-01
 -19.130  0.819E-01  0.571E-03  0.407E-01  0.407E-01
 -19.120  0.841E-01  0.581E-03  0.418E-01  0.418E-01
 -19.110  0.858E-01  0.587E-03  0.426E-01  0.426E-01
 -19.100  0.864E-01  0.586E-03  0.429E-01  0.429E-01
 -19.090  0.860E-01  0.576E-03  0.427E-01  0.427E-01
 -19.080  0.848E-01  0.559E-03  0.421E-01  0.421E-01
 -19.070  0.831E-01  0.537E-03  0.413E-01  0.413E-01
 -19.060  0.814E-01  0.515E-03  0.405E-01  0.405E-01
 -19.050  0.804E-01  0.495E-03  0.400E-01  0.400E-01
 -19.040  0.805E-01  0.482E-03  0.400E-01  0.400E-01
 -19.030  0.818E-01  0.477E-03  0.406E-01  0.406E-01
 -19.020  0.842E-01  0.481E-03  0.418E-01  0.418E-01
 -19.010  0.873E-01  0.491E-03  0.434E-01  0.434E-01
 -19.000  0.906E-01  0.505E-03  0.451E-01  0.451E-01
 -18.990  0.935E-01  0.517E-03  0.465E-01  0.465E-01
 -18.980  0.953E-01  0.525E-03  0.474E-01  0.474E-01
 -18.970  0.957E-01  0.526E-03  0.476E-01  0.476E-01
 -18.960  0.946E-01  0.518E-03  0.470E-01  0.470E-01
 -18.950  0.925E-01  0.501E-03  0.460E-01  0.460E-01
 -18.940  0.898E-01  0.479E-03  0.446E-01  0.446E-01
 -18.930  0.873E-01  0.455E-03  0.434E-01  0.434E-01
 -18.920  0.857E-01  0.434E-03  0.426E-01  0.426E-01
 -18.910  0.855E-01  0.418E-03  0.426E-01  0.426E-01
 -18.900  0.869E-01  0.411E-03  0.433E-01  0.433E-01
 -18.890  0.898E-01  0.413E-03  0.447E-01  0.447E-01
 -18.880  0.935E-01  0.422E-03  0.466E-01  0.466E-01
 -18.870  0.975E-01  0.436E-03  0.485E-01  0.485E-01
 -18.860  0.101E+00  0.451E-03  0.503E-01  0.503E-01
 -18.850  0.103E+00  0.463E-03  0.515E-01  0.515E-01
 -18.840  0.104E+00  0.470E-03  0.519E-01  0.519E-01
 -18.830  0.103E+00  0.468E-03  0.515E-01  0.515E-01
 -18.820  0.101E+00  0.459E-03  0.504E-01  0.504E-01
 -18.810  0.981E-01  0.442E-03  0.489E-01  0.489E-01
 -18.800  0.949E-01  0.420E-03  0.473E-01  0.473E-01
 -18.790  0.924E-01  0.397E-03  0.460E-01  0.460E-01
 -18.780  0.911E-01  0.376E-03  0.454E-01  0.454E-01
 -18.770  0.916E-01  0.360E-03  0.456E-01  0.456E-01
 -18.760  0.938E-01  0.352E-03  0.467E-01  0.467E-01
 -18.750  0.975E-01  0.353E-03  0.486E-01  0.486E-01
 -18.740  0.102E+00  0.361E-03  0.508E-01  0.508E-01
 -18.730  0.106E+00  0.374E-03  0.530E-01  0.530E-01
 -18.720  0.110E+00  0.389E-03  0.547E-01  0.547E-01
 -18.710  0.112E+00  0.403E-03  0.557E-01  0.557E-01
 -18.700  0.112E+00  0.412E-03  0.558E-01  0.558E-01
 -18.690  0.110E+00  0.415E-03  0.550E-01  0.550E-01
 -18.680  0.108E+00  0.412E-03  0.536E-01  0.536E-01
 -18.670  0.104E+00  0.401E-03  0.519E-01  0.519E-01
 -18.660  0.101E+00  0.385E-03  0.503E-01  0.503E-01
 -18.650  0.985E-01  0.366E-03  0.491E-01  0.491E-01
 -18.640  0.975E-01  0.346E-03  0.486E-01  0.486E-01
 -18.630  0.983E-01  0.328E-03  0.490E-01  0.490E-01
 -18.620  0.101E+00  0.313E-03  0.502E-01  0.502E-01
 -18.610  0.105E+00  0.304E-03  0.521E-01  0.521E-01
 -18.600  0.109E+00  0.301E-03  0.544E-01  0.544E-01
 -18.590  0.114E+00  0.305E-03  0.566E-01  0.566E-01
 -18.580  0.117E+00  0.315E-03  0.584E-01  0.584E-01
 -18.570  0.119E+00  0.327E-03  0.595E-01  0.595E-01
 -18.560  0.119E+00  0.341E-03  0.596E-01  0.596E-01
 -18.550  0.118E+00  0.354E-03  0.587E-01  0.587E-01
 -18.540  0.115E+00  0.362E-03  0.572E-01  0.572E-01
 -18.530  0.111E+00  0.364E-03  0.553E-01  0.553E-01
 -18.520  0.108E+00  0.360E-03  0.536E-01  0.536E-01
 -18.510  0.105E+00  0.350E-03  0.523E-01  0.523E-01
 -18.500  0.104E+00  0.335E-03  0.518E-01  0.518E-01
 -18.490  0.105E+00  0.318E-03  0.522E-01  0.522E-01
 -18.480  0.107E+00  0.301E-03  0.535E-01  0.535E-01
 -18.470  0.111E+00  0.286E-03  0.555E-01  0.555E-01
 -18.460  0.116E+00  0.274E-03  0.579E-01  0.579E-01
 -18.450  0.121E+00  0.265E-03  0.602E-01  0.602E-01
 -18.440  0.125E+00  0.260E-03  0.622E-01  0.622E-01
 -18.430  0.127E+00  0.260E-03  0.634E-01  0.634E-01
 -18.420  0.128E+00  0.263E-03  0.636E-01  0.636E-01
 -18.410  0.126E+00  0.269E-03  0.629E-01  0.629E-01
 -18.400  0.123E+00  0.279E-03  0.613E-01  0.613E-01
 -18.390  0.119E+00  0.290E-03  0.592E-01  0.592E-01
 -18.380  0.115E+00  0.301E-03  0.571E-01  0.571E-01
 -18.370  0.111E+00  0.310E-03  0.554E-01  0.554E-01
 -18.360  0.109E+00  0.316E-03  0.546E-01  0.546E-01
 -18.350  0.110E+00  0.316E-03  0.547E-01  0.547E-01
 -18.340  0.112E+00  0.311E-03  0.560E-01  0.560E-01
 -18.330  0.117E+00  0.300E-03  0.581E-01  0.581E-01
 -18.320  0.122E+00  0.285E-03  0.608E-01  0.608E-01
 -18.310  0.127E+00  0.267E-03  0.635E-01  0.635E-01
 -18.300  0.132E+00  0.250E-03  0.660E-01  0.660E-01
 -18.290  0.136E+00  0.235E-03  0.677E-01  0.677E-01
 -18.280  0.137E+00  0.224E-03  0.684E-01  0.684E-01
 -18.270  0.136E+00  0.217E-03  0.681E-01  0.681E-01
 -18.260  0.134E+00  0.215E-03  0.667E-01  0.667E-01
 -18.250  0.129E+00  0.216E-03  0.646E-01  0.646E-01
 -18.240  0.124E+00  0.221E-03  0.621E-01  0.621E-01
 -18.230  0.120E+00  0.229E-03  0.597E-01  0.597E-01
 -18.220  0.116E+00  0.238E-03  0.578E-01  0.578E-01
 -18.210  0.114E+00  0.248E-03  0.570E-01  0.570E-01
 -18.200  0.115E+00  0.259E-03  0.573E-01  0.573E-01
 -18.190  0.118E+00  0.268E-03  0.590E-01  0.590E-01
 -18.180  0.124E+00  0.274E-03  0.617E-01  0.617E-01
 -18.170  0.130E+00  0.277E-03  0.650E-01  0.650E-01
 -18.160  0.137E+00  0.275E-03  0.685E-01  0.685E-01
 -18.150  0.143E+00  0.267E-03  0.715E-01  0.715E-01
 -18.140  0.147E+00  0.255E-03  0.736E-01  0.736E-01
 -18.130  0.149E+00  0.239E-03  0.743E-01  0.743E-01
 -18.120  0.148E+00  0.222E-03  0.737E-01  0.737E-01
 -18.110  0.144E+00  0.204E-03  0.719E-01  0.719E-01
 -18.100  0.139E+00  0.188E-03  0.692E-01  0.692E-01
 -18.090  0.133E+00  0.176E-03  0.662E-01  0.662E-01
 -18.080  0.127E+00  0.170E-03  0.634E-01  0.634E-01
 -18.070  0.123E+00  0.169E-03  0.612E-01  0.612E-01
 -18.060  0.120E+00  0.174E-03  0.601E-01  0.601E-01
 -18.050  0.121E+00  0.184E-03  0.603E-01  0.603E-01
 -18.040  0.124E+00  0.197E-03  0.619E-01  0.619E-01
 -18.030  0.130E+00  0.210E-03  0.647E-01  0.647E-01
 -18.020  0.137E+00  0.224E-03  0.683E-01  0.683E-01
 -18.010  0.145E+00  0.234E-03  0.722E-01  0.722E-01
 -18.000  0.152E+00  0.241E-03  0.759E-01  0.759E-01
 -17.990  0.157E+00  0.244E-03  0.786E-01  0.786E-01
 -17.980  0.160E+00  0.242E-03  0.800E-01  0.800E-01
 -17.970  0.160E+00  0.235E-03  0.799E-01  0.799E-01
 -17.960  0.157E+00  0.226E-03  0.783E-01  0.783E-01
 -17.950  0.151E+00  0.214E-03  0.755E-01  0.755E-01
 -17.940  0.145E+00  0.200E-03  0.722E-01  0.722E-01
 -17.930  0.138E+00  0.187E-03  0.689E-01  0.689E-01
 -17.920  0.133E+00  0.174E-03  0.662E-01  0.662E-01
 -17.910  0.129E+00  0.162E-03  0.646E-01  0.646E-01
 -17.900  0.129E+00  0.153E-03  0.643E-01  0.643E-01
 -17.890  0.131E+00  0.146E-03  0.655E-01  0.655E-01
 -17.880  0.136E+00  0.142E-03  0.680E-01  0.680E-01
 -17.870  0.143E+00  0.143E-03  0.715E-01  0.715E-01
 -17.860  0.151E+00  0.148E-03  0.755E-01  0.755E-01
 -17.850  0.159E+00  0.156E-03  0.795E-01  0.795E-01
 -17.840  0.166E+00  0.169E-03  0.829E-01  0.829E-01
 -17.830  0.170E+00  0.182E-03  0.851E-01  0.851E-01
 -17.820  0.172E+00  0.196E-03  0.859E-01  0.859E-01
 -17.810  0.170E+00  0.207E-03  0.850E-01  0.850E-01
 -17.800  0.166E+00  0.214E-03  0.827E-01  0.827E-01
 -17.790  0.159E+00  0.215E-03  0.794E-01  0.794E-01
 -17.780  0.152E+00  0.211E-03  0.758E-01  0.758E-01
 -17.770  0.145E+00  0.202E-03  0.726E-01  0.726E-01
 -17.760  0.141E+00  0.190E-03  0.703E-01  0.703E-01
 -17.750  0.139E+00  0.176E-03  0.695E-01  0.695E-01
 -17.740  0.141E+00  0.163E-03  0.702E-01  0.702E-01
 -17.730  0.145E+00  0.151E-03  0.725E-01  0.725E-01
 -17.720  0.152E+00  0.142E-03  0.760E-01  0.760E-01
 -17.710  0.160E+00  0.136E-03  0.802E-01  0.802E-01
 -17.700  0.169E+00  0.132E-03  0.845E-01  0.845E-01
 -17.690  0.177E+00  0.129E-03  0.882E-01  0.882E-01
 -17.680  0.182E+00  0.128E-03  0.910E-01  0.910E-01
 -17.670  0.185E+00  0.129E-03  0.922E-01  0.922E-01
 -17.660  0.184E+00  0.130E-03  0.919E-01  0.919E-01
 -17.650  0.180E+00  0.133E-03  0.900E-01  0.900E-01
 -17.640  0.174E+00  0.137E-03  0.870E-01  0.870E-01
 -17.630  0.167E+00  0.144E-03  0.833E-01  0.833E-01
 -17.620  0.160E+00  0.152E-03  0.798E-01  0.798E-01
 -17.610  0.154E+00  0.161E-03  0.771E-01  0.771E-01
 -17.600  0.152E+00  0.170E-03  0.758E-01  0.758E-01
 -17.590  0.152E+00  0.178E-03  0.761E-01  0.761E-01
 -17.580  0.156E+00  0.182E-03  0.782E-01  0.782E-01
 -17.570  0.163E+00  0.182E-03  0.816E-01  0.816E-01
 -17.560  0.172E+00  0.178E-03  0.861E-01  0.861E-01
 -17.550  0.182E+00  0.169E-03  0.909E-01  0.909E-01
 -17.540  0.191E+00  0.158E-03  0.952E-01  0.952E-01
 -17.530  0.197E+00  0.144E-03  0.986E-01  0.986E-01
 -17.520  0.201E+00  0.131E-03  0.100E+00  0.100E+00
 -17.510  0.201E+00  0.120E-03  0.101E+00  0.101E+00
 -17.500  0.198E+00  0.111E-03  0.990E-01  0.990E-01
 -17.490  0.192E+00  0.104E-03  0.961E-01  0.961E-01
 -17.480  0.185E+00  0.101E-03  0.925E-01  0.925E-01
 -17.470  0.177E+00  0.101E-03  0.887E-01  0.887E-01
 -17.460  0.171E+00  0.103E-03  0.856E-01  0.856E-01
 -17.450  0.168E+00  0.107E-03  0.837E-01  0.837E-01
 -17.440  0.167E+00  0.112E-03  0.836E-01  0.836E-01
 -17.430  0.171E+00  0.118E-03  0.854E-01  0.854E-01
 -17.420  0.178E+00  0.125E-03  0.889E-01  0.889E-01
 -17.410  0.187E+00  0.131E-03  0.936E-01  0.936E-01
 -17.400  0.198E+00  0.137E-03  0.990E-01  0.990E-01
 -17.390  0.208E+00  0.143E-03  0.104E+00  0.104E+00
 -17.380  0.217E+00  0.147E-03  0.108E+00  0.108E+00
 -17.370  0.222E+00  0.150E-03  0.111E+00  0.111E+00
 -17.360  0.223E+00  0.150E-03  0.112E+00  0.112E+00
 -17.350  0.221E+00  0.149E-03  0.110E+00  0.110E+00
 -17.340  0.215E+00  0.146E-03  0.108E+00  0.108E+00
 -17.330  0.208E+00  0.141E-03  0.104E+00  0.104E+00
 -17.320  0.200E+00  0.133E-03  0.100E+00  0.100E+00
 -17.310  0.194E+00  0.125E-03  0.967E-01  0.967E-01
 -17.300  0.190E+00  0.115E-03  0.948E-01  0.948E-01
 -17.290  0.190E+00  0.105E-03  0.947E-01  0.947E-01
 -17.280  0.193E+00  0.965E-04  0.967E-01  0.967E-01
 -17.270  0.201E+00  0.892E-04  0.101E+00  0.101E+00
 -17.260  0.212E+00  0.840E-04  0.106E+00  0.106E+00
 -17.250  0.223E+00  0.814E-04  0.112E+00  0.112E+00
 -17.240  0.235E+00  0.813E-04  0.117E+00  0.117E+00
 -17.230  0.244E+00  0.839E-04  0.122E+00  0.122E+00
 -17.220  0.249E+00  0.888E-04  0.125E+00  0.125E+00
 -17.210  0.251E+00  0.956E-04  0.125E+00  0.125E+00
 -17.200  0.249E+00  0.104E-03  0.124E+00  0.124E+00
 -17.190  0.243E+00  0.112E-03  0.122E+00  0.122E+00
 -17.180  0.236E+00  0.120E-03  0.118E+00  0.118E+00
 -17.170  0.229E+00  0.127E-03  0.114E+00  0.114E+00
 -17.160  0.223E+00  0.131E-03  0.112E+00  0.112E+00
 -17.150  0.222E+00  0.133E-03  0.111E+00  0.111E+00
 -17.140  0.224E+00  0.131E-03  0.112E+00  0.112E+00
 -17.130  0.231E+00  0.127E-03  0.115E+00  0.115E+00
 -17.120  0.241E+00  0.122E-03  0.121E+00  0.121E+00
 -17.110  0.254E+00  0.116E-03  0.127E+00  0.127E+00
 -17.100  0.268E+00  0.109E-03  0.134E+00  0.134E+00
 -17.090  0.280E+00  0.104E-03  0.140E+00  0.140E+00
 -17.080  0.289E+00  0.987E-04  0.145E+00  0.145E+00
 -17.070  0.294E+00  0.943E-04  0.147E+00  0.147E+00
 -17.060  0.295E+00  0.903E-04  0.147E+00  0.147E+00
 -17.050  0.292E+00  0.862E-04  0.146E+00  0.146E+00
 -17.040  0.286E+00  0.821E-04  0.143E+00  0.143E+00
 -17.030  0.280E+00  0.780E-04  0.140E+00  0.140E+00
 -17.020  0.276E+00  0.744E-04  0.138E+00  0.138E+00
 -17.010  0.276E+00  0.718E-04  0.138E+00  0.138E+00
 -17.000  0.280E+00  0.707E-04  0.140E+00  0.140E+00
 -16.990  0.291E+00  0.716E-04  0.145E+00  0.145E+00
 -16.980  0.306E+00  0.748E-04  0.153E+00  0.153E+00
 -16.970  0.324E+00  0.800E-04  0.162E+00  0.162E+00
 -16.960  0.344E+00  0.871E-04  0.172E+00  0.172E+00
 -16.950  0.362E+00  0.954E-04  0.181E+00  0.181E+00
 -16.940  0.378E+00  0.104E-03  0.189E+00  0.189E+00
 -16.930  0.390E+00  0.111E-03  0.195E+00  0.195E+00
 -16.920  0.398E+00  0.117E-03  0.199E+00  0.199E+00
 -16.910  0.403E+00  0.119E-03  0.202E+00  0.202E+00
 -16.900  0.408E+00  0.118E-03  0.204E+00  0.204E+00
 -16.890  0.414E+00  0.114E-03  0.207E+00  0.207E+00
 -16.880  0.424E+00  0.107E-03  0.212E+00  0.212E+00
 -16.870  0.439E+00  0.983E-04  0.219E+00  0.219E+00
 -16.860  0.457E+00  0.892E-04  0.229E+00  0.229E+00
 -16.850  0.478E+00  0.809E-04  0.239E+00  0.239E+00
 -16.840  0.498E+00  0.744E-04  0.249E+00  0.249E+00
 -16.830  0.512E+00  0.699E-04  0.256E+00  0.256E+00
 -16.820  0.518E+00  0.675E-04  0.259E+00  0.259E+00
 -16.810  0.512E+00  0.667E-04  0.256E+00  0.256E+00
 -16.800  0.494E+00  0.667E-04  0.247E+00  0.247E+00
 -16.790  0.466E+00  0.670E-04  0.233E+00  0.233E+00
 -16.780  0.432E+00  0.671E-04  0.216E+00  0.216E+00
 -16.770  0.398E+00  0.670E-04  0.199E+00  0.199E+00
 -16.760  0.367E+00  0.668E-04  0.183E+00  0.183E+00
 -16.750  0.344E+00  0.671E-04  0.172E+00  0.172E+00
 -16.740  0.330E+00  0.681E-04  0.165E+00  0.165E+00
 -16.730  0.325E+00  0.703E-04  0.162E+00  0.162E+00
 -16.720  0.325E+00  0.738E-04  0.162E+00  0.162E+00
 -16.710  0.326E+00  0.783E-04  0.163E+00  0.163E+00
 -16.700  0.325E+00  0.835E-04  0.162E+00  0.162E+00
 -16.690  0.320E+00  0.887E-04  0.160E+00  0.160E+00
 -16.680  0.310E+00  0.934E-04  0.155E+00  0.155E+00
 -16.670  0.298E+00  0.970E-04  0.149E+00  0.149E+00
 -16.660  0.285E+00  0.988E-04  0.142E+00  0.142E+00
 -16.650  0.275E+00  0.985E-04  0.137E+00  0.137E+00
 -16.640  0.268E+00  0.961E-04  0.134E+00  0.134E+00
 -16.630  0.266E+00  0.917E-04  0.133E+00  0.133E+00
 -16.620  0.268E+00  0.855E-04  0.134E+00  0.134E+00
 -16.610  0.270E+00  0.782E-04  0.135E+00  0.135E+00
 -16.600  0.272E+00  0.706E-04  0.136E+00  0.136E+00
 -16.590  0.271E+00  0.634E-04  0.136E+00  0.136E+00
 -16.580  0.268E+00  0.574E-04  0.134E+00  0.134E+00
 -16.570  0.262E+00  0.530E-04  0.131E+00  0.131E+00
 -16.560  0.255E+00  0.506E-04  0.127E+00  0.127E+00
 -16.550  0.248E+00  0.500E-04  0.124E+00  0.124E+00
 -16.540  0.243E+00  0.510E-04  0.121E+00  0.121E+00
 -16.530  0.240E+00  0.531E-04  0.120E+00  0.120E+00
 -16.520  0.239E+00  0.558E-04  0.119E+00  0.119E+00
 -16.510  0.238E+00  0.587E-04  0.119E+00  0.119E+00
 -16.500  0.238E+00  0.618E-04  0.119E+00  0.119E+00
 -16.490  0.237E+00  0.647E-04  0.118E+00  0.118E+00
 -16.480  0.235E+00  0.677E-04  0.117E+00  0.117E+00
 -16.470  0.232E+00  0.707E-04  0.116E+00  0.116E+00
 -16.460  0.228E+00  0.737E-04  0.114E+00  0.114E+00
 -16.450  0.225E+00  0.765E-04  0.112E+00  0.112E+00
 -16.440  0.222E+00  0.788E-04  0.111E+00  0.111E+00
 -16.430  0.220E+00  0.804E-04  0.110E+00  0.110E+00
 -16.420  0.218E+00  0.810E-04  0.109E+00  0.109E+00
 -16.410  0.217E+00  0.806E-04  0.108E+00  0.108E+00
 -16.400  0.215E+00  0.792E-04  0.107E+00  0.107E+00
 -16.390  0.213E+00  0.772E-04  0.107E+00  0.107E+00
 -16.380  0.211E+00  0.747E-04  0.106E+00  0.106E+00
 -16.370  0.209E+00  0.719E-04  0.104E+00  0.104E+00
 -16.360  0.206E+00  0.689E-04  0.103E+00  0.103E+00
 -16.350  0.204E+00  0.655E-04  0.102E+00  0.102E+00
 -16.340  0.201E+00  0.618E-04  0.101E+00  0.101E+00
 -16.330  0.198E+00  0.577E-04  0.990E-01  0.990E-01
 -16.320  0.194E+00  0.534E-04  0.971E-01  0.971E-01
 -16.310  0.189E+00  0.492E-04  0.945E-01  0.945E-01
 -16.300  0.182E+00  0.456E-04  0.910E-01  0.910E-01
 -16.290  0.173E+00  0.430E-04  0.865E-01  0.865E-01
 -16.280  0.161E+00  0.418E-04  0.807E-01  0.807E-01
 -16.270  0.147E+00  0.422E-04  0.736E-01  0.736E-01
 -16.260  0.130E+00  0.442E-04  0.651E-01  0.651E-01
 -16.250  0.111E+00  0.476E-04  0.555E-01  0.555E-01
 -16.240  0.901E-01  0.520E-04  0.450E-01  0.450E-01
 -16.230  0.686E-01  0.570E-04  0.343E-01  0.343E-01
 -16.220  0.478E-01  0.621E-04  0.239E-01  0.239E-01
 -16.210  0.289E-01  0.669E-04  0.144E-01  0.144E-01
 -16.200  0.127E-01  0.709E-04  0.634E-02  0.634E-02
 -16.190  0.193E-03  0.739E-04  0.597E-04  0.597E-04
 -16.180 -0.856E-02  0.756E-04 -0.432E-02 -0.432E-02
 -16.170 -0.137E-01  0.758E-04 -0.689E-02 -0.689E-02
 -16.160 -0.158E-01  0.745E-04 -0.792E-02 -0.792E-02
 -16.150 -0.155E-01  0.719E-04 -0.781E-02 -0.781E-02
 -16.140 -0.138E-01  0.683E-04 -0.694E-02 -0.694E-02
 -16.130 -0.113E-01  0.642E-04 -0.570E-02 -0.570E-02
 -16.120 -0.868E-02  0.601E-04 -0.437E-02 -0.437E-02
 -16.110 -0.625E-02  0.566E-04 -0.315E-02 -0.315E-02
 -16.100 -0.423E-02  0.539E-04 -0.214E-02 -0.214E-02
 -16.090 -0.269E-02  0.522E-04 -0.137E-02 -0.137E-02
 -16.080 -0.159E-02  0.513E-04 -0.819E-03 -0.819E-03
 -16.070 -0.853E-03  0.507E-04 -0.452E-03 -0.452E-03
 -16.060 -0.392E-03  0.500E-04 -0.221E-03 -0.221E-03
 -16.050 -0.120E-03  0.489E-04 -0.845E-04 -0.845E-04
 -16.040  0.295E-04  0.472E-04 -0.884E-05 -0.884E-05
 -16.030  0.105E-03  0.450E-04  0.298E-04  0.298E-04
 -16.020  0.138E-03  0.426E-04  0.477E-04  0.477E-04
 -16.010  0.151E-03  0.406E-04  0.552E-04  0.552E-04
 -16.000  0.157E-03  0.396E-04  0.587E-04  0.587E-04
 -15.990  0.163E-03  0.400E-04  0.617E-04  0.617E-04
 -15.980  0.174E-03  0.419E-04  0.662E-04  0.662E-04
 -15.970  0.191E-03  0.455E-04  0.727E-04  0.727E-04
 -15.960  0.212E-03  0.503E-04  0.810E-04  0.810E-04
 -15.950  0.237E-03  0.558E-04  0.904E-04  0.904E-04
 -15.940  0.261E-03  0.613E-04  0.998E-04  0.998E-04
 -15.930  0.282E-03  0.661E-04  0.108E-03  0.108E-03
 -15.920  0.297E-03  0.696E-04  0.114E-03  0.114E-03
 -15.910  0.305E-03  0.713E-04  0.117E-03  0.117E-03
 -15.900  0.304E-03  0.713E-04  0.116E-03  0.116E-03
 -15.890  0.295E-03  0.695E-04  0.113E-03  0.113E-03
 -15.880  0.279E-03  0.663E-04  0.106E-03  0.106E-03
 -15.870  0.258E-03  0.620E-04  0.980E-04  0.980E-04
 -15.860  0.235E-03  0.572E-04  0.888E-04  0.888E-04
 -15.850  0.211E-03  0.524E-04  0.794E-04  0.794E-04
 -15.840  0.190E-03  0.481E-04  0.707E-04  0.707E-04
 -15.830  0.171E-03  0.447E-04  0.634E-04  0.634E-04
 -15.820  0.158E-03  0.424E-04  0.577E-04  0.577E-04
 -15.810  0.149E-03  0.412E-04  0.539E-04  0.539E-04
 -15.800  0.145E-03  0.411E-04  0.517E-04  0.517E-04
 -15.790  0.143E-03  0.417E-04  0.508E-04  0.508E-04
 -15.780  0.144E-03  0.426E-04  0.507E-04  0.507E-04
 -15.770  0.145E-03  0.434E-04  0.509E-04  0.509E-04
 -15.760  0.145E-03  0.437E-04  0.508E-04  0.508E-04
 -15.750  0.144E-03  0.434E-04  0.504E-04  0.504E-04
 -15.740  0.142E-03  0.427E-04  0.498E-04  0.498E-04
 -15.730  0.140E-03  0.418E-04  0.493E-04  0.493E-04
 -15.720  0.140E-03  0.412E-04  0.495E-04  0.495E-04
 -15.710  0.143E-03  0.414E-04  0.509E-04  0.509E-04
 -15.700  0.151E-03  0.429E-04  0.538E-04  0.538E-04
 -15.690  0.162E-03  0.457E-04  0.582E-04  0.582E-04
 -15.680  0.177E-03  0.495E-04  0.638E-04  0.638E-04
 -15.670  0.194E-03  0.540E-04  0.700E-04  0.700E-04
 -15.660  0.210E-03  0.585E-04  0.757E-04  0.757E-04
 -15.650  0.223E-03  0.623E-04  0.802E-04  0.802E-04
 -15.640  0.230E-03  0.648E-04  0.827E-04  0.827E-04
 -15.630  0.231E-03  0.657E-04  0.828E-04  0.828E-04
 -15.620  0.226E-03  0.649E-04  0.805E-04  0.805E-04
 -15.610  0.215E-03  0.627E-04  0.762E-04  0.762E-04
 -15.600  0.200E-03  0.592E-04  0.704E-04  0.704E-04
 -15.590  0.183E-03  0.552E-04  0.638E-04  0.638E-04
 -15.580  0.165E-03  0.509E-04  0.572E-04  0.572E-04
 -15.570  0.149E-03  0.468E-04  0.510E-04  0.510E-04
 -15.560  0.134E-03  0.433E-04  0.455E-04  0.455E-04
 -15.550  0.123E-03  0.404E-04  0.411E-04  0.411E-04
 -15.540  0.114E-03  0.384E-04  0.376E-04  0.376E-04
 -15.530  0.108E-03  0.374E-04  0.352E-04  0.352E-04
 -15.520  0.105E-03  0.372E-04  0.337E-04  0.337E-04
 -15.510  0.104E-03  0.378E-04  0.331E-04  0.331E-04
 -15.500  0.105E-03  0.388E-04  0.331E-04  0.331E-04
 -15.490  0.107E-03  0.402E-04  0.336E-04  0.336E-04
 -15.480  0.110E-03  0.414E-04  0.343E-04  0.343E-04
 -15.470  0.112E-03  0.423E-04  0.351E-04  0.351E-04
 -15.460  0.115E-03  0.429E-04  0.359E-04  0.359E-04
 -15.450  0.117E-03  0.432E-04  0.370E-04  0.370E-04
 -15.440  0.120E-03  0.436E-04  0.384E-04  0.384E-04
 -15.430  0.125E-03  0.444E-04  0.404E-04  0.404E-04
 -15.420  0.132E-03  0.459E-04  0.431E-04  0.431E-04
 -15.410  0.141E-03  0.482E-04  0.465E-04  0.465E-04
 -15.400  0.152E-03  0.513E-04  0.502E-04  0.502E-04
 -15.390  0.163E-03  0.548E-04  0.539E-04  0.539E-04
 -15.380  0.172E-03  0.582E-04  0.570E-04  0.570E-04
 -15.370  0.179E-03  0.610E-04  0.589E-04  0.589E-04
 -15.360  0.181E-03  0.625E-04  0.594E-04  0.594E-04
 -15.350  0.179E-03  0.627E-04  0.582E-04  0.582E-04
 -15.340  0.172E-03  0.615E-04  0.554E-04  0.554E-04
 -15.330  0.162E-03  0.590E-04  0.515E-04  0.515E-04
 -15.320  0.150E-03  0.558E-04  0.470E-04  0.470E-04
 -15.310  0.137E-03  0.522E-04  0.422E-04  0.422E-04
 -15.300  0.124E-03  0.488E-04  0.378E-04  0.378E-04
 -15.290  0.114E-03  0.458E-04  0.339E-04  0.339E-04
 -15.280  0.105E-03  0.436E-04  0.307E-04  0.307E-04
 -15.270  0.987E-04  0.421E-04  0.283E-04  0.283E-04
 -15.260  0.944E-04  0.413E-04  0.266E-04  0.266E-04
 -15.250  0.919E-04  0.412E-04  0.254E-04  0.254E-04
 -15.240  0.908E-04  0.416E-04  0.246E-04  0.246E-04
 -15.230  0.906E-04  0.422E-04  0.242E-04  0.242E-04
 -15.220  0.910E-04  0.430E-04  0.240E-04  0.240E-04
 -15.210  0.919E-04  0.438E-04  0.241E-04  0.241E-04
 -15.200  0.932E-04  0.446E-04  0.243E-04  0.243E-04
 -15.190  0.950E-04  0.454E-04  0.248E-04  0.248E-04
 -15.180  0.978E-04  0.463E-04  0.258E-04  0.258E-04
 -15.170  0.102E-03  0.477E-04  0.271E-04  0.271E-04
 -15.160  0.108E-03  0.498E-04  0.291E-04  0.291E-04
 -15.150  0.116E-03  0.528E-04  0.317E-04  0.317E-04
 -15.140  0.126E-03  0.566E-04  0.348E-04  0.348E-04
 -15.130  0.137E-03  0.609E-04  0.381E-04  0.381E-04
 -15.120  0.148E-03  0.655E-04  0.412E-04  0.412E-04
 -15.110  0.158E-03  0.697E-04  0.439E-04  0.439E-04
 -15.100  0.165E-03  0.733E-04  0.457E-04  0.457E-04
 -15.090  0.169E-03  0.758E-04  0.464E-04  0.464E-04
 -15.080  0.169E-03  0.772E-04  0.458E-04  0.458E-04
 -15.070  0.166E-03  0.776E-04  0.442E-04  0.442E-04
 -15.060  0.161E-03  0.771E-04  0.417E-04  0.417E-04
 -15.050  0.153E-03  0.758E-04  0.387E-04  0.387E-04
 -15.040  0.145E-03  0.739E-04  0.354E-04  0.354E-04
 -15.030  0.136E-03  0.716E-04  0.322E-04  0.322E-04
 -15.020  0.127E-03  0.688E-04  0.291E-04  0.291E-04
 -15.010  0.118E-03  0.656E-04  0.264E-04  0.264E-04
 -15.000  0.110E-03  0.620E-04  0.240E-04  0.240E-04
 -14.990  0.102E-03  0.581E-04  0.219E-04  0.219E-04
 -14.980  0.942E-04  0.540E-04  0.201E-04  0.201E-04
 -14.970  0.868E-04  0.499E-04  0.185E-04  0.185E-04
 -14.960  0.800E-04  0.459E-04  0.171E-04  0.171E-04
 -14.950  0.739E-04  0.421E-04  0.159E-04  0.159E-04
 -14.940  0.687E-04  0.389E-04  0.149E-04  0.149E-04
 -14.930  0.649E-04  0.363E-04  0.143E-04  0.143E-04
 -14.920  0.627E-04  0.345E-04  0.141E-04  0.141E-04
 -14.910  0.626E-04  0.337E-04  0.144E-04  0.144E-04
 -14.900  0.646E-04  0.340E-04  0.153E-04  0.153E-04
 -14.890  0.687E-04  0.352E-04  0.167E-04  0.167E-04
 -14.880  0.746E-04  0.373E-04  0.186E-04  0.186E-04
 -14.870  0.815E-04  0.397E-04  0.209E-04  0.209E-04
 -14.860  0.886E-04  0.421E-04  0.233E-04  0.233E-04
 -14.850  0.949E-04  0.440E-04  0.254E-04  0.254E-04
 -14.840  0.994E-04  0.451E-04  0.272E-04  0.272E-04
 -14.830  0.102E-03  0.451E-04  0.282E-04  0.282E-04
 -14.820  0.101E-03  0.441E-04  0.285E-04  0.285E-04
 -14.810  0.982E-04  0.423E-04  0.280E-04  0.280E-04
 -14.800  0.935E-04  0.400E-04  0.267E-04  0.267E-04
 -14.790  0.878E-04  0.378E-04  0.250E-04  0.250E-04
 -14.780  0.820E-04  0.360E-04  0.230E-04  0.230E-04
 -14.770  0.765E-04  0.346E-04  0.210E-04  0.210E-04
 -14.760  0.719E-04  0.338E-04  0.190E-04  0.190E-04
 -14.750  0.680E-04  0.334E-04  0.173E-04  0.173E-04
 -14.740  0.644E-04  0.330E-04  0.157E-04  0.157E-04
 -14.730  0.606E-04  0.322E-04  0.142E-04  0.142E-04
 -14.720  0.561E-04  0.307E-04  0.127E-04  0.127E-04
 -14.710  0.505E-04  0.283E-04  0.111E-04  0.111E-04
 -14.700  0.437E-04  0.251E-04  0.934E-05  0.934E-05
 -14.690  0.362E-04  0.211E-04  0.753E-05  0.753E-05
 -14.680  0.284E-04  0.168E-04  0.577E-05  0.577E-05
 -14.670  0.212E-04  0.127E-04  0.423E-05  0.423E-05
 -14.660  0.155E-04  0.932E-05  0.310E-05  0.310E-05
 -14.650  0.122E-04  0.709E-05  0.255E-05  0.255E-05
 -14.640  0.118E-04  0.636E-05  0.272E-05  0.272E-05
 -14.630  0.147E-04  0.729E-05  0.370E-05  0.370E-05
 -14.620  0.208E-04  0.986E-05  0.549E-05  0.549E-05
 -14.610  0.300E-04  0.139E-04  0.803E-05  0.803E-05
 -14.600  0.414E-04  0.191E-04  0.112E-04  0.112E-04
 -14.590  0.544E-04  0.251E-04  0.147E-04  0.147E-04
 -14.580  0.676E-04  0.312E-04  0.182E-04  0.182E-04
 -14.570  0.798E-04  0.369E-04  0.215E-04  0.215E-04
 -14.560  0.895E-04  0.415E-04  0.240E-04  0.240E-04
 -14.550  0.955E-04  0.444E-04  0.256E-04  0.256E-04
 -14.540  0.968E-04  0.452E-04  0.258E-04  0.258E-04
 -14.530  0.930E-04  0.437E-04  0.247E-04  0.247E-04
 -14.520  0.844E-04  0.399E-04  0.223E-04  0.223E-04
 -14.510  0.719E-04  0.343E-04  0.188E-04  0.188E-04
 -14.500  0.571E-04  0.275E-04  0.148E-04  0.148E-04
 -14.490  0.415E-04  0.203E-04  0.106E-04  0.106E-04
 -14.480  0.270E-04  0.136E-04  0.671E-05  0.671E-05
 -14.470  0.149E-04  0.792E-05  0.347E-05  0.347E-05
 -14.460  0.585E-05  0.369E-05  0.108E-05  0.108E-05
 -14.450  0.240E-06  0.105E-05 -0.405E-06 -0.405E-06
 -14.440 -0.222E-05 -0.999E-07 -0.106E-05 -0.106E-05
 -14.430 -0.212E-05 -0.269E-07 -0.105E-05 -0.105E-05
 -14.420 -0.136E-06  0.947E-06 -0.541E-06 -0.541E-06
 -14.410  0.311E-05  0.253E-05  0.290E-06  0.290E-06
 -14.400  0.718E-05  0.450E-05  0.134E-05  0.134E-05
 -14.390  0.119E-04  0.678E-05  0.255E-05  0.255E-05
 -14.380  0.171E-04  0.931E-05  0.391E-05  0.391E-05
 -14.370  0.230E-04  0.121E-04  0.545E-05  0.545E-05
 -14.360  0.296E-04  0.152E-04  0.718E-05  0.718E-05
 -14.350  0.367E-04  0.185E-04  0.906E-05  0.906E-05
 -14.340  0.440E-04  0.219E-04  0.110E-04  0.110E-04
 -14.330  0.509E-04  0.251E-04  0.129E-04  0.129E-04
 -14.320  0.569E-04  0.277E-04  0.146E-04  0.146E-04
 -14.310  0.611E-04  0.295E-04  0.158E-04  0.158E-04
 -14.300  0.629E-04  0.301E-04  0.164E-04  0.164E-04
 -14.290  0.618E-04  0.293E-04  0.162E-04  0.162E-04
 -14.280  0.577E-04  0.272E-04  0.152E-04  0.152E-04
 -14.270  0.509E-04  0.239E-04  0.135E-04  0.135E-04
 -14.260  0.423E-04  0.198E-04  0.112E-04  0.112E-04
 -14.250  0.328E-04  0.154E-04  0.871E-05  0.871E-05
 -14.240  0.234E-04  0.110E-04  0.617E-05  0.617E-05
 -14.230  0.151E-04  0.729E-05  0.392E-05  0.392E-05
 -14.220  0.858E-05  0.436E-05  0.211E-05  0.211E-05
 -14.210  0.409E-05  0.238E-05  0.858E-06  0.858E-06
 -14.200  0.162E-05  0.132E-05  0.149E-06  0.149E-06
 -14.190  0.887E-06  0.105E-05 -0.823E-07 -0.823E-07
 -14.180  0.152E-05  0.140E-05  0.614E-07  0.614E-07
 -14.170  0.314E-05  0.219E-05  0.473E-06  0.473E-06
 -14.160  0.543E-05  0.330E-05  0.106E-05  0.106E-05
 -14.150  0.816E-05  0.462E-05  0.177E-05  0.177E-05
 -14.140  0.112E-04  0.609E-05  0.254E-05  0.254E-05
 -14.130  0.144E-04  0.766E-05  0.337E-05  0.337E-05
 -14.120  0.177E-04  0.927E-05  0.421E-05  0.421E-05
 -14.110  0.210E-04  0.109E-04  0.507E-05  0.507E-05
 -14.100  0.243E-04  0.124E-04  0.592E-05  0.592E-05
 -14.090  0.273E-04  0.139E-04  0.674E-05  0.674E-05
 -14.080  0.301E-04  0.151E-04  0.749E-05  0.749E-05
 -14.070  0.323E-04  0.161E-04  0.812E-05  0.812E-05
 -14.060  0.339E-04  0.167E-04  0.857E-05  0.857E-05
 -14.050  0.345E-04  0.169E-04  0.880E-05  0.880E-05
 -14.040  0.340E-04  0.166E-04  0.873E-05  0.873E-05
 -14.030  0.324E-04  0.157E-04  0.835E-05  0.835E-05
 -14.020  0.297E-04  0.143E-04  0.767E-05  0.767E-05
 -14.010  0.260E-04  0.125E-04  0.676E-05  0.676E-05
 -14.000  0.219E-04  0.105E-04  0.570E-05  0.570E-05
 -13.990  0.177E-04  0.839E-05  0.464E-05  0.464E-05
 -13.980  0.139E-04  0.648E-05  0.371E-05  0.371E-05
 -13.970  0.110E-04  0.490E-05  0.303E-05  0.303E-05
 -13.960  0.916E-05  0.377E-05  0.269E-05  0.269E-05
 -13.950  0.863E-05  0.314E-05  0.275E-05  0.275E-05
 -13.940  0.940E-05  0.299E-05  0.320E-05  0.320E-05
 -13.930  0.114E-04  0.330E-05  0.404E-05  0.404E-05
 -13.920  0.144E-04  0.401E-05  0.522E-05  0.522E-05
 -13.910  0.184E-04  0.507E-05  0.666E-05  0.666E-05
 -13.900  0.230E-04  0.640E-05  0.828E-05  0.828E-05
 -13.890  0.279E-04  0.793E-05  0.998E-05  0.998E-05
 -13.880  0.329E-04  0.958E-05  0.116E-04  0.116E-04
 -13.870  0.376E-04  0.112E-04  0.132E-04  0.132E-04
 -13.860  0.418E-04  0.128E-04  0.145E-04  0.145E-04
 -13.850  0.453E-04  0.142E-04  0.155E-04  0.155E-04
 -13.840  0.480E-04  0.154E-04  0.163E-04  0.163E-04
 -13.830  0.498E-04  0.162E-04  0.168E-04  0.168E-04
 -13.820  0.510E-04  0.168E-04  0.171E-04  0.171E-04
 -13.810  0.514E-04  0.170E-04  0.172E-04  0.172E-04
 -13.800  0.512E-04  0.169E-04  0.171E-04  0.171E-04
 -13.790  0.504E-04  0.166E-04  0.169E-04  0.169E-04
 -13.780  0.489E-04  0.159E-04  0.165E-04  0.165E-04
 -13.770  0.467E-04  0.149E-04  0.159E-04  0.159E-04
 -13.760  0.439E-04  0.137E-04  0.151E-04  0.151E-04
 -13.750  0.408E-04  0.125E-04  0.142E-04  0.142E-04
 -13.740  0.378E-04  0.112E-04  0.133E-04  0.133E-04
 -13.730  0.353E-04  0.103E-04  0.125E-04  0.125E-04
 -13.720  0.336E-04  0.965E-05  0.120E-04  0.120E-04
 -13.710  0.331E-04  0.946E-05  0.118E-04  0.118E-04
 -13.700  0.337E-04  0.969E-05  0.120E-04  0.120E-04
 -13.690  0.352E-04  0.102E-04  0.125E-04  0.125E-04
 -13.680  0.371E-04  0.109E-04  0.131E-04  0.131E-04
 -13.670  0.388E-04  0.115E-04  0.136E-04  0.136E-04
 -13.660  0.399E-04  0.120E-04  0.140E-04  0.140E-04
 -13.650  0.402E-04  0.122E-04  0.140E-04  0.140E-04
 -13.640  0.397E-04  0.122E-04  0.138E-04  0.138E-04
 -13.630  0.386E-04  0.120E-04  0.133E-04  0.133E-04
 -13.620  0.374E-04  0.119E-04  0.128E-04  0.128E-04
 -13.610  0.367E-04  0.118E-04  0.124E-04  0.124E-04
 -13.600  0.367E-04  0.121E-04  0.123E-04  0.123E-04
 -13.590  0.377E-04  0.126E-04  0.125E-04  0.125E-04
 -13.580  0.395E-04  0.134E-04  0.130E-04  0.130E-04
 -13.570  0.417E-04  0.142E-04  0.138E-04  0.138E-04
 -13.560  0.438E-04  0.149E-04  0.145E-04  0.145E-04
 -13.550  0.454E-04  0.153E-04  0.150E-04  0.150E-04
 -13.540  0.460E-04  0.154E-04  0.153E-04  0.153E-04
 -13.530  0.454E-04  0.151E-04  0.152E-04  0.152E-04
 -13.520  0.438E-04  0.144E-04  0.147E-04  0.147E-04
 -13.510  0.413E-04  0.134E-04  0.139E-04  0.139E-04
 -13.500  0.385E-04  0.124E-04  0.130E-04  0.130E-04
 -13.490  0.357E-04  0.114E-04  0.121E-04  0.121E-04
 -13.480  0.333E-04  0.106E-04  0.114E-04  0.114E-04
 -13.470  0.317E-04  0.100E-04  0.108E-04  0.108E-04
 -13.460  0.310E-04  0.978E-05  0.106E-04  0.106E-04
 -13.450  0.313E-04  0.988E-05  0.107E-04  0.107E-04
 -13.440  0.326E-04  0.103E-04  0.111E-04  0.111E-04
 -13.430  0.346E-04  0.110E-04  0.118E-04  0.118E-04
 -13.420  0.371E-04  0.120E-04  0.126E-04  0.126E-04
 -13.410  0.398E-04  0.130E-04  0.134E-04  0.134E-04
 -13.400  0.422E-04  0.140E-04  0.141E-04  0.141E-04
 -13.390  0.440E-04  0.149E-04  0.145E-04  0.145E-04
 -13.380  0.450E-04  0.155E-04  0.147E-04  0.147E-04
 -13.370  0.450E-04  0.158E-04  0.146E-04  0.146E-04
 -13.360  0.442E-04  0.158E-04  0.142E-04  0.142E-04
 -13.350  0.428E-04  0.154E-04  0.137E-04  0.137E-04
 -13.340  0.411E-04  0.149E-04  0.131E-04  0.131E-04
 -13.330  0.395E-04  0.144E-04  0.126E-04  0.126E-04
 -13.320  0.385E-04  0.140E-04  0.123E-04  0.123E-04
 -13.310  0.382E-04  0.138E-04  0.122E-04  0.122E-04
 -13.300  0.386E-04  0.138E-04  0.124E-04  0.124E-04
 -13.290  0.397E-04  0.140E-04  0.128E-04  0.128E-04
 -13.280  0.411E-04  0.144E-04  0.133E-04  0.133E-04
 -13.270  0.426E-04  0.150E-04  0.138E-04  0.138E-04
 -13.260  0.440E-04  0.156E-04  0.142E-04  0.142E-04
 -13.250  0.454E-04  0.163E-04  0.145E-04  0.145E-04
 -13.240  0.467E-04  0.171E-04  0.148E-04  0.148E-04
 -13.230  0.483E-04  0.181E-04  0.151E-04  0.151E-04
 -13.220  0.502E-04  0.193E-04  0.155E-04  0.155E-04
 -13.210  0.526E-04  0.206E-04  0.160E-04  0.160E-04
 -13.200  0.553E-04  0.220E-04  0.166E-04  0.166E-04
 -13.190  0.581E-04  0.234E-04  0.173E-04  0.173E-04
 -13.180  0.605E-04  0.245E-04  0.180E-04  0.180E-04
 -13.170  0.623E-04  0.253E-04  0.185E-04  0.185E-04
 -13.160  0.632E-04  0.257E-04  0.188E-04  0.188E-04
 -13.150  0.632E-04  0.256E-04  0.188E-04  0.188E-04
 -13.140  0.622E-04  0.251E-04  0.185E-04  0.185E-04
 -13.130  0.606E-04  0.243E-04  0.181E-04  0.181E-04
 -13.120  0.587E-04  0.236E-04  0.176E-04  0.176E-04
 -13.110  0.570E-04  0.229E-04  0.171E-04  0.171E-04
 -13.100  0.558E-04  0.224E-04  0.167E-04  0.167E-04
 -13.090  0.552E-04  0.223E-04  0.165E-04  0.165E-04
 -13.080  0.553E-04  0.225E-04  0.164E-04  0.164E-04
 -13.070  0.559E-04  0.229E-04  0.165E-04  0.165E-04
 -13.060  0.569E-04  0.236E-04  0.167E-04  0.167E-04
 -13.050  0.579E-04  0.242E-04  0.168E-04  0.168E-04
 -13.040  0.586E-04  0.246E-04  0.170E-04  0.170E-04
 -13.030  0.589E-04  0.249E-04  0.170E-04  0.170E-04
 -13.020  0.585E-04  0.248E-04  0.169E-04  0.169E-04
 -13.010  0.576E-04  0.244E-04  0.166E-04  0.166E-04
 -13.000  0.560E-04  0.236E-04  0.162E-04  0.162E-04
 -12.990  0.540E-04  0.227E-04  0.157E-04  0.157E-04
 -12.980  0.518E-04  0.216E-04  0.151E-04  0.151E-04
 -12.970  0.494E-04  0.205E-04  0.145E-04  0.145E-04
 -12.960  0.471E-04  0.194E-04  0.138E-04  0.138E-04
 -12.950  0.449E-04  0.184E-04  0.132E-04  0.132E-04
 -12.940  0.430E-04  0.176E-04  0.127E-04  0.127E-04
 -12.930  0.414E-04  0.170E-04  0.122E-04  0.122E-04
 -12.920  0.404E-04  0.167E-04  0.118E-04  0.118E-04
 -12.910  0.399E-04  0.166E-04  0.117E-04  0.117E-04
 -12.900  0.403E-04  0.169E-04  0.117E-04  0.117E-04
 -12.890  0.416E-04  0.175E-04  0.120E-04  0.120E-04
 -12.880  0.437E-04  0.185E-04  0.126E-04  0.126E-04
 -12.870  0.465E-04  0.198E-04  0.133E-04  0.133E-04
 -12.860  0.496E-04  0.212E-04  0.142E-04  0.142E-04
 -12.850  0.525E-04  0.224E-04  0.150E-04  0.150E-04
 -12.840  0.546E-04  0.234E-04  0.156E-04  0.156E-04
 -12.830  0.556E-04  0.238E-04  0.159E-04  0.159E-04
 -12.820  0.551E-04  0.236E-04  0.157E-04  0.157E-04
 -12.810  0.531E-04  0.227E-04  0.152E-04  0.152E-04
 -12.800  0.500E-04  0.214E-04  0.143E-04  0.143E-04
 -12.790  0.463E-04  0.197E-04  0.133E-04  0.133E-04
 -12.780  0.425E-04  0.180E-04  0.123E-04  0.123E-04
 -12.770  0.393E-04  0.165E-04  0.114E-04  0.114E-04
 -12.760  0.370E-04  0.155E-04  0.108E-04  0.108E-04
 -12.750  0.360E-04  0.150E-04  0.105E-04  0.105E-04
 -12.740  0.361E-04  0.150E-04  0.106E-04  0.106E-04
 -12.730  0.372E-04  0.155E-04  0.108E-04  0.108E-04
 -12.720  0.388E-04  0.162E-04  0.113E-04  0.113E-04
 -12.710  0.406E-04  0.171E-04  0.117E-04  0.117E-04
 -12.700  0.424E-04  0.181E-04  0.122E-04  0.122E-04
 -12.690  0.440E-04  0.189E-04  0.125E-04  0.125E-04
 -12.680  0.454E-04  0.197E-04  0.129E-04  0.129E-04
 -12.670  0.468E-04  0.204E-04  0.132E-04  0.132E-04
 -12.660  0.481E-04  0.210E-04  0.136E-04  0.136E-04
 -12.650  0.493E-04  0.215E-04  0.139E-04  0.139E-04
 -12.640  0.502E-04  0.218E-04  0.142E-04  0.142E-04
 -12.630  0.507E-04  0.219E-04  0.144E-04  0.144E-04
 -12.620  0.503E-04  0.216E-04  0.144E-04  0.144E-04
 -12.610  0.490E-04  0.210E-04  0.140E-04  0.140E-04
 -12.600  0.468E-04  0.199E-04  0.135E-04  0.135E-04
 -12.590  0.439E-04  0.186E-04  0.126E-04  0.126E-04
 -12.580  0.405E-04  0.172E-04  0.117E-04  0.117E-04
 -12.570  0.374E-04  0.158E-04  0.108E-04  0.108E-04
 -12.560  0.348E-04  0.147E-04  0.101E-04  0.101E-04
 -12.550  0.332E-04  0.140E-04  0.960E-05  0.960E-05
 -12.540  0.329E-04  0.139E-04  0.949E-05  0.949E-05
 -12.530  0.337E-04  0.142E-04  0.972E-05  0.972E-05
 -12.520  0.354E-04  0.150E-04  0.102E-04  0.102E-04
 -12.510  0.379E-04  0.161E-04  0.109E-04  0.109E-04
 -12.500  0.407E-04  0.173E-04  0.117E-04  0.117E-04
 -12.490  0.435E-04  0.186E-04  0.124E-04  0.124E-04
 -12.480  0.460E-04  0.198E-04  0.131E-04  0.131E-04
 -12.470  0.480E-04  0.208E-04  0.136E-04  0.136E-04
 -12.460  0.494E-04  0.215E-04  0.139E-04  0.139E-04
 -12.450  0.502E-04  0.220E-04  0.141E-04  0.141E-04
 -12.440  0.503E-04  0.221E-04  0.141E-04  0.141E-04
 -12.430  0.498E-04  0.218E-04  0.140E-04  0.140E-04
 -12.420  0.487E-04  0.212E-04  0.137E-04  0.137E-04
 -12.410  0.469E-04  0.203E-04  0.133E-04  0.133E-04
 -12.400  0.446E-04  0.191E-04  0.127E-04  0.127E-04
 -12.390  0.417E-04  0.177E-04  0.120E-04  0.120E-04
 -12.380  0.385E-04  0.162E-04  0.112E-04  0.112E-04
 -12.370  0.353E-04  0.147E-04  0.103E-04  0.103E-04
 -12.360  0.324E-04  0.134E-04  0.950E-05  0.950E-05
 -12.350  0.304E-04  0.126E-04  0.890E-05  0.890E-05
 -12.340  0.295E-04  0.123E-04  0.861E-05  0.861E-05
 -12.330  0.300E-04  0.126E-04  0.871E-05  0.871E-05
 -12.320  0.320E-04  0.136E-04  0.923E-05  0.923E-05
 -12.310  0.354E-04  0.151E-04  0.101E-04  0.101E-04
 -12.300  0.396E-04  0.171E-04  0.113E-04  0.113E-04
 -12.290  0.442E-04  0.191E-04  0.125E-04  0.125E-04
 -12.280  0.485E-04  0.210E-04  0.137E-04  0.137E-04
 -12.270  0.517E-04  0.225E-04  0.146E-04  0.146E-04
 -12.260  0.535E-04  0.233E-04  0.151E-04  0.151E-04
 -12.250  0.535E-04  0.233E-04  0.151E-04  0.151E-04
 -12.240  0.519E-04  0.227E-04  0.146E-04  0.146E-04
 -12.230  0.491E-04  0.214E-04  0.138E-04  0.138E-04
 -12.220  0.454E-04  0.197E-04  0.129E-04  0.129E-04
 -12.210  0.417E-04  0.180E-04  0.118E-04  0.118E-04
 -12.200  0.384E-04  0.165E-04  0.110E-04  0.110E-04
 -12.190  0.359E-04  0.152E-04  0.103E-04  0.103E-04
 -12.180  0.343E-04  0.144E-04  0.992E-05  0.992E-05
 -12.170  0.335E-04  0.140E-04  0.977E-05  0.977E-05
 -12.160  0.335E-04  0.139E-04  0.979E-05  0.979E-05
 -12.150  0.337E-04  0.140E-04  0.989E-05  0.989E-05
 -12.140  0.342E-04  0.142E-04  0.100E-04  0.100E-04
 -12.130  0.347E-04  0.145E-04  0.101E-04  0.101E-04
 -12.120  0.353E-04  0.148E-04  0.102E-04  0.102E-04
 -12.110  0.362E-04  0.153E-04  0.104E-04  0.104E-04
 -12.100  0.374E-04  0.160E-04  0.107E-04  0.107E-04
 -12.090  0.391E-04  0.169E-04  0.111E-04  0.111E-04
 -12.080  0.414E-04  0.180E-04  0.117E-04  0.117E-04
 -12.070  0.441E-04  0.193E-04  0.124E-04  0.124E-04
 -12.060  0.469E-04  0.205E-04  0.132E-04  0.132E-04
 -12.050  0.494E-04  0.216E-04  0.139E-04  0.139E-04
 -12.040  0.512E-04  0.223E-04  0.144E-04  0.144E-04
 -12.030  0.519E-04  0.226E-04  0.147E-04  0.147E-04
 -12.020  0.512E-04  0.222E-04  0.145E-04  0.145E-04
 -12.010  0.492E-04  0.212E-04  0.140E-04  0.140E-04
 -12.000  0.460E-04  0.197E-04  0.131E-04  0.131E-04
 -11.990  0.421E-04  0.179E-04  0.121E-04  0.121E-04
 -11.980  0.378E-04  0.160E-04  0.109E-04  0.109E-04
 -11.970  0.338E-04  0.142E-04  0.983E-05  0.983E-05
 -11.960  0.305E-04  0.127E-04  0.891E-05  0.891E-05
 -11.950  0.281E-04  0.116E-04  0.827E-05  0.827E-05
 -11.940  0.270E-04  0.111E-04  0.796E-05  0.796E-05
 -11.930  0.272E-04  0.112E-04  0.800E-05  0.800E-05
 -11.920  0.286E-04  0.118E-04  0.839E-05  0.839E-05
 -11.910  0.312E-04  0.130E-04  0.910E-05  0.910E-05
 -11.900  0.348E-04  0.147E-04  0.101E-04  0.101E-04
 -11.890  0.390E-04  0.166E-04  0.112E-04  0.112E-04
 -11.880  0.434E-04  0.187E-04  0.124E-04  0.124E-04
 -11.870  0.476E-04  0.206E-04  0.135E-04  0.135E-04
 -11.860  0.511E-04  0.223E-04  0.144E-04  0.144E-04
 -11.850  0.534E-04  0.233E-04  0.150E-04  0.150E-04
 -11.840  0.543E-04  0.237E-04  0.153E-04  0.153E-04
 -11.830  0.535E-04  0.234E-04  0.151E-04  0.151E-04
 -11.820  0.514E-04  0.224E-04  0.145E-04  0.145E-04
 -11.810  0.481E-04  0.209E-04  0.136E-04  0.136E-04
 -11.800  0.441E-04  0.190E-04  0.125E-04  0.125E-04
 -11.790  0.398E-04  0.170E-04  0.114E-04  0.114E-04
 -11.780  0.356E-04  0.150E-04  0.103E-04  0.103E-04
 -11.770  0.320E-04  0.134E-04  0.934E-05  0.934E-05
 -11.760  0.293E-04  0.121E-04  0.862E-05  0.862E-05
 -11.750  0.277E-04  0.113E-04  0.819E-05  0.819E-05
 -11.740  0.273E-04  0.111E-04  0.809E-05  0.809E-05
 -11.730  0.281E-04  0.115E-04  0.831E-05  0.831E-05
 -11.720  0.300E-04  0.123E-04  0.883E-05  0.883E-05
 -11.710  0.329E-04  0.137E-04  0.961E-05  0.961E-05
 -11.700  0.364E-04  0.153E-04  0.105E-04  0.105E-04
 -11.690  0.401E-04  0.170E-04  0.115E-04  0.115E-04
 -11.680  0.437E-04  0.187E-04  0.125E-04  0.125E-04
 -11.670  0.468E-04  0.202E-04  0.133E-04  0.133E-04
 -11.660  0.490E-04  0.213E-04  0.138E-04  0.138E-04
 -11.650  0.501E-04  0.219E-04  0.141E-04  0.141E-04
 -11.640  0.501E-04  0.219E-04  0.141E-04  0.141E-04
 -11.630  0.490E-04  0.214E-04  0.138E-04  0.138E-04
 -11.620  0.472E-04  0.206E-04  0.133E-04  0.133E-04
 -11.610  0.448E-04  0.195E-04  0.127E-04  0.127E-04
 -11.600  0.423E-04  0.183E-04  0.120E-04  0.120E-04
 -11.590  0.400E-04  0.171E-04  0.114E-04  0.114E-04
 -11.580  0.380E-04  0.161E-04  0.109E-04  0.109E-04
 -11.570  0.364E-04  0.153E-04  0.106E-04  0.106E-04
 -11.560  0.352E-04  0.146E-04  0.103E-04  0.103E-04
 -11.550  0.343E-04  0.142E-04  0.101E-04  0.101E-04
 -11.540  0.337E-04  0.138E-04  0.994E-05  0.994E-05
 -11.530  0.333E-04  0.136E-04  0.982E-05  0.982E-05
 -11.520  0.331E-04  0.136E-04  0.976E-05  0.976E-05
 -11.510  0.333E-04  0.138E-04  0.977E-05  0.977E-05
 -11.500  0.340E-04  0.142E-04  0.990E-05  0.990E-05
 -11.490  0.353E-04  0.149E-04  0.102E-04  0.102E-04
 -11.480  0.370E-04  0.159E-04  0.106E-04  0.106E-04
 -11.470  0.391E-04  0.170E-04  0.111E-04  0.111E-04
 -11.460  0.413E-04  0.181E-04  0.116E-04  0.116E-04
 -11.450  0.435E-04  0.191E-04  0.122E-04  0.122E-04
 -11.440  0.454E-04  0.200E-04  0.127E-04  0.127E-04
 -11.430  0.468E-04  0.205E-04  0.131E-04  0.131E-04
 -11.420  0.475E-04  0.208E-04  0.134E-04  0.134E-04
 -11.410  0.477E-04  0.206E-04  0.135E-04  0.135E-04
 -11.400  0.471E-04  0.202E-04  0.134E-04  0.134E-04
 -11.390  0.459E-04  0.195E-04  0.132E-04  0.132E-04
 -11.380  0.442E-04  0.186E-04  0.128E-04  0.128E-04
 -11.370  0.421E-04  0.175E-04  0.123E-04  0.123E-04
 -11.360  0.398E-04  0.164E-04  0.117E-04  0.117E-04
 -11.350  0.377E-04  0.152E-04  0.112E-04  0.112E-04
 -11.340  0.362E-04  0.141E-04  0.110E-04  0.110E-04
 -11.330  0.364E-04  0.132E-04  0.116E-04  0.116E-04
 -11.320  0.404E-04  0.125E-04  0.139E-04  0.139E-04
 -11.310  0.518E-04  0.122E-04  0.198E-04  0.198E-04
 -11.300  0.775E-04  0.123E-04  0.326E-04  0.326E-04
 -11.290  0.129E-03  0.129E-04  0.582E-04  0.582E-04
 -11.280  0.227E-03  0.140E-04  0.106E-03  0.106E-03
 -11.270  0.402E-03  0.156E-04  0.193E-03  0.193E-03
 -11.260  0.700E-03  0.174E-04  0.342E-03  0.342E-03
 -11.250  0.119E-02  0.193E-04  0.585E-03  0.585E-03
 -11.240  0.195E-02  0.210E-04  0.965E-03  0.965E-03
 -11.230  0.309E-02  0.224E-04  0.153E-02  0.153E-02
 -11.220  0.471E-02  0.231E-04  0.235E-02  0.235E-02
 -11.210  0.693E-02  0.232E-04  0.345E-02  0.345E-02
 -11.200  0.979E-02  0.226E-04  0.489E-02  0.489E-02
 -11.190  0.133E-01  0.215E-04  0.666E-02  0.666E-02
 -11.180  0.175E-01  0.200E-04  0.875E-02  0.875E-02
 -11.170  0.222E-01  0.184E-04  0.111E-01  0.111E-01
 -11.160  0.272E-01  0.167E-04  0.136E-01  0.136E-01
 -11.150  0.322E-01  0.152E-04  0.161E-01  0.161E-01
 -11.140  0.370E-01  0.141E-04  0.185E-01  0.185E-01
 -11.130  0.413E-01  0.135E-04  0.207E-01  0.207E-01
 -11.120  0.450E-01  0.134E-04  0.225E-01  0.225E-01
 -11.110  0.479E-01  0.139E-04  0.240E-01  0.240E-01
 -11.100  0.501E-01  0.149E-04  0.251E-01  0.251E-01
 -11.090  0.517E-01  0.164E-04  0.258E-01  0.258E-01
 -11.080  0.527E-01  0.183E-04  0.264E-01  0.264E-01
 -11.070  0.534E-01  0.204E-04  0.267E-01  0.267E-01
 -11.060  0.539E-01  0.225E-04  0.269E-01  0.269E-01
 -11.050  0.544E-01  0.244E-04  0.272E-01  0.272E-01
 -11.040  0.548E-01  0.260E-04  0.274E-01  0.274E-01
 -11.030  0.553E-01  0.269E-04  0.277E-01  0.277E-01
 -11.020  0.559E-01  0.272E-04  0.279E-01  0.279E-01
 -11.010  0.566E-01  0.266E-04  0.283E-01  0.283E-01
 -11.000  0.574E-01  0.254E-04  0.287E-01  0.287E-01
 -10.990  0.582E-01  0.235E-04  0.291E-01  0.291E-01
 -10.980  0.592E-01  0.212E-04  0.296E-01  0.296E-01
 -10.970  0.602E-01  0.188E-04  0.301E-01  0.301E-01
 -10.960  0.613E-01  0.166E-04  0.306E-01  0.306E-01
 -10.950  0.623E-01  0.148E-04  0.311E-01  0.311E-01
 -10.940  0.633E-01  0.135E-04  0.316E-01  0.316E-01
 -10.930  0.641E-01  0.129E-04  0.320E-01  0.320E-01
 -10.920  0.649E-01  0.130E-04  0.324E-01  0.324E-01
 -10.910  0.657E-01  0.137E-04  0.329E-01  0.329E-01
 -10.900  0.667E-01  0.150E-04  0.334E-01  0.334E-01
 -10.890  0.679E-01  0.167E-04  0.340E-01  0.340E-01
 -10.880  0.694E-01  0.188E-04  0.347E-01  0.347E-01
 -10.870  0.709E-01  0.210E-04  0.354E-01  0.354E-01
 -10.860  0.723E-01  0.232E-04  0.362E-01  0.362E-01
 -10.850  0.735E-01  0.252E-04  0.367E-01  0.367E-01
 -10.840  0.743E-01  0.268E-04  0.371E-01  0.371E-01
 -10.830  0.748E-01  0.278E-04  0.374E-01  0.374E-01
 -10.820  0.751E-01  0.281E-04  0.376E-01  0.376E-01
 -10.810  0.757E-01  0.276E-04  0.378E-01  0.378E-01
 -10.800  0.768E-01  0.264E-04  0.384E-01  0.384E-01
 -10.790  0.784E-01  0.246E-04  0.392E-01  0.392E-01
 -10.780  0.806E-01  0.224E-04  0.403E-01  0.403E-01
 -10.770  0.830E-01  0.202E-04  0.415E-01  0.415E-01
 -10.760  0.851E-01  0.181E-04  0.426E-01  0.426E-01
 -10.750  0.868E-01  0.163E-04  0.434E-01  0.434E-01
 -10.740  0.876E-01  0.150E-04  0.438E-01  0.438E-01
 -10.730  0.877E-01  0.143E-04  0.439E-01  0.439E-01
 -10.720  0.875E-01  0.141E-04  0.437E-01  0.437E-01
 -10.710  0.874E-01  0.145E-04  0.437E-01  0.437E-01
 -10.700  0.880E-01  0.154E-04  0.440E-01  0.440E-01
 -10.690  0.896E-01  0.166E-04  0.448E-01  0.448E-01
 -10.680  0.922E-01  0.180E-04  0.461E-01  0.461E-01
 -10.670  0.956E-01  0.196E-04  0.478E-01  0.478E-01
 -10.660  0.992E-01  0.212E-04  0.496E-01  0.496E-01
 -10.650  0.102E+00  0.227E-04  0.512E-01  0.512E-01
 -10.640  0.104E+00  0.241E-04  0.522E-01  0.522E-01
 -10.630  0.105E+00  0.253E-04  0.527E-01  0.527E-01
 -10.620  0.105E+00  0.262E-04  0.527E-01  0.527E-01
 -10.610  0.105E+00  0.268E-04  0.524E-01  0.524E-01
 -10.600  0.104E+00  0.270E-04  0.521E-01  0.521E-01
 -10.590  0.105E+00  0.267E-04  0.524E-01  0.524E-01
 -10.580  0.107E+00  0.261E-04  0.533E-01  0.533E-01
 -10.570  0.110E+00  0.250E-04  0.549E-01  0.549E-01
 -10.560  0.114E+00  0.236E-04  0.572E-01  0.572E-01
 -10.550  0.119E+00  0.220E-04  0.597E-01  0.597E-01
 -10.540  0.124E+00  0.204E-04  0.620E-01  0.620E-01
 -10.530  0.128E+00  0.190E-04  0.638E-01  0.638E-01
 -10.520  0.130E+00  0.177E-04  0.650E-01  0.650E-01
 -10.510  0.131E+00  0.168E-04  0.655E-01  0.655E-01
 -10.500  0.131E+00  0.161E-04  0.656E-01  0.656E-01
 -10.490  0.131E+00  0.158E-04  0.657E-01  0.657E-01
 -10.480  0.132E+00  0.159E-04  0.662E-01  0.662E-01
 -10.470  0.135E+00  0.162E-04  0.674E-01  0.674E-01
 -10.460  0.139E+00  0.169E-04  0.695E-01  0.695E-01
 -10.450  0.145E+00  0.179E-04  0.724E-01  0.724E-01
 -10.440  0.152E+00  0.193E-04  0.758E-01  0.758E-01
 -10.430  0.159E+00  0.210E-04  0.795E-01  0.795E-01
 -10.420  0.166E+00  0.229E-04  0.831E-01  0.831E-01
 -10.410  0.173E+00  0.248E-04  0.864E-01  0.864E-01
 -10.400  0.179E+00  0.267E-04  0.894E-01  0.894E-01
 -10.390  0.185E+00  0.282E-04  0.923E-01  0.923E-01
 -10.380  0.191E+00  0.292E-04  0.956E-01  0.956E-01
 -10.370  0.199E+00  0.296E-04  0.996E-01  0.996E-01
 -10.360  0.209E+00  0.295E-04  0.105E+00  0.105E+00
 -10.350  0.222E+00  0.288E-04  0.111E+00  0.111E+00
 -10.340  0.236E+00  0.277E-04  0.118E+00  0.118E+00
 -10.330  0.250E+00  0.262E-04  0.125E+00  0.125E+00
 -10.320  0.264E+00  0.245E-04  0.132E+00  0.132E+00
 -10.310  0.274E+00  0.226E-04  0.137E+00  0.137E+00
 -10.300  0.280E+00  0.207E-04  0.140E+00  0.140E+00
 -10.290  0.280E+00  0.187E-04  0.140E+00  0.140E+00
 -10.280  0.273E+00  0.167E-04  0.137E+00  0.137E+00
 -10.270  0.261E+00  0.149E-04  0.130E+00  0.130E+00
 -10.260  0.243E+00  0.136E-04  0.122E+00  0.122E+00
 -10.250  0.222E+00  0.128E-04  0.111E+00  0.111E+00
 -10.240  0.198E+00  0.129E-04  0.989E-01  0.989E-01
 -10.230  0.174E+00  0.139E-04  0.869E-01  0.869E-01
 -10.220  0.151E+00  0.158E-04  0.756E-01  0.756E-01
 -10.210  0.132E+00  0.186E-04  0.657E-01  0.657E-01
 -10.200  0.115E+00  0.220E-04  0.577E-01  0.577E-01
 -10.190  0.103E+00  0.256E-04  0.515E-01  0.515E-01
 -10.180  0.943E-01  0.289E-04  0.471E-01  0.471E-01
 -10.170  0.883E-01  0.316E-04  0.441E-01  0.441E-01
 -10.160  0.844E-01  0.334E-04  0.422E-01  0.422E-01
 -10.150  0.816E-01  0.339E-04  0.408E-01  0.408E-01
 -10.140  0.795E-01  0.334E-04  0.397E-01  0.397E-01
 -10.130  0.776E-01  0.317E-04  0.388E-01  0.388E-01
 -10.120  0.760E-01  0.292E-04  0.380E-01  0.380E-01
 -10.110  0.748E-01  0.262E-04  0.374E-01  0.374E-01
 -10.100  0.743E-01  0.229E-04  0.371E-01  0.371E-01
 -10.090  0.744E-01  0.197E-04  0.372E-01  0.372E-01
 -10.080  0.754E-01  0.168E-04  0.377E-01  0.377E-01
 -10.070  0.769E-01  0.145E-04  0.384E-01  0.384E-01
 -10.060  0.787E-01  0.129E-04  0.393E-01  0.393E-01
 -10.050  0.803E-01  0.121E-04  0.402E-01  0.402E-01
 -10.040  0.813E-01  0.121E-04  0.407E-01  0.407E-01
 -10.030  0.814E-01  0.130E-04  0.407E-01  0.407E-01
 -10.020  0.803E-01  0.148E-04  0.402E-01  0.402E-01
 -10.010  0.782E-01  0.172E-04  0.391E-01  0.391E-01
 -10.000  0.752E-01  0.201E-04  0.376E-01  0.376E-01
  -9.990  0.718E-01  0.233E-04  0.359E-01  0.359E-01
  -9.980  0.683E-01  0.265E-04  0.342E-01  0.342E-01
  -9.970  0.655E-01  0.295E-04  0.327E-01  0.327E-01
  -9.960  0.636E-01  0.318E-04  0.318E-01  0.318E-01
  -9.950  0.630E-01  0.333E-04  0.315E-01  0.315E-01
  -9.940  0.639E-01  0.338E-04  0.320E-01  0.320E-01
  -9.930  0.661E-01  0.332E-04  0.330E-01  0.330E-01
  -9.920  0.689E-01  0.316E-04  0.344E-01  0.344E-01
  -9.910  0.718E-01  0.292E-04  0.359E-01  0.359E-01
  -9.900  0.739E-01  0.261E-04  0.369E-01  0.369E-01
  -9.890  0.745E-01  0.226E-04  0.372E-01  0.372E-01
  -9.880  0.733E-01  0.192E-04  0.366E-01  0.366E-01
  -9.870  0.703E-01  0.159E-04  0.351E-01  0.351E-01
  -9.860  0.659E-01  0.133E-04  0.330E-01  0.330E-01
  -9.850  0.611E-01  0.114E-04  0.306E-01  0.306E-01
  -9.840  0.568E-01  0.106E-04  0.284E-01  0.284E-01
  -9.830  0.539E-01  0.109E-04  0.269E-01  0.269E-01
  -9.820  0.528E-01  0.123E-04  0.264E-01  0.264E-01
  -9.810  0.538E-01  0.149E-04  0.269E-01  0.269E-01
  -9.800  0.565E-01  0.185E-04  0.282E-01  0.282E-01
  -9.790  0.601E-01  0.228E-04  0.300E-01  0.300E-01
  -9.780  0.638E-01  0.273E-04  0.319E-01  0.319E-01
  -9.770  0.668E-01  0.317E-04  0.334E-01  0.334E-01
  -9.760  0.684E-01  0.355E-04  0.342E-01  0.342E-01
  -9.750  0.683E-01  0.382E-04  0.341E-01  0.341E-01
  -9.740  0.666E-01  0.394E-04  0.333E-01  0.333E-01
  -9.730  0.638E-01  0.389E-04  0.319E-01  0.319E-01
  -9.720  0.602E-01  0.368E-04  0.301E-01  0.301E-01
  -9.710  0.567E-01  0.333E-04  0.283E-01  0.283E-01
  -9.700  0.536E-01  0.287E-04  0.268E-01  0.268E-01
  -9.690  0.513E-01  0.236E-04  0.256E-01  0.256E-01
  -9.680  0.499E-01  0.186E-04  0.249E-01  0.249E-01
  -9.670  0.493E-01  0.141E-04  0.247E-01  0.247E-01
  -9.660  0.495E-01  0.106E-04  0.247E-01  0.247E-01
  -9.650  0.503E-01  0.826E-05  0.251E-01  0.251E-01
  -9.640  0.515E-01  0.731E-05  0.258E-01  0.258E-01
  -9.630  0.532E-01  0.772E-05  0.266E-01  0.266E-01
  -9.620  0.553E-01  0.938E-05  0.276E-01  0.276E-01
  -9.610  0.576E-01  0.121E-04  0.288E-01  0.288E-01
  -9.600  0.599E-01  0.158E-04  0.299E-01  0.299E-01
  -9.590  0.619E-01  0.201E-04  0.309E-01  0.309E-01
  -9.580  0.632E-01  0.247E-04  0.316E-01  0.316E-01
  -9.570  0.632E-01  0.294E-04  0.316E-01  0.316E-01
  -9.560  0.619E-01  0.339E-04  0.309E-01  0.309E-01
  -9.550  0.590E-01  0.376E-04  0.295E-01  0.295E-01
  -9.540  0.548E-01  0.403E-04  0.274E-01  0.274E-01
  -9.530  0.498E-01  0.416E-04  0.249E-01  0.249E-01
  -9.520  0.446E-01  0.413E-04  0.223E-01  0.223E-01
  -9.510  0.400E-01  0.395E-04  0.200E-01  0.200E-01
  -9.500  0.369E-01  0.362E-04  0.184E-01  0.184E-01
  -9.490  0.358E-01  0.319E-04  0.179E-01  0.179E-01
  -9.480  0.372E-01  0.270E-04  0.186E-01  0.186E-01
  -9.470  0.409E-01  0.221E-04  0.204E-01  0.204E-01
  -9.460  0.465E-01  0.176E-04  0.232E-01  0.232E-01
  -9.450  0.530E-01  0.139E-04  0.265E-01  0.265E-01
  -9.440  0.596E-01  0.113E-04  0.298E-01  0.298E-01
  -9.430  0.649E-01  0.972E-05  0.325E-01  0.325E-01
  -9.420  0.682E-01  0.924E-05  0.341E-01  0.341E-01
  -9.410  0.687E-01  0.979E-05  0.343E-01  0.343E-01
  -9.400  0.662E-01  0.113E-04  0.331E-01  0.331E-01
  -9.390  0.612E-01  0.137E-04  0.306E-01  0.306E-01
  -9.380  0.542E-01  0.171E-04  0.271E-01  0.271E-01
  -9.370  0.466E-01  0.211E-04  0.233E-01  0.233E-01
  -9.360  0.394E-01  0.258E-04  0.197E-01  0.197E-01
  -9.350  0.340E-01  0.307E-04  0.170E-01  0.170E-01
  -9.340  0.312E-01  0.354E-04  0.156E-01  0.156E-01
  -9.330  0.317E-01  0.394E-04  0.158E-01  0.158E-01
  -9.320  0.352E-01  0.420E-04  0.176E-01  0.176E-01
  -9.310  0.413E-01  0.430E-04  0.206E-01  0.206E-01
  -9.300  0.489E-01  0.421E-04  0.244E-01  0.244E-01
  -9.290  0.567E-01  0.394E-04  0.283E-01  0.283E-01
  -9.280  0.635E-01  0.351E-04  0.317E-01  0.317E-01
  -9.270  0.683E-01  0.300E-04  0.341E-01  0.341E-01
  -9.260  0.703E-01  0.245E-04  0.351E-01  0.351E-01
  -9.250  0.695E-01  0.195E-04  0.347E-01  0.347E-01
  -9.240  0.663E-01  0.154E-04  0.331E-01  0.331E-01
  -9.230  0.613E-01  0.125E-04  0.307E-01  0.307E-01
  -9.220  0.557E-01  0.110E-04  0.278E-01  0.278E-01
  -9.210  0.503E-01  0.109E-04  0.252E-01  0.252E-01
  -9.200  0.462E-01  0.121E-04  0.231E-01  0.231E-01
  -9.190  0.439E-01  0.144E-04  0.219E-01  0.219E-01
  -9.180  0.438E-01  0.176E-04  0.219E-01  0.219E-01
  -9.170  0.458E-01  0.215E-04  0.229E-01  0.229E-01
  -9.160  0.496E-01  0.259E-04  0.248E-01  0.248E-01
  -9.150  0.546E-01  0.305E-04  0.273E-01  0.273E-01
  -9.140  0.598E-01  0.350E-04  0.299E-01  0.299E-01
  -9.130  0.644E-01  0.389E-04  0.322E-01  0.322E-01
  -9.120  0.676E-01  0.417E-04  0.338E-01  0.338E-01
  -9.110  0.686E-01  0.430E-04  0.343E-01  0.343E-01
  -9.100  0.673E-01  0.425E-04  0.336E-01  0.336E-01
  -9.090  0.639E-01  0.401E-04  0.320E-01  0.320E-01
  -9.080  0.592E-01  0.362E-04  0.296E-01  0.296E-01
  -9.070  0.539E-01  0.311E-04  0.269E-01  0.269E-01
  -9.060  0.492E-01  0.255E-04  0.246E-01  0.246E-01
  -9.050  0.461E-01  0.202E-04  0.230E-01  0.230E-01
  -9.040  0.451E-01  0.158E-04  0.226E-01  0.226E-01
  -9.030  0.467E-01  0.127E-04  0.234E-01  0.234E-01
  -9.020  0.507E-01  0.111E-04  0.254E-01  0.254E-01
  -9.010  0.567E-01  0.111E-04  0.283E-01  0.283E-01
  -9.000  0.639E-01  0.124E-04  0.319E-01  0.319E-01
  -8.990  0.713E-01  0.148E-04  0.356E-01  0.356E-01
  -8.980  0.779E-01  0.179E-04  0.389E-01  0.389E-01
  -8.970  0.826E-01  0.215E-04  0.413E-01  0.413E-01
  -8.960  0.848E-01  0.254E-04  0.424E-01  0.424E-01
  -8.950  0.837E-01  0.293E-04  0.418E-01  0.418E-01
  -8.940  0.795E-01  0.332E-04  0.397E-01  0.397E-01
  -8.930  0.725E-01  0.369E-04  0.362E-01  0.362E-01
  -8.920  0.636E-01  0.401E-04  0.318E-01  0.318E-01
  -8.910  0.543E-01  0.427E-04  0.271E-01  0.271E-01
  -8.900  0.457E-01  0.442E-04  0.228E-01  0.228E-01
  -8.890  0.392E-01  0.444E-04  0.196E-01  0.196E-01
  -8.880  0.357E-01  0.431E-04  0.178E-01  0.178E-01
  -8.870  0.357E-01  0.403E-04  0.178E-01  0.178E-01
  -8.860  0.392E-01  0.362E-04  0.196E-01  0.196E-01
  -8.850  0.459E-01  0.312E-04  0.229E-01  0.229E-01
  -8.840  0.551E-01  0.259E-04  0.275E-01  0.275E-01
  -8.830  0.659E-01  0.208E-04  0.329E-01  0.329E-01
  -8.820  0.771E-01  0.164E-04  0.386E-01  0.386E-01
  -8.810  0.876E-01  0.132E-04  0.438E-01  0.438E-01
  -8.800  0.961E-01  0.113E-04  0.481E-01  0.481E-01
  -8.790  0.102E+00  0.107E-04  0.507E-01  0.507E-01
  -8.780  0.103E+00  0.114E-04  0.514E-01  0.514E-01
  -8.770  0.999E-01  0.133E-04  0.500E-01  0.500E-01
  -8.760  0.929E-01  0.163E-04  0.464E-01  0.464E-01
  -8.750  0.825E-01  0.206E-04  0.413E-01  0.413E-01
  -8.740  0.703E-01  0.266E-04  0.352E-01  0.352E-01
  -8.730  0.580E-01  0.354E-04  0.290E-01  0.290E-01
  -8.720  0.472E-01  0.489E-04  0.236E-01  0.236E-01
  -8.710  0.394E-01  0.712E-04  0.197E-01  0.197E-01
  -8.700  0.355E-01  0.110E-03  0.177E-01  0.177E-01
  -8.690  0.358E-01  0.177E-03  0.178E-01  0.178E-01
  -8.680  0.402E-01  0.293E-03  0.199E-01  0.199E-01
  -8.670  0.478E-01  0.489E-03  0.237E-01  0.237E-01
  -8.660  0.578E-01  0.807E-03  0.285E-01  0.285E-01
  -8.650  0.691E-01  0.130E-02  0.339E-01  0.339E-01
  -8.640  0.804E-01  0.204E-02  0.392E-01  0.392E-01
  -8.630  0.909E-01  0.309E-02  0.439E-01  0.439E-01
  -8.620  0.996E-01  0.452E-02  0.475E-01  0.475E-01
  -8.610  0.106E+00  0.636E-02  0.498E-01  0.498E-01
  -8.600  0.110E+00  0.862E-02  0.506E-01  0.506E-01
  -8.590  0.111E+00  0.113E-01  0.498E-01  0.498E-01
  -8.580  0.109E+00  0.142E-01  0.477E-01  0.477E-01
  -8.570  0.106E+00  0.172E-01  0.445E-01  0.445E-01
  -8.560  0.102E+00  0.202E-01  0.408E-01  0.408E-01
  -8.550  0.969E-01  0.230E-01  0.370E-01  0.370E-01
  -8.540  0.924E-01  0.254E-01  0.335E-01  0.335E-01
  -8.530  0.890E-01  0.273E-01  0.308E-01  0.308E-01
  -8.520  0.870E-01  0.287E-01  0.292E-01  0.292E-01
  -8.510  0.868E-01  0.295E-01  0.287E-01  0.287E-01
  -8.500  0.883E-01  0.299E-01  0.292E-01  0.292E-01
  -8.490  0.914E-01  0.299E-01  0.307E-01  0.307E-01
  -8.480  0.956E-01  0.297E-01  0.329E-01  0.329E-01
  -8.470  0.100E+00  0.294E-01  0.355E-01  0.355E-01
  -8.460  0.105E+00  0.290E-01  0.381E-01  0.381E-01
  -8.450  0.109E+00  0.286E-01  0.404E-01  0.404E-01
  -8.440  0.113E+00  0.283E-01  0.421E-01  0.421E-01
  -8.430  0.114E+00  0.281E-01  0.431E-01  0.431E-01
  -8.420  0.115E+00  0.279E-01  0.434E-01  0.434E-01
  -8.410  0.114E+00  0.278E-01  0.430E-01  0.430E-01
  -8.400  0.112E+00  0.277E-01  0.423E-01  0.423E-01
  -8.390  0.110E+00  0.277E-01  0.413E-01  0.413E-01
  -8.380  0.108E+00  0.277E-01  0.404E-01  0.404E-01
  -8.370  0.107E+00  0.277E-01  0.397E-01  0.397E-01
  -8.360  0.106E+00  0.276E-01  0.394E-01  0.394E-01
  -8.350  0.107E+00  0.276E-01  0.395E-01  0.395E-01
  -8.340  0.108E+00  0.276E-01  0.401E-01  0.401E-01
  -8.330  0.110E+00  0.276E-01  0.411E-01  0.411E-01
  -8.320  0.112E+00  0.276E-01  0.423E-01  0.423E-01
  -8.310  0.115E+00  0.276E-01  0.436E-01  0.436E-01
  -8.300  0.117E+00  0.277E-01  0.448E-01  0.448E-01
  -8.290  0.119E+00  0.277E-01  0.456E-01  0.456E-01
  -8.280  0.119E+00  0.277E-01  0.457E-01  0.457E-01
  -8.270  0.118E+00  0.277E-01  0.451E-01  0.451E-01
  -8.260  0.115E+00  0.276E-01  0.438E-01  0.438E-01
  -8.250  0.112E+00  0.276E-01  0.420E-01  0.420E-01
  -8.240  0.107E+00  0.275E-01  0.399E-01  0.399E-01
  -8.230  0.103E+00  0.275E-01  0.378E-01  0.378E-01
  -8.220  0.100E+00  0.276E-01  0.362E-01  0.362E-01
  -8.210  0.985E-01  0.277E-01  0.354E-01  0.354E-01
  -8.200  0.988E-01  0.279E-01  0.354E-01  0.354E-01
  -8.190  0.101E+00  0.280E-01  0.365E-01  0.365E-01
  -8.180  0.105E+00  0.279E-01  0.383E-01  0.383E-01
  -8.170  0.109E+00  0.277E-01  0.409E-01  0.409E-01
  -8.160  0.115E+00  0.275E-01  0.438E-01  0.438E-01
  -8.150  0.121E+00  0.272E-01  0.467E-01  0.467E-01
  -8.140  0.126E+00  0.271E-01  0.495E-01  0.495E-01
  -8.130  0.131E+00  0.272E-01  0.517E-01  0.517E-01
  -8.120  0.134E+00  0.275E-01  0.533E-01  0.533E-01
  -8.110  0.136E+00  0.279E-01  0.539E-01  0.539E-01
  -8.100  0.135E+00  0.282E-01  0.536E-01  0.536E-01
  -8.090  0.133E+00  0.284E-01  0.523E-01  0.523E-01
  -8.080  0.129E+00  0.284E-01  0.502E-01  0.502E-01
  -8.070  0.123E+00  0.281E-01  0.474E-01  0.474E-01
  -8.060  0.116E+00  0.276E-01  0.444E-01  0.444E-01
  -8.050  0.110E+00  0.270E-01  0.413E-01  0.413E-01
  -8.040  0.104E+00  0.267E-01  0.387E-01  0.387E-01
  -8.030  0.100E+00  0.266E-01  0.369E-01  0.369E-01
  -8.020  0.992E-01  0.269E-01  0.361E-01  0.361E-01
  -8.010  0.100E+00  0.275E-01  0.365E-01  0.365E-01
  -8.000  0.104E+00  0.282E-01  0.380E-01  0.380E-01
  -7.990  0.110E+00  0.288E-01  0.406E-01  0.406E-01
  -7.980  0.117E+00  0.291E-01  0.438E-01  0.438E-01
  -7.970  0.124E+00  0.290E-01  0.475E-01  0.475E-01
  -7.960  0.131E+00  0.285E-01  0.512E-01  0.512E-01
  -7.950  0.137E+00  0.278E-01  0.546E-01  0.546E-01
  -7.940  0.142E+00  0.269E-01  0.573E-01  0.573E-01
  -7.930  0.144E+00  0.262E-01  0.591E-01  0.591E-01
  -7.920  0.145E+00  0.259E-01  0.598E-01  0.598E-01
  -7.910  0.145E+00  0.260E-01  0.593E-01  0.593E-01
  -7.900  0.142E+00  0.266E-01  0.577E-01  0.577E-01
  -7.890  0.137E+00  0.275E-01  0.549E-01  0.549E-01
  -7.880  0.131E+00  0.286E-01  0.512E-01  0.512E-01
  -7.870  0.123E+00  0.295E-01  0.470E-01  0.470E-01
  -7.860  0.115E+00  0.300E-01  0.427E-01  0.427E-01
  -7.850  0.108E+00  0.299E-01  0.389E-01  0.389E-01
  -7.840  0.101E+00  0.293E-01  0.361E-01  0.361E-01
  -7.830  0.979E-01  0.283E-01  0.348E-01  0.348E-01
  -7.820  0.978E-01  0.271E-01  0.354E-01  0.354E-01
  -7.810  0.102E+00  0.260E-01  0.378E-01  0.378E-01
  -7.800  0.109E+00  0.252E-01  0.418E-01  0.418E-01
  -7.790  0.119E+00  0.250E-01  0.471E-01  0.471E-01
  -7.780  0.131E+00  0.254E-01  0.529E-01  0.529E-01
  -7.770  0.144E+00  0.264E-01  0.586E-01  0.586E-01
  -7.760  0.155E+00  0.277E-01  0.635E-01  0.635E-01
  -7.750  0.163E+00  0.290E-01  0.671E-01  0.671E-01
  -7.740  0.168E+00  0.302E-01  0.689E-01  0.689E-01
  -7.730  0.169E+00  0.308E-01  0.689E-01  0.689E-01
  -7.720  0.165E+00  0.309E-01  0.672E-01  0.672E-01
  -7.710  0.158E+00  0.302E-01  0.641E-01  0.641E-01
  -7.700  0.149E+00  0.290E-01  0.601E-01  0.601E-01
  -7.690  0.139E+00  0.275E-01  0.556E-01  0.556E-01
  -7.680  0.128E+00  0.260E-01  0.512E-01  0.512E-01
  -7.670  0.119E+00  0.249E-01  0.472E-01  0.472E-01
  -7.660  0.112E+00  0.242E-01  0.439E-01  0.439E-01
  -7.650  0.107E+00  0.243E-01  0.413E-01  0.413E-01
  -7.640  0.104E+00  0.250E-01  0.395E-01  0.395E-01
  -7.630  0.103E+00  0.263E-01  0.386E-01  0.386E-01
  -7.620  0.105E+00  0.279E-01  0.387E-01  0.387E-01
  -7.610  0.110E+00  0.295E-01  0.401E-01  0.401E-01
  -7.600  0.116E+00  0.308E-01  0.428E-01  0.428E-01
  -7.590  0.125E+00  0.316E-01  0.469E-01  0.469E-01
  -7.580  0.136E+00  0.318E-01  0.522E-01  0.522E-01
  -7.570  0.148E+00  0.312E-01  0.584E-01  0.584E-01
  -7.560  0.159E+00  0.301E-01  0.647E-01  0.647E-01
  -7.550  0.169E+00  0.285E-01  0.704E-01  0.704E-01
  -7.540  0.177E+00  0.267E-01  0.749E-01  0.749E-01
  -7.530  0.180E+00  0.251E-01  0.775E-01  0.775E-01
  -7.520  0.179E+00  0.239E-01  0.778E-01  0.778E-01
  -7.510  0.175E+00  0.234E-01  0.758E-01  0.758E-01
  -7.500  0.167E+00  0.236E-01  0.719E-01  0.719E-01
  -7.490  0.158E+00  0.246E-01  0.666E-01  0.666E-01
  -7.480  0.148E+00  0.262E-01  0.606E-01  0.606E-01
  -7.470  0.138E+00  0.282E-01  0.549E-01  0.549E-01
  -7.460  0.130E+00  0.301E-01  0.500E-01  0.500E-01
  -7.450  0.125E+00  0.316E-01  0.465E-01  0.465E-01
  -7.440  0.122E+00  0.326E-01  0.447E-01  0.447E-01
  -7.430  0.122E+00  0.328E-01  0.444E-01  0.444E-01
  -7.420  0.123E+00  0.323E-01  0.456E-01  0.456E-01
  -7.410  0.127E+00  0.312E-01  0.477E-01  0.477E-01
  -7.400  0.131E+00  0.297E-01  0.505E-01  0.505E-01
  -7.390  0.135E+00  0.282E-01  0.536E-01  0.536E-01
  -7.380  0.141E+00  0.270E-01  0.568E-01  0.568E-01
  -7.370  0.147E+00  0.264E-01  0.601E-01  0.601E-01
  -7.360  0.153E+00  0.269E-01  0.633E-01  0.633E-01
  -7.350  0.161E+00  0.286E-01  0.664E-01  0.664E-01
  -7.340  0.171E+00  0.320E-01  0.693E-01  0.693E-01
  -7.330  0.181E+00  0.372E-01  0.718E-01  0.718E-01
  -7.320  0.192E+00  0.442E-01  0.737E-01  0.737E-01
  -7.310  0.202E+00  0.528E-01  0.748E-01  0.748E-01
  -7.300  0.213E+00  0.628E-01  0.750E-01  0.750E-01
  -7.290  0.222E+00  0.734E-01  0.741E-01  0.741E-01
  -7.280  0.229E+00  0.841E-01  0.723E-01  0.723E-01
  -7.270  0.233E+00  0.940E-01  0.697E-01  0.697E-01
  -7.260  0.236E+00  0.103E+00  0.667E-01  0.667E-01
  -7.250  0.237E+00  0.109E+00  0.636E-01  0.636E-01
  -7.240  0.236E+00  0.114E+00  0.609E-01  0.609E-01
  -7.230  0.235E+00  0.117E+00  0.590E-01  0.590E-01
  -7.220  0.235E+00  0.119E+00  0.580E-01  0.580E-01
  -7.210  0.235E+00  0.119E+00  0.582E-01  0.582E-01
  -7.200  0.238E+00  0.119E+00  0.595E-01  0.595E-01
  -7.190  0.242E+00  0.118E+00  0.618E-01  0.618E-01
  -7.180  0.248E+00  0.118E+00  0.648E-01  0.648E-01
  -7.170  0.254E+00  0.118E+00  0.681E-01  0.681E-01
  -7.160  0.261E+00  0.119E+00  0.714E-01  0.714E-01
  -7.150  0.268E+00  0.120E+00  0.741E-01  0.741E-01
  -7.140  0.273E+00  0.121E+00  0.762E-01  0.762E-01
  -7.130  0.276E+00  0.121E+00  0.773E-01  0.773E-01
  -7.120  0.277E+00  0.122E+00  0.775E-01  0.775E-01
  -7.110  0.275E+00  0.121E+00  0.768E-01  0.768E-01
  -7.100  0.270E+00  0.119E+00  0.754E-01  0.754E-01
  -7.090  0.263E+00  0.117E+00  0.735E-01  0.735E-01
  -7.080  0.255E+00  0.113E+00  0.711E-01  0.711E-01
  -7.070  0.246E+00  0.108E+00  0.686E-01  0.686E-01
  -7.060  0.236E+00  0.104E+00  0.661E-01  0.661E-01
  -7.050  0.227E+00  0.993E-01  0.636E-01  0.636E-01
  -7.040  0.219E+00  0.956E-01  0.615E-01  0.615E-01
  -7.030  0.212E+00  0.927E-01  0.598E-01  0.598E-01
  -7.020  0.209E+00  0.908E-01  0.589E-01  0.589E-01
  -7.010  0.208E+00  0.901E-01  0.589E-01  0.589E-01
  -7.000  0.211E+00  0.904E-01  0.602E-01  0.602E-01
  -6.990  0.217E+00  0.916E-01  0.629E-01  0.629E-01
  -6.980  0.228E+00  0.936E-01  0.669E-01  0.669E-01
  -6.970  0.241E+00  0.965E-01  0.720E-01  0.720E-01
  -6.960  0.255E+00  0.999E-01  0.776E-01  0.776E-01
  -6.950  0.270E+00  0.104E+00  0.830E-01  0.830E-01
  -6.940  0.283E+00  0.108E+00  0.874E-01  0.874E-01
  -6.930  0.292E+00  0.112E+00  0.900E-01  0.900E-01
  -6.920  0.297E+00  0.116E+00  0.906E-01  0.906E-01
  -6.910  0.297E+00  0.119E+00  0.889E-01  0.889E-01
  -6.900  0.292E+00  0.121E+00  0.855E-01  0.855E-01
  -6.890  0.285E+00  0.123E+00  0.810E-01  0.810E-01
  -6.880  0.277E+00  0.124E+00  0.764E-01  0.764E-01
  -6.870  0.271E+00  0.126E+00  0.726E-01  0.726E-01
  -6.860  0.267E+00  0.126E+00  0.705E-01  0.705E-01
  -6.850  0.268E+00  0.127E+00  0.705E-01  0.705E-01
  -6.840  0.272E+00  0.126E+00  0.728E-01  0.728E-01
  -6.830  0.279E+00  0.125E+00  0.772E-01  0.772E-01
  -6.820  0.288E+00  0.122E+00  0.829E-01  0.829E-01
  -6.810  0.298E+00  0.119E+00  0.893E-01  0.893E-01
  -6.800  0.306E+00  0.116E+00  0.953E-01  0.953E-01
  -6.790  0.313E+00  0.113E+00  0.100E+00  0.100E+00
  -6.780  0.317E+00  0.111E+00  0.103E+00  0.103E+00
  -6.770  0.319E+00  0.111E+00  0.104E+00  0.104E+00
  -6.760  0.318E+00  0.113E+00  0.103E+00  0.103E+00
  -6.750  0.316E+00  0.116E+00  0.100E+00  0.100E+00
  -6.740  0.313E+00  0.119E+00  0.967E-01  0.967E-01
  -6.730  0.309E+00  0.122E+00  0.935E-01  0.935E-01
  -6.720  0.307E+00  0.125E+00  0.911E-01  0.911E-01
  -6.710  0.306E+00  0.125E+00  0.902E-01  0.902E-01
  -6.700  0.306E+00  0.124E+00  0.908E-01  0.908E-01
  -6.690  0.307E+00  0.122E+00  0.927E-01  0.927E-01
  -6.680  0.310E+00  0.119E+00  0.955E-01  0.955E-01
  -6.670  0.313E+00  0.116E+00  0.984E-01  0.984E-01
  -6.660  0.317E+00  0.114E+00  0.101E+00  0.101E+00
  -6.650  0.320E+00  0.114E+00  0.103E+00  0.103E+00
  -6.640  0.322E+00  0.114E+00  0.104E+00  0.104E+00
  -6.630  0.324E+00  0.115E+00  0.105E+00  0.105E+00
  -6.620  0.325E+00  0.115E+00  0.105E+00  0.105E+00
  -6.610  0.327E+00  0.115E+00  0.106E+00  0.106E+00
  -6.600  0.328E+00  0.114E+00  0.107E+00  0.107E+00
  -6.590  0.331E+00  0.112E+00  0.109E+00  0.109E+00
  -6.580  0.334E+00  0.110E+00  0.112E+00  0.112E+00
  -6.570  0.338E+00  0.108E+00  0.115E+00  0.115E+00
  -6.560  0.344E+00  0.108E+00  0.118E+00  0.118E+00
  -6.550  0.349E+00  0.109E+00  0.120E+00  0.120E+00
  -6.540  0.356E+00  0.113E+00  0.122E+00  0.122E+00
  -6.530  0.362E+00  0.117E+00  0.123E+00  0.123E+00
  -6.520  0.370E+00  0.123E+00  0.124E+00  0.124E+00
  -6.510  0.378E+00  0.127E+00  0.125E+00  0.125E+00
  -6.500  0.387E+00  0.131E+00  0.128E+00  0.128E+00
  -6.490  0.397E+00  0.132E+00  0.133E+00  0.133E+00
  -6.480  0.407E+00  0.130E+00  0.139E+00  0.139E+00
  -6.470  0.417E+00  0.126E+00  0.146E+00  0.146E+00
  -6.460  0.427E+00  0.120E+00  0.153E+00  0.153E+00
  -6.450  0.435E+00  0.114E+00  0.161E+00  0.161E+00
  -6.440  0.443E+00  0.109E+00  0.167E+00  0.167E+00
  -6.430  0.449E+00  0.105E+00  0.172E+00  0.172E+00
  -6.420  0.454E+00  0.104E+00  0.175E+00  0.175E+00
  -6.410  0.457E+00  0.106E+00  0.176E+00  0.176E+00
  -6.400  0.459E+00  0.109E+00  0.175E+00  0.175E+00
  -6.390  0.459E+00  0.114E+00  0.172E+00  0.172E+00
  -6.380  0.456E+00  0.119E+00  0.168E+00  0.168E+00
  -6.370  0.449E+00  0.124E+00  0.163E+00  0.163E+00
  -6.360  0.440E+00  0.128E+00  0.156E+00  0.156E+00
  -6.350  0.426E+00  0.130E+00  0.148E+00  0.148E+00
  -6.340  0.411E+00  0.130E+00  0.140E+00  0.140E+00
  -6.330  0.393E+00  0.129E+00  0.132E+00  0.132E+00
  -6.320  0.376E+00  0.126E+00  0.125E+00  0.125E+00
  -6.310  0.360E+00  0.123E+00  0.118E+00  0.118E+00
  -6.300  0.345E+00  0.120E+00  0.113E+00  0.113E+00
  -6.290  0.333E+00  0.116E+00  0.108E+00  0.108E+00
  -6.280  0.322E+00  0.112E+00  0.105E+00  0.105E+00
  -6.270  0.313E+00  0.108E+00  0.102E+00  0.102E+00
  -6.260  0.304E+00  0.104E+00  0.100E+00  0.100E+00
  -6.250  0.297E+00  0.994E-01  0.987E-01  0.987E-01
  -6.240  0.290E+00  0.952E-01  0.972E-01  0.972E-01
  -6.230  0.284E+00  0.914E-01  0.962E-01  0.962E-01
  -6.220  0.280E+00  0.884E-01  0.956E-01  0.956E-01
  -6.210  0.277E+00  0.864E-01  0.955E-01  0.955E-01
  -6.200  0.278E+00  0.858E-01  0.960E-01  0.960E-01
  -6.190  0.280E+00  0.867E-01  0.968E-01  0.968E-01
  -6.180  0.285E+00  0.891E-01  0.979E-01  0.979E-01
  -6.170  0.291E+00  0.926E-01  0.990E-01  0.990E-01
  -6.160  0.297E+00  0.969E-01  0.999E-01  0.999E-01
  -6.150  0.303E+00  0.102E+00  0.101E+00  0.101E+00
  -6.140  0.308E+00  0.107E+00  0.101E+00  0.101E+00
  -6.130  0.313E+00  0.112E+00  0.101E+00  0.101E+00
  -6.120  0.316E+00  0.117E+00  0.998E-01  0.998E-01
  -6.110  0.318E+00  0.122E+00  0.982E-01  0.982E-01
  -6.100  0.319E+00  0.127E+00  0.960E-01  0.960E-01
  -6.090  0.318E+00  0.131E+00  0.932E-01  0.932E-01
  -6.080  0.315E+00  0.135E+00  0.900E-01  0.900E-01
  -6.070  0.310E+00  0.137E+00  0.867E-01  0.867E-01
  -6.060  0.303E+00  0.136E+00  0.835E-01  0.835E-01
  -6.050  0.295E+00  0.134E+00  0.809E-01  0.809E-01
  -6.040  0.286E+00  0.129E+00  0.789E-01  0.789E-01
  -6.030  0.277E+00  0.122E+00  0.775E-01  0.775E-01
  -6.020  0.268E+00  0.115E+00  0.768E-01  0.768E-01
  -6.010  0.261E+00  0.107E+00  0.766E-01  0.766E-01
  -6.000  0.255E+00  0.101E+00  0.768E-01  0.768E-01
  -5.990  0.252E+00  0.970E-01  0.773E-01  0.773E-01
  -5.980  0.251E+00  0.947E-01  0.781E-01  0.781E-01
  -5.970  0.253E+00  0.946E-01  0.793E-01  0.793E-01
  -5.960  0.258E+00  0.967E-01  0.807E-01  0.807E-01
  -5.950  0.265E+00  0.100E+00  0.822E-01  0.822E-01
  -5.940  0.273E+00  0.106E+00  0.837E-01  0.837E-01
  -5.930  0.281E+00  0.112E+00  0.847E-01  0.847E-01
  -5.920  0.288E+00  0.117E+00  0.851E-01  0.851E-01
  -5.910  0.292E+00  0.123E+00  0.845E-01  0.845E-01
  -5.900  0.292E+00  0.126E+00  0.831E-01  0.831E-01
  -5.890  0.290E+00  0.128E+00  0.808E-01  0.808E-01
  -5.880  0.283E+00  0.127E+00  0.780E-01  0.780E-01
  -5.870  0.275E+00  0.125E+00  0.751E-01  0.751E-01
  -5.860  0.266E+00  0.120E+00  0.725E-01  0.725E-01
  -5.850  0.257E+00  0.115E+00  0.706E-01  0.706E-01
  -5.840  0.249E+00  0.110E+00  0.696E-01  0.696E-01
  -5.830  0.245E+00  0.106E+00  0.694E-01  0.694E-01
  -5.820  0.243E+00  0.103E+00  0.698E-01  0.698E-01
  -5.810  0.244E+00  0.103E+00  0.705E-01  0.705E-01
  -5.800  0.247E+00  0.104E+00  0.711E-01  0.711E-01
  -5.790  0.250E+00  0.107E+00  0.715E-01  0.715E-01
  -5.780  0.254E+00  0.112E+00  0.714E-01  0.714E-01
  -5.770  0.258E+00  0.116E+00  0.711E-01  0.711E-01
  -5.760  0.261E+00  0.120E+00  0.705E-01  0.705E-01
  -5.750  0.263E+00  0.122E+00  0.701E-01  0.701E-01
  -5.740  0.263E+00  0.123E+00  0.699E-01  0.699E-01
  -5.730  0.262E+00  0.122E+00  0.699E-01  0.699E-01
  -5.720  0.260E+00  0.120E+00  0.702E-01  0.702E-01
  -5.710  0.256E+00  0.115E+00  0.704E-01  0.704E-01
  -5.700  0.250E+00  0.110E+00  0.702E-01  0.702E-01
  -5.690  0.243E+00  0.104E+00  0.694E-01  0.694E-01
  -5.680  0.234E+00  0.986E-01  0.676E-01  0.676E-01
  -5.670  0.225E+00  0.946E-01  0.651E-01  0.651E-01
  -5.660  0.217E+00  0.928E-01  0.619E-01  0.619E-01
  -5.650  0.211E+00  0.935E-01  0.587E-01  0.587E-01
  -5.640  0.209E+00  0.970E-01  0.562E-01  0.562E-01
  -5.630  0.213E+00  0.103E+00  0.549E-01  0.549E-01
  -5.620  0.221E+00  0.110E+00  0.554E-01  0.554E-01
  -5.610  0.234E+00  0.118E+00  0.579E-01  0.579E-01
  -5.600  0.250E+00  0.126E+00  0.621E-01  0.621E-01
  -5.590  0.266E+00  0.132E+00  0.673E-01  0.673E-01
  -5.580  0.280E+00  0.135E+00  0.727E-01  0.727E-01
  -5.570  0.289E+00  0.135E+00  0.771E-01  0.771E-01
  -5.560  0.292E+00  0.133E+00  0.795E-01  0.795E-01
  -5.550  0.287E+00  0.128E+00  0.794E-01  0.794E-01
  -5.540  0.275E+00  0.121E+00  0.766E-01  0.766E-01
  -5.530  0.257E+00  0.114E+00  0.714E-01  0.714E-01
  -5.520  0.237E+00  0.107E+00  0.648E-01  0.648E-01
  -5.510  0.216E+00  0.101E+00  0.576E-01  0.576E-01
  -5.500  0.198E+00  0.954E-01  0.511E-01  0.511E-01
  -5.490  0.184E+00  0.914E-01  0.463E-01  0.463E-01
  -5.480  0.176E+00  0.889E-01  0.438E-01  0.438E-01
  -5.470  0.175E+00  0.879E-01  0.436E-01  0.436E-01
  -5.460  0.180E+00  0.886E-01  0.455E-01  0.455E-01
  -5.450  0.189E+00  0.911E-01  0.490E-01  0.490E-01
  -5.440  0.202E+00  0.955E-01  0.532E-01  0.532E-01
  -5.430  0.216E+00  0.102E+00  0.574E-01  0.574E-01
  -5.420  0.231E+00  0.109E+00  0.609E-01  0.609E-01
  -5.410  0.244E+00  0.117E+00  0.633E-01  0.633E-01
  -5.400  0.254E+00  0.125E+00  0.644E-01  0.644E-01
  -5.390  0.261E+00  0.132E+00  0.644E-01  0.644E-01
  -5.380  0.263E+00  0.136E+00  0.635E-01  0.635E-01
  -5.370  0.262E+00  0.138E+00  0.622E-01  0.622E-01
  -5.360  0.257E+00  0.136E+00  0.607E-01  0.607E-01
  -5.350  0.251E+00  0.132E+00  0.595E-01  0.595E-01
  -5.340  0.242E+00  0.125E+00  0.587E-01  0.587E-01
  -5.330  0.234E+00  0.117E+00  0.584E-01  0.584E-01
  -5.320  0.226E+00  0.109E+00  0.585E-01  0.585E-01
  -5.310  0.220E+00  0.102E+00  0.589E-01  0.589E-01
  -5.300  0.214E+00  0.960E-01  0.591E-01  0.591E-01
  -5.290  0.209E+00  0.916E-01  0.588E-01  0.588E-01
  -5.280  0.205E+00  0.892E-01  0.578E-01  0.578E-01
  -5.270  0.201E+00  0.888E-01  0.560E-01  0.560E-01
  -5.260  0.197E+00  0.902E-01  0.533E-01  0.533E-01
  -5.250  0.193E+00  0.932E-01  0.500E-01  0.500E-01
  -5.240  0.191E+00  0.976E-01  0.467E-01  0.467E-01
  -5.230  0.191E+00  0.103E+00  0.439E-01  0.439E-01
  -5.220  0.193E+00  0.109E+00  0.421E-01  0.421E-01
  -5.210  0.199E+00  0.115E+00  0.418E-01  0.418E-01
  -5.200  0.207E+00  0.121E+00  0.430E-01  0.430E-01
  -5.190  0.216E+00  0.124E+00  0.458E-01  0.458E-01
  -5.180  0.226E+00  0.127E+00  0.497E-01  0.497E-01
  -5.170  0.235E+00  0.126E+00  0.541E-01  0.541E-01
  -5.160  0.241E+00  0.124E+00  0.583E-01  0.583E-01
  -5.150  0.243E+00  0.120E+00  0.615E-01  0.615E-01
  -5.140  0.242E+00  0.115E+00  0.633E-01  0.633E-01
  -5.130  0.236E+00  0.109E+00  0.633E-01  0.633E-01
  -5.120  0.227E+00  0.104E+00  0.615E-01  0.615E-01
  -5.110  0.216E+00  0.100E+00  0.581E-01  0.581E-01
  -5.100  0.205E+00  0.974E-01  0.536E-01  0.536E-01
  -5.090  0.194E+00  0.967E-01  0.487E-01  0.487E-01
  -5.080  0.186E+00  0.977E-01  0.442E-01  0.442E-01
  -5.070  0.182E+00  0.100E+00  0.407E-01  0.407E-01
  -5.060  0.181E+00  0.104E+00  0.388E-01  0.388E-01
  -5.050  0.185E+00  0.108E+00  0.386E-01  0.386E-01
  -5.040  0.192E+00  0.112E+00  0.403E-01  0.403E-01
  -5.030  0.202E+00  0.115E+00  0.435E-01  0.435E-01
  -5.020  0.213E+00  0.118E+00  0.477E-01  0.477E-01
  -5.010  0.224E+00  0.119E+00  0.522E-01  0.522E-01
  -5.000  0.232E+00  0.119E+00  0.564E-01  0.564E-01
  -4.990  0.238E+00  0.119E+00  0.595E-01  0.595E-01
  -4.980  0.238E+00  0.117E+00  0.609E-01  0.609E-01
  -4.970  0.234E+00  0.114E+00  0.603E-01  0.603E-01
  -4.960  0.225E+00  0.110E+00  0.575E-01  0.575E-01
  -4.950  0.211E+00  0.106E+00  0.529E-01  0.529E-01
  -4.940  0.196E+00  0.101E+00  0.472E-01  0.472E-01
  -4.930  0.179E+00  0.973E-01  0.410E-01  0.410E-01
  -4.920  0.165E+00  0.941E-01  0.354E-01  0.354E-01
  -4.910  0.154E+00  0.919E-01  0.313E-01  0.313E-01
  -4.900  0.150E+00  0.912E-01  0.292E-01  0.292E-01
  -4.890  0.151E+00  0.921E-01  0.295E-01  0.295E-01
  -4.880  0.159E+00  0.947E-01  0.323E-01  0.323E-01
  -4.870  0.173E+00  0.988E-01  0.373E-01  0.373E-01
  -4.860  0.192E+00  0.104E+00  0.438E-01  0.438E-01
  -4.850  0.212E+00  0.110E+00  0.508E-01  0.508E-01
  -4.840  0.231E+00  0.116E+00  0.573E-01  0.573E-01
  -4.830  0.247E+00  0.122E+00  0.624E-01  0.624E-01
  -4.820  0.257E+00  0.126E+00  0.653E-01  0.653E-01
  -4.810  0.260E+00  0.129E+00  0.654E-01  0.654E-01
  -4.800  0.255E+00  0.130E+00  0.626E-01  0.626E-01
  -4.790  0.243E+00  0.129E+00  0.573E-01  0.573E-01
  -4.780  0.226E+00  0.126E+00  0.503E-01  0.503E-01
  -4.770  0.206E+00  0.121E+00  0.426E-01  0.426E-01
  -4.760  0.186E+00  0.115E+00  0.352E-01  0.352E-01
  -4.750  0.167E+00  0.109E+00  0.292E-01  0.292E-01
  -4.740  0.153E+00  0.102E+00  0.254E-01  0.254E-01
  -4.730  0.145E+00  0.963E-01  0.241E-01  0.241E-01
  -4.720  0.142E+00  0.908E-01  0.255E-01  0.255E-01
  -4.710  0.145E+00  0.861E-01  0.293E-01  0.293E-01
  -4.700  0.152E+00  0.826E-01  0.347E-01  0.347E-01
  -4.690  0.163E+00  0.804E-01  0.411E-01  0.411E-01
  -4.680  0.175E+00  0.798E-01  0.474E-01  0.474E-01
  -4.670  0.187E+00  0.812E-01  0.527E-01  0.527E-01
  -4.660  0.197E+00  0.848E-01  0.562E-01  0.562E-01
  -4.650  0.206E+00  0.908E-01  0.575E-01  0.575E-01
  -4.640  0.212E+00  0.988E-01  0.564E-01  0.564E-01
  -4.630  0.215E+00  0.108E+00  0.532E-01  0.532E-01
  -4.620  0.215E+00  0.118E+00  0.485E-01  0.485E-01
  -4.610  0.214E+00  0.128E+00  0.432E-01  0.432E-01
  -4.600  0.211E+00  0.135E+00  0.381E-01  0.381E-01
  -4.590  0.208E+00  0.139E+00  0.341E-01  0.341E-01
  -4.580  0.203E+00  0.140E+00  0.316E-01  0.316E-01
  -4.570  0.198E+00  0.137E+00  0.310E-01  0.310E-01
  -4.560  0.194E+00  0.130E+00  0.321E-01  0.321E-01
  -4.550  0.191E+00  0.122E+00  0.347E-01  0.347E-01
  -4.540  0.189E+00  0.112E+00  0.383E-01  0.383E-01
  -4.530  0.188E+00  0.104E+00  0.420E-01  0.420E-01
  -4.520  0.187E+00  0.965E-01  0.453E-01  0.453E-01
  -4.510  0.186E+00  0.912E-01  0.476E-01  0.476E-01
  -4.500  0.184E+00  0.876E-01  0.483E-01  0.483E-01
  -4.490  0.180E+00  0.856E-01  0.473E-01  0.473E-01
  -4.480  0.174E+00  0.846E-01  0.447E-01  0.447E-01
  -4.470  0.166E+00  0.842E-01  0.410E-01  0.410E-01
  -4.460  0.158E+00  0.845E-01  0.368E-01  0.368E-01
  -4.450  0.151E+00  0.853E-01  0.329E-01  0.329E-01
  -4.440  0.147E+00  0.871E-01  0.302E-01  0.302E-01
  -4.430  0.148E+00  0.901E-01  0.291E-01  0.291E-01
  -4.420  0.154E+00  0.946E-01  0.298E-01  0.298E-01
  -4.410  0.165E+00  0.100E+00  0.324E-01  0.324E-01
  -4.400  0.179E+00  0.107E+00  0.362E-01  0.362E-01
  -4.390  0.195E+00  0.114E+00  0.406E-01  0.406E-01
  -4.380  0.210E+00  0.120E+00  0.447E-01  0.447E-01
  -4.370  0.221E+00  0.125E+00  0.478E-01  0.478E-01
  -4.360  0.227E+00  0.128E+00  0.493E-01  0.493E-01
  -4.350  0.226E+00  0.128E+00  0.489E-01  0.489E-01
  -4.340  0.220E+00  0.126E+00  0.466E-01  0.466E-01
  -4.330  0.208E+00  0.122E+00  0.428E-01  0.428E-01
  -4.320  0.193E+00  0.117E+00  0.382E-01  0.382E-01
  -4.310  0.178E+00  0.111E+00  0.336E-01  0.336E-01
  -4.300  0.164E+00  0.104E+00  0.297E-01  0.297E-01
  -4.290  0.153E+00  0.984E-01  0.272E-01  0.272E-01
  -4.280  0.146E+00  0.935E-01  0.264E-01  0.264E-01
  -4.270  0.145E+00  0.897E-01  0.275E-01  0.275E-01
  -4.260  0.147E+00  0.872E-01  0.299E-01  0.299E-01
  -4.250  0.153E+00  0.862E-01  0.332E-01  0.332E-01
  -4.240  0.160E+00  0.867E-01  0.368E-01  0.368E-01
  -4.230  0.169E+00  0.887E-01  0.399E-01  0.399E-01
  -4.220  0.176E+00  0.918E-01  0.421E-01  0.421E-01
  -4.210  0.182E+00  0.959E-01  0.431E-01  0.431E-01
  -4.200  0.186E+00  0.100E+00  0.429E-01  0.429E-01
  -4.190  0.188E+00  0.105E+00  0.415E-01  0.415E-01
  -4.180  0.188E+00  0.109E+00  0.394E-01  0.394E-01
  -4.170  0.186E+00  0.112E+00  0.371E-01  0.371E-01
  -4.160  0.184E+00  0.114E+00  0.349E-01  0.349E-01
  -4.150  0.180E+00  0.114E+00  0.331E-01  0.331E-01
  -4.140  0.177E+00  0.113E+00  0.321E-01  0.321E-01
  -4.130  0.174E+00  0.110E+00  0.318E-01  0.318E-01
  -4.120  0.171E+00  0.107E+00  0.321E-01  0.321E-01
  -4.110  0.169E+00  0.104E+00  0.327E-01  0.327E-01
  -4.100  0.167E+00  0.100E+00  0.335E-01  0.335E-01
  -4.090  0.166E+00  0.977E-01  0.341E-01  0.341E-01
  -4.080  0.165E+00  0.962E-01  0.344E-01  0.344E-01
  -4.070  0.164E+00  0.957E-01  0.344E-01  0.344E-01
  -4.060  0.164E+00  0.961E-01  0.341E-01  0.341E-01
  -4.050  0.164E+00  0.970E-01  0.337E-01  0.337E-01
  -4.040  0.165E+00  0.981E-01  0.335E-01  0.335E-01
  -4.030  0.166E+00  0.992E-01  0.335E-01  0.335E-01
  -4.020  0.168E+00  0.100E+00  0.338E-01  0.338E-01
  -4.010  0.170E+00  0.101E+00  0.344E-01  0.344E-01
  -4.000  0.172E+00  0.102E+00  0.350E-01  0.350E-01
  -3.990  0.175E+00  0.104E+00  0.355E-01  0.355E-01
  -3.980  0.177E+00  0.106E+00  0.357E-01  0.357E-01
  -3.970  0.179E+00  0.108E+00  0.353E-01  0.353E-01
  -3.960  0.179E+00  0.111E+00  0.343E-01  0.343E-01
  -3.950  0.179E+00  0.113E+00  0.330E-01  0.330E-01
  -3.940  0.177E+00  0.113E+00  0.316E-01  0.316E-01
  -3.930  0.174E+00  0.113E+00  0.303E-01  0.303E-01
  -3.920  0.170E+00  0.111E+00  0.296E-01  0.296E-01
  -3.910  0.165E+00  0.107E+00  0.294E-01  0.294E-01
  -3.900  0.161E+00  0.101E+00  0.300E-01  0.300E-01
  -3.890  0.157E+00  0.952E-01  0.310E-01  0.310E-01
  -3.880  0.154E+00  0.893E-01  0.323E-01  0.323E-01
  -3.870  0.151E+00  0.843E-01  0.334E-01  0.334E-01
  -3.860  0.149E+00  0.810E-01  0.341E-01  0.341E-01
  -3.850  0.148E+00  0.797E-01  0.342E-01  0.342E-01
  -3.840  0.148E+00  0.806E-01  0.337E-01  0.337E-01
  -3.830  0.149E+00  0.835E-01  0.328E-01  0.328E-01
  -3.820  0.151E+00  0.881E-01  0.317E-01  0.317E-01
  -3.810  0.155E+00  0.938E-01  0.306E-01  0.306E-01
  -3.800  0.160E+00  0.100E+00  0.299E-01  0.299E-01
  -3.790  0.165E+00  0.106E+00  0.295E-01  0.295E-01
  -3.780  0.171E+00  0.112E+00  0.296E-01  0.296E-01
  -3.770  0.176E+00  0.116E+00  0.299E-01  0.299E-01
  -3.760  0.181E+00  0.120E+00  0.303E-01  0.303E-01
  -3.750  0.184E+00  0.122E+00  0.307E-01  0.307E-01
  -3.740  0.185E+00  0.123E+00  0.310E-01  0.310E-01
  -3.730  0.185E+00  0.122E+00  0.311E-01  0.311E-01
  -3.720  0.182E+00  0.120E+00  0.310E-01  0.310E-01
  -3.710  0.178E+00  0.117E+00  0.307E-01  0.307E-01
  -3.700  0.173E+00  0.113E+00  0.303E-01  0.303E-01
  -3.690  0.167E+00  0.107E+00  0.299E-01  0.299E-01
  -3.680  0.160E+00  0.101E+00  0.294E-01  0.294E-01
  -3.670  0.153E+00  0.945E-01  0.291E-01  0.291E-01
  -3.660  0.146E+00  0.883E-01  0.287E-01  0.287E-01
  -3.650  0.139E+00  0.828E-01  0.282E-01  0.282E-01
  -3.640  0.134E+00  0.785E-01  0.276E-01  0.276E-01
  -3.630  0.129E+00  0.757E-01  0.267E-01  0.267E-01
  -3.620  0.125E+00  0.746E-01  0.254E-01  0.254E-01
  -3.610  0.123E+00  0.753E-01  0.237E-01  0.237E-01
  -3.600  0.121E+00  0.777E-01  0.215E-01  0.215E-01
  -3.590  0.119E+00  0.817E-01  0.188E-01  0.188E-01
  -3.580  0.119E+00  0.873E-01  0.158E-01  0.158E-01
  -3.570  0.119E+00  0.941E-01  0.126E-01  0.126E-01
  -3.560  0.121E+00  0.102E+00  0.940E-02  0.940E-02
  -3.550  0.123E+00  0.110E+00  0.633E-02  0.633E-02
  -3.540  0.125E+00  0.118E+00  0.360E-02  0.360E-02
  -3.530  0.128E+00  0.125E+00  0.133E-02  0.133E-02
  -3.520  0.130E+00  0.130E+00 -0.386E-03 -0.386E-03
  -3.510  0.130E+00  0.133E+00 -0.154E-02 -0.154E-02
  -3.500  0.129E+00  0.134E+00 -0.217E-02 -0.217E-02
  -3.490  0.126E+00  0.131E+00 -0.237E-02 -0.237E-02
  -3.480  0.121E+00  0.126E+00 -0.226E-02 -0.226E-02
  -3.470  0.115E+00  0.119E+00 -0.196E-02 -0.196E-02
  -3.460  0.108E+00  0.111E+00 -0.158E-02 -0.158E-02
  -3.450  0.101E+00  0.103E+00 -0.119E-02 -0.119E-02
  -3.440  0.946E-01  0.963E-01 -0.841E-03 -0.841E-03
  -3.430  0.892E-01  0.903E-01 -0.561E-03 -0.561E-03
  -3.420  0.851E-01  0.858E-01 -0.352E-03 -0.352E-03
  -3.410  0.824E-01  0.828E-01 -0.206E-03 -0.206E-03
  -3.400  0.811E-01  0.813E-01 -0.110E-03 -0.110E-03
  -3.390  0.813E-01  0.814E-01 -0.502E-04 -0.502E-04
  -3.380  0.828E-01  0.829E-01 -0.147E-04 -0.147E-04
  -3.370  0.858E-01  0.858E-01  0.586E-05  0.586E-05
  -3.360  0.903E-01  0.903E-01  0.178E-04  0.178E-04
  -3.350  0.962E-01  0.961E-01  0.253E-04  0.253E-04
  -3.340  0.103E+00  0.103E+00  0.305E-04  0.305E-04
  -3.330  0.111E+00  0.111E+00  0.348E-04  0.348E-04
  -3.320  0.120E+00  0.120E+00  0.385E-04  0.385E-04
  -3.310  0.128E+00  0.128E+00  0.418E-04  0.418E-04
  -3.300  0.135E+00  0.135E+00  0.445E-04  0.445E-04
  -3.290  0.141E+00  0.141E+00  0.463E-04  0.463E-04
  -3.280  0.145E+00  0.145E+00  0.473E-04  0.473E-04
  -3.270  0.146E+00  0.146E+00  0.471E-04  0.471E-04
  -3.260  0.145E+00  0.145E+00  0.459E-04  0.459E-04
  -3.250  0.141E+00  0.141E+00  0.437E-04  0.437E-04
  -3.240  0.135E+00  0.135E+00  0.407E-04  0.407E-04
  -3.230  0.128E+00  0.128E+00  0.372E-04  0.372E-04
  -3.220  0.120E+00  0.120E+00  0.334E-04  0.334E-04
  -3.210  0.112E+00  0.112E+00  0.297E-04  0.297E-04
  -3.200  0.106E+00  0.106E+00  0.264E-04  0.264E-04
  -3.190  0.100E+00  0.100E+00  0.237E-04  0.237E-04
  -3.180  0.961E-01  0.960E-01  0.217E-04  0.217E-04
  -3.170  0.937E-01  0.937E-01  0.206E-04  0.206E-04
  -3.160  0.929E-01  0.929E-01  0.205E-04  0.205E-04
  -3.150  0.935E-01  0.934E-01  0.213E-04  0.213E-04
  -3.140  0.953E-01  0.952E-01  0.229E-04  0.229E-04
  -3.130  0.980E-01  0.980E-01  0.252E-04  0.252E-04
  -3.120  0.102E+00  0.101E+00  0.279E-04  0.279E-04
  -3.110  0.106E+00  0.106E+00  0.307E-04  0.307E-04
  -3.100  0.110E+00  0.110E+00  0.331E-04  0.331E-04
  -3.090  0.114E+00  0.114E+00  0.350E-04  0.350E-04
  -3.080  0.117E+00  0.117E+00  0.360E-04  0.360E-04
  -3.070  0.120E+00  0.119E+00  0.360E-04  0.360E-04
  -3.060  0.120E+00  0.120E+00  0.350E-04  0.350E-04
  -3.050  0.119E+00  0.119E+00  0.332E-04  0.332E-04
  -3.040  0.116E+00  0.115E+00  0.306E-04  0.306E-04
  -3.030  0.110E+00  0.110E+00  0.276E-04  0.276E-04
  -3.020  0.102E+00  0.102E+00  0.243E-04  0.243E-04
  -3.010  0.928E-01  0.928E-01  0.212E-04  0.212E-04
  -3.000  0.824E-01  0.824E-01  0.184E-04  0.184E-04
  -2.990  0.718E-01  0.718E-01  0.162E-04  0.162E-04
  -2.980  0.620E-01  0.620E-01  0.148E-04  0.148E-04
  -2.970  0.540E-01  0.540E-01  0.144E-04  0.144E-04
  -2.960  0.486E-01  0.485E-01  0.151E-04  0.151E-04
  -2.950  0.460E-01  0.459E-01  0.166E-04  0.166E-04
  -2.940  0.461E-01  0.461E-01  0.190E-04  0.190E-04
  -2.930  0.485E-01  0.485E-01  0.216E-04  0.216E-04
  -2.920  0.522E-01  0.522E-01  0.241E-04  0.241E-04
  -2.910  0.562E-01  0.562E-01  0.261E-04  0.261E-04
  -2.900  0.597E-01  0.597E-01  0.270E-04  0.270E-04
  -2.890  0.620E-01  0.620E-01  0.268E-04  0.268E-04
  -2.880  0.629E-01  0.629E-01  0.253E-04  0.253E-04
  -2.870  0.625E-01  0.624E-01  0.230E-04  0.230E-04
  -2.860  0.611E-01  0.611E-01  0.201E-04  0.201E-04
  -2.850  0.592E-01  0.591E-01  0.170E-04  0.170E-04
  -2.840  0.570E-01  0.570E-01  0.144E-04  0.144E-04
  -2.830  0.549E-01  0.548E-01  0.123E-04  0.123E-04
  -2.820  0.527E-01  0.526E-01  0.110E-04  0.110E-04
  -2.810  0.503E-01  0.502E-01  0.104E-04  0.104E-04
  -2.800  0.476E-01  0.476E-01  0.106E-04  0.106E-04
  -2.790  0.446E-01  0.446E-01  0.112E-04  0.112E-04
  -2.780  0.414E-01  0.414E-01  0.122E-04  0.122E-04
  -2.770  0.384E-01  0.384E-01  0.134E-04  0.134E-04
  -2.760  0.358E-01  0.357E-01  0.148E-04  0.148E-04
  -2.750  0.339E-01  0.339E-01  0.163E-04  0.163E-04
  -2.740  0.329E-01  0.329E-01  0.177E-04  0.177E-04
  -2.730  0.328E-01  0.328E-01  0.189E-04  0.189E-04
  -2.720  0.334E-01  0.333E-01  0.198E-04  0.198E-04
  -2.710  0.344E-01  0.343E-01  0.202E-04  0.202E-04
  -2.700  0.354E-01  0.354E-01  0.199E-04  0.199E-04
  -2.690  0.362E-01  0.362E-01  0.189E-04  0.189E-04
  -2.680  0.365E-01  0.365E-01  0.174E-04  0.174E-04
  -2.670  0.363E-01  0.363E-01  0.153E-04  0.153E-04
  -2.660  0.356E-01  0.356E-01  0.131E-04  0.131E-04
  -2.650  0.344E-01  0.344E-01  0.109E-04  0.109E-04
  -2.640  0.328E-01  0.328E-01  0.910E-05  0.910E-05
  -2.630  0.309E-01  0.308E-01  0.772E-05  0.772E-05
  -2.620  0.287E-01  0.287E-01  0.691E-05  0.691E-05
  -2.610  0.264E-01  0.264E-01  0.664E-05  0.664E-05
  -2.600  0.241E-01  0.241E-01  0.687E-05  0.687E-05
  -2.590  0.220E-01  0.220E-01  0.749E-05  0.749E-05
  -2.580  0.202E-01  0.202E-01  0.840E-05  0.840E-05
  -2.570  0.189E-01  0.189E-01  0.953E-05  0.953E-05
  -2.560  0.182E-01  0.182E-01  0.108E-04  0.108E-04
  -2.550  0.181E-01  0.181E-01  0.121E-04  0.121E-04
  -2.540  0.186E-01  0.186E-01  0.133E-04  0.133E-04
  -2.530  0.194E-01  0.194E-01  0.143E-04  0.143E-04
  -2.520  0.204E-01  0.203E-01  0.150E-04  0.150E-04
  -2.510  0.211E-01  0.211E-01  0.153E-04  0.153E-04
  -2.500  0.214E-01  0.214E-01  0.151E-04  0.151E-04
  -2.490  0.211E-01  0.211E-01  0.143E-04  0.143E-04
  -2.480  0.202E-01  0.202E-01  0.130E-04  0.130E-04
  -2.470  0.187E-01  0.187E-01  0.114E-04  0.114E-04
  -2.460  0.168E-01  0.168E-01  0.954E-05  0.954E-05
  -2.450  0.147E-01  0.147E-01  0.773E-05  0.773E-05
  -2.440  0.126E-01  0.126E-01  0.614E-05  0.614E-05
  -2.430  0.108E-01  0.108E-01  0.492E-05  0.492E-05
  -2.420  0.936E-02  0.935E-02  0.418E-05  0.418E-05
  -2.410  0.836E-02  0.835E-02  0.393E-05  0.393E-05
  -2.400  0.777E-02  0.776E-02  0.414E-05  0.414E-05
  -2.390  0.750E-02  0.749E-02  0.472E-05  0.472E-05
  -2.380  0.742E-02  0.741E-02  0.555E-05  0.555E-05
  -2.370  0.739E-02  0.737E-02  0.655E-05  0.655E-05
  -2.360  0.730E-02  0.729E-02  0.759E-05  0.759E-05
  -2.350  0.710E-02  0.708E-02  0.860E-05  0.860E-05
  -2.340  0.675E-02  0.673E-02  0.951E-05  0.951E-05
  -2.330  0.628E-02  0.626E-02  0.102E-04  0.102E-04
  -2.320  0.572E-02  0.570E-02  0.108E-04  0.108E-04
  -2.310  0.510E-02  0.508E-02  0.110E-04  0.110E-04
  -2.300  0.446E-02  0.444E-02  0.109E-04  0.109E-04
  -2.290  0.381E-02  0.379E-02  0.104E-04  0.104E-04
  -2.280  0.316E-02  0.314E-02  0.968E-05  0.968E-05
  -2.270  0.253E-02  0.252E-02  0.863E-05  0.863E-05
  -2.260  0.193E-02  0.192E-02  0.741E-05  0.741E-05
  -2.250  0.138E-02  0.137E-02  0.613E-05  0.613E-05
  -2.240  0.904E-03  0.894E-03  0.494E-05  0.494E-05
  -2.230  0.515E-03  0.507E-03  0.394E-05  0.394E-05
  -2.220  0.229E-03  0.222E-03  0.321E-05  0.321E-05
  -2.210  0.434E-04  0.378E-04  0.279E-05  0.279E-05
  -2.200 -0.515E-04 -0.568E-04  0.265E-05  0.265E-05
  -2.190 -0.754E-04 -0.809E-04  0.275E-05  0.275E-05
  -2.180 -0.504E-04 -0.564E-04  0.303E-05  0.303E-05
  -2.170  0.280E-05 -0.409E-05  0.345E-05  0.345E-05
  -2.160  0.684E-04  0.605E-04  0.395E-05  0.395E-05
  -2.150  0.137E-03  0.128E-03  0.453E-05  0.453E-05
  -2.140  0.204E-03  0.193E-03  0.515E-05  0.515E-05
  -2.130  0.267E-03  0.256E-03  0.581E-05  0.581E-05
  -2.120  0.327E-03  0.315E-03  0.647E-05  0.647E-05
  -2.110  0.383E-03  0.369E-03  0.706E-05  0.706E-05
  -2.100  0.431E-03  0.416E-03  0.752E-05  0.752E-05
  -2.090  0.468E-03  0.453E-03  0.778E-05  0.778E-05
  -2.080  0.491E-03  0.475E-03  0.776E-05  0.776E-05
  -2.070  0.496E-03  0.481E-03  0.744E-05  0.744E-05
  -2.060  0.483E-03  0.470E-03  0.683E-05  0.683E-05
  -2.050  0.455E-03  0.443E-03  0.599E-05  0.599E-05
  -2.040  0.417E-03  0.407E-03  0.500E-05  0.500E-05
  -2.030  0.373E-03  0.365E-03  0.398E-05  0.398E-05
  -2.020  0.330E-03  0.324E-03  0.304E-05  0.304E-05
  -2.010  0.293E-03  0.288E-03  0.227E-05  0.227E-05
  -2.000  0.266E-03  0.263E-03  0.172E-05  0.172E-05
  -1.990  0.251E-03  0.248E-03  0.140E-05  0.140E-05
  -1.980  0.248E-03  0.245E-03  0.130E-05  0.130E-05
  -1.970  0.257E-03  0.254E-03  0.138E-05  0.138E-05
  -1.960  0.278E-03  0.275E-03  0.160E-05  0.160E-05
  -1.950  0.309E-03  0.306E-03  0.192E-05  0.192E-05
  -1.940  0.351E-03  0.346E-03  0.232E-05  0.232E-05
  -1.930  0.399E-03  0.393E-03  0.276E-05  0.276E-05
  -1.920  0.450E-03  0.443E-03  0.325E-05  0.325E-05
  -1.910  0.497E-03  0.490E-03  0.374E-05  0.374E-05
  -1.900  0.535E-03  0.526E-03  0.420E-05  0.420E-05
  -1.890  0.555E-03  0.546E-03  0.460E-05  0.460E-05
  -1.880  0.552E-03  0.542E-03  0.490E-05  0.490E-05
  -1.870  0.526E-03  0.515E-03  0.505E-05  0.505E-05
  -1.860  0.478E-03  0.468E-03  0.503E-05  0.503E-05
  -1.850  0.416E-03  0.407E-03  0.483E-05  0.483E-05
  -1.840  0.351E-03  0.342E-03  0.447E-05  0.447E-05
  -1.830  0.293E-03  0.285E-03  0.399E-05  0.399E-05
  -1.820  0.252E-03  0.245E-03  0.342E-05  0.342E-05
  -1.810  0.234E-03  0.228E-03  0.284E-05  0.284E-05
  -1.800  0.241E-03  0.237E-03  0.228E-05  0.228E-05
  -1.790  0.272E-03  0.268E-03  0.181E-05  0.181E-05
  -1.780  0.319E-03  0.316E-03  0.145E-05  0.145E-05
  -1.770  0.376E-03  0.373E-03  0.121E-05  0.121E-05
  -1.760  0.433E-03  0.431E-03  0.108E-05  0.108E-05
  -1.750  0.484E-03  0.482E-03  0.104E-05  0.104E-05
  -1.740  0.523E-03  0.521E-03  0.107E-05  0.107E-05
  -1.730  0.550E-03  0.547E-03  0.115E-05  0.115E-05
  -1.720  0.565E-03  0.562E-03  0.126E-05  0.126E-05
  -1.710  0.571E-03  0.568E-03  0.139E-05  0.139E-05
  -1.700  0.571E-03  0.568E-03  0.154E-05  0.154E-05
  -1.690  0.569E-03  0.566E-03  0.172E-05  0.172E-05
  -1.680  0.567E-03  0.563E-03  0.192E-05  0.192E-05
  -1.670  0.564E-03  0.559E-03  0.212E-05  0.212E-05
  -1.660  0.559E-03  0.554E-03  0.232E-05  0.232E-05
  -1.650  0.552E-03  0.547E-03  0.249E-05  0.249E-05
  -1.640  0.542E-03  0.537E-03  0.262E-05  0.262E-05
  -1.630  0.530E-03  0.524E-03  0.269E-05  0.269E-05
  -1.620  0.517E-03  0.512E-03  0.270E-05  0.270E-05
  -1.610  0.506E-03  0.501E-03  0.263E-05  0.263E-05
  -1.600  0.499E-03  0.494E-03  0.250E-05  0.250E-05
  -1.590  0.499E-03  0.495E-03  0.232E-05  0.232E-05
  -1.580  0.506E-03  0.502E-03  0.211E-05  0.211E-05
  -1.570  0.520E-03  0.516E-03  0.187E-05  0.187E-05
  -1.560  0.536E-03  0.533E-03  0.162E-05  0.162E-05
  -1.550  0.550E-03  0.547E-03  0.139E-05  0.139E-05
  -1.540  0.556E-03  0.553E-03  0.117E-05  0.117E-05
  -1.530  0.547E-03  0.545E-03  0.981E-06  0.981E-06
  -1.520  0.520E-03  0.519E-03  0.813E-06  0.813E-06
  -1.510  0.476E-03  0.475E-03  0.669E-06  0.669E-06
  -1.500  0.418E-03  0.417E-03  0.549E-06  0.549E-06
  -1.490  0.356E-03  0.355E-03  0.458E-06  0.458E-06
  -1.480  0.301E-03  0.300E-03  0.406E-06  0.406E-06
  -1.470  0.264E-03  0.263E-03  0.403E-06  0.403E-06
  -1.460  0.255E-03  0.254E-03  0.456E-06  0.456E-06
  -1.450  0.277E-03  0.276E-03  0.568E-06  0.568E-06
  -1.440  0.330E-03  0.329E-03  0.734E-06  0.734E-06
  -1.430  0.407E-03  0.405E-03  0.936E-06  0.936E-06
  -1.420  0.496E-03  0.494E-03  0.115E-05  0.115E-05
  -1.410  0.584E-03  0.582E-03  0.136E-05  0.136E-05
  -1.400  0.661E-03  0.658E-03  0.153E-05  0.153E-05
  -1.390  0.715E-03  0.712E-03  0.164E-05  0.164E-05
  -1.380  0.744E-03  0.741E-03  0.169E-05  0.169E-05
  -1.370  0.747E-03  0.743E-03  0.167E-05  0.167E-05
  -1.360  0.726E-03  0.723E-03  0.159E-05  0.159E-05
  -1.350  0.687E-03  0.684E-03  0.146E-05  0.146E-05
  -1.340  0.635E-03  0.633E-03  0.130E-05  0.130E-05
  -1.330  0.574E-03  0.572E-03  0.112E-05  0.112E-05
  -1.320  0.507E-03  0.505E-03  0.931E-06  0.931E-06
  -1.310  0.435E-03  0.434E-03  0.744E-06  0.744E-06
  -1.300  0.359E-03  0.358E-03  0.565E-06  0.565E-06
  -1.290  0.282E-03  0.281E-03  0.401E-06  0.401E-06
  -1.280  0.207E-03  0.207E-03  0.257E-06  0.257E-06
  -1.270  0.139E-03  0.138E-03  0.138E-06  0.138E-06
  -1.260  0.825E-04  0.824E-04  0.509E-07  0.509E-07
  -1.250  0.441E-04  0.441E-04 -0.145E-08 -0.145E-08
  -1.240  0.278E-04  0.278E-04 -0.159E-07 -0.159E-07
  -1.230  0.369E-04  0.369E-04  0.859E-08  0.859E-08
  -1.220  0.726E-04  0.724E-04  0.713E-07  0.713E-07
  -1.210  0.134E-03  0.134E-03  0.169E-06  0.169E-06
  -1.200  0.217E-03  0.217E-03  0.297E-06  0.297E-06
  -1.190  0.317E-03  0.317E-03  0.446E-06  0.446E-06
  -1.180  0.425E-03  0.424E-03  0.604E-06  0.604E-06
  -1.170  0.529E-03  0.527E-03  0.756E-06  0.756E-06
  -1.160  0.617E-03  0.615E-03  0.882E-06  0.882E-06
  -1.150  0.675E-03  0.673E-03  0.968E-06  0.968E-06
  -1.140  0.696E-03  0.694E-03  0.997E-06  0.997E-06
  -1.130  0.673E-03  0.671E-03  0.965E-06  0.965E-06
  -1.120  0.609E-03  0.607E-03  0.872E-06  0.872E-06
  -1.110  0.510E-03  0.509E-03  0.731E-06  0.731E-06
  -1.100  0.391E-03  0.390E-03  0.560E-06  0.560E-06
  -1.090  0.265E-03  0.265E-03  0.380E-06  0.380E-06
  -1.080  0.148E-03  0.148E-03  0.213E-06  0.213E-06
  -1.070  0.514E-04  0.513E-04  0.736E-07  0.736E-07
  -1.060 -0.196E-04 -0.195E-04 -0.285E-07 -0.285E-07
  -1.050 -0.635E-04 -0.633E-04 -0.918E-07 -0.918E-07
  -1.040 -0.832E-04 -0.830E-04 -0.121E-06 -0.121E-06
  -1.030 -0.844E-04 -0.841E-04 -0.124E-06 -0.124E-06
  -1.020 -0.730E-04 -0.728E-04 -0.111E-06 -0.111E-06
  -1.010 -0.544E-04 -0.542E-04 -0.895E-07 -0.895E-07
  -1.000 -0.322E-04 -0.321E-04 -0.655E-07 -0.655E-07
  -0.990 -0.827E-05 -0.818E-05 -0.426E-07 -0.426E-07
  -0.980  0.172E-04  0.173E-04 -0.220E-07 -0.220E-07
  -0.970  0.448E-04  0.448E-04 -0.296E-08 -0.296E-08
  -0.960  0.751E-04  0.750E-04  0.164E-07  0.164E-07
  -0.950  0.108E-03  0.108E-03  0.385E-07  0.385E-07
  -0.940  0.143E-03  0.143E-03  0.656E-07  0.656E-07
  -0.930  0.177E-03  0.177E-03  0.993E-07  0.993E-07
  -0.920  0.208E-03  0.207E-03  0.140E-06  0.140E-06
  -0.910  0.230E-03  0.230E-03  0.187E-06  0.187E-06
  -0.900  0.241E-03  0.240E-03  0.237E-06  0.237E-06
  -0.890  0.238E-03  0.237E-03  0.285E-06  0.285E-06
  -0.880  0.220E-03  0.219E-03  0.326E-06  0.326E-06
  -0.870  0.190E-03  0.189E-03  0.353E-06  0.353E-06
  -0.860  0.151E-03  0.150E-03  0.361E-06  0.361E-06
  -0.850  0.108E-03  0.107E-03  0.347E-06  0.347E-06
  -0.840  0.660E-04  0.654E-04  0.313E-06  0.313E-06
  -0.830  0.297E-04  0.292E-04  0.261E-06  0.261E-06
  -0.820  0.173E-05  0.133E-05  0.200E-06  0.200E-06
  -0.810 -0.169E-04 -0.172E-04  0.135E-06  0.135E-06
  -0.800 -0.269E-04 -0.270E-04  0.756E-07  0.756E-07
  -0.790 -0.296E-04 -0.297E-04  0.264E-07  0.264E-07
  -0.780 -0.273E-04 -0.273E-04 -0.891E-08 -0.891E-08
  -0.770 -0.218E-04 -0.218E-04 -0.293E-07 -0.293E-07
  -0.760 -0.144E-04 -0.143E-04 -0.356E-07 -0.356E-07
  -0.750 -0.533E-05 -0.527E-05 -0.292E-07 -0.292E-07
  -0.740  0.590E-05  0.592E-05 -0.110E-07 -0.110E-07
  -0.730  0.209E-04  0.209E-04  0.194E-07  0.194E-07
  -0.720  0.421E-04  0.420E-04  0.643E-07  0.643E-07
  -0.710  0.725E-04  0.722E-04  0.128E-06  0.128E-06
  -0.700  0.115E-03  0.115E-03  0.215E-06  0.215E-06
  -0.690  0.172E-03  0.172E-03  0.329E-06  0.329E-06
  -0.680  0.245E-03  0.244E-03  0.473E-06  0.473E-06
  -0.670  0.331E-03  0.330E-03  0.642E-06  0.642E-06
  -0.660  0.427E-03  0.425E-03  0.829E-06  0.829E-06
  -0.650  0.522E-03  0.520E-03  0.102E-05  0.102E-05
  -0.640  0.607E-03  0.605E-03  0.118E-05  0.118E-05
  -0.630  0.669E-03  0.667E-03  0.130E-05  0.130E-05
  -0.620  0.698E-03  0.695E-03  0.136E-05  0.136E-05
  -0.610  0.687E-03  0.684E-03  0.134E-05  0.134E-05
  -0.600  0.634E-03  0.632E-03  0.123E-05  0.123E-05
  -0.590  0.546E-03  0.544E-03  0.106E-05  0.106E-05
  -0.580  0.434E-03  0.432E-03  0.849E-06  0.849E-06
  -0.570  0.314E-03  0.312E-03  0.618E-06  0.618E-06
  -0.560  0.200E-03  0.200E-03  0.405E-06  0.405E-06
  -0.550  0.108E-03  0.108E-03  0.236E-06  0.236E-06
  -0.540  0.470E-04  0.468E-04  0.131E-06  0.131E-06
  -0.530  0.209E-04  0.207E-04  0.101E-06  0.101E-06
  -0.520  0.300E-04  0.297E-04  0.146E-06  0.146E-06
  -0.510  0.705E-04  0.699E-04  0.259E-06  0.259E-06
  -0.500  0.137E-03  0.136E-03  0.427E-06  0.427E-06
  -0.490  0.221E-03  0.220E-03  0.633E-06  0.633E-06
  -0.480  0.318E-03  0.316E-03  0.861E-06  0.861E-06
  -0.470  0.420E-03  0.418E-03  0.109E-05  0.109E-05
  -0.460  0.522E-03  0.520E-03  0.132E-05  0.132E-05
  -0.450  0.620E-03  0.617E-03  0.152E-05  0.152E-05
  -0.440  0.709E-03  0.706E-03  0.169E-05  0.169E-05
  -0.430  0.788E-03  0.785E-03  0.184E-05  0.184E-05
  -0.420  0.856E-03  0.852E-03  0.195E-05  0.195E-05
  -0.410  0.910E-03  0.906E-03  0.204E-05  0.204E-05
  -0.400  0.949E-03  0.944E-03  0.211E-05  0.211E-05
  -0.390  0.968E-03  0.964E-03  0.216E-05  0.216E-05
  -0.380  0.966E-03  0.962E-03  0.217E-05  0.217E-05
  -0.370  0.938E-03  0.934E-03  0.213E-05  0.213E-05
  -0.360  0.883E-03  0.879E-03  0.205E-05  0.205E-05
  -0.350  0.802E-03  0.798E-03  0.192E-05  0.192E-05
  -0.340  0.703E-03  0.699E-03  0.176E-05  0.176E-05
  -0.330  0.596E-03  0.592E-03  0.159E-05  0.159E-05
  -0.320  0.494E-03  0.491E-03  0.145E-05  0.145E-05
  -0.310  0.412E-03  0.409E-03  0.138E-05  0.138E-05
  -0.300  0.361E-03  0.359E-03  0.140E-05  0.140E-05
  -0.290  0.348E-03  0.345E-03  0.153E-05  0.153E-05
  -0.280  0.372E-03  0.369E-03  0.176E-05  0.176E-05
  -0.270  0.425E-03  0.421E-03  0.204E-05  0.204E-05
  -0.260  0.494E-03  0.490E-03  0.235E-05  0.235E-05
  -0.250  0.566E-03  0.561E-03  0.260E-05  0.260E-05
  -0.240  0.628E-03  0.622E-03  0.277E-05  0.277E-05
  -0.230  0.674E-03  0.669E-03  0.282E-05  0.282E-05
  -0.220  0.706E-03  0.701E-03  0.276E-05  0.276E-05
  -0.210  0.731E-03  0.726E-03  0.264E-05  0.264E-05
  -0.200  0.760E-03  0.755E-03  0.250E-05  0.250E-05
  -0.190  0.805E-03  0.800E-03  0.241E-05  0.241E-05
  -0.180  0.874E-03  0.869E-03  0.243E-05  0.243E-05
  -0.170  0.967E-03  0.962E-03  0.260E-05  0.260E-05
  -0.160  0.108E-02  0.107E-02  0.292E-05  0.292E-05
  -0.150  0.120E-02  0.119E-02  0.337E-05  0.337E-05
  -0.140  0.131E-02  0.130E-02  0.391E-05  0.391E-05
  -0.130  0.139E-02  0.138E-02  0.446E-05  0.446E-05
  -0.120  0.143E-02  0.142E-02  0.498E-05  0.498E-05
  -0.110  0.142E-02  0.141E-02  0.539E-05  0.539E-05
  -0.100  0.137E-02  0.136E-02  0.567E-05  0.567E-05
  -0.090  0.129E-02  0.127E-02  0.580E-05  0.580E-05
  -0.080  0.117E-02  0.116E-02  0.578E-05  0.578E-05
  -0.070  0.104E-02  0.103E-02  0.565E-05  0.565E-05
  -0.060  0.918E-03  0.907E-03  0.543E-05  0.543E-05
  -0.050  0.803E-03  0.793E-03  0.517E-05  0.517E-05
  -0.040  0.705E-03  0.695E-03  0.489E-05  0.489E-05
  -0.030  0.625E-03  0.615E-03  0.459E-05  0.459E-05
  -0.020  0.561E-03  0.552E-03  0.431E-05  0.431E-05
  -0.010  0.511E-03  0.503E-03  0.405E-05  0.405E-05
   0.000  0.476E-03  0.468E-03  0.384E-05  0.384E-05
   0.010  0.459E-03  0.451E-03  0.373E-05  0.373E-05
   0.020  0.469E-03  0.461E-03  0.378E-05  0.378E-05
   0.030  0.515E-03  0.507E-03  0.405E-05  0.405E-05
   0.040  0.608E-03  0.598E-03  0.457E-05  0.457E-05
   0.050  0.751E-03  0.740E-03  0.534E-05  0.534E-05
   0.060  0.943E-03  0.930E-03  0.630E-05  0.630E-05
   0.070  0.117E-02  0.116E-02  0.736E-05  0.736E-05
   0.080  0.142E-02  0.140E-02  0.840E-05  0.840E-05
   0.090  0.166E-02  0.164E-02  0.931E-05  0.931E-05
   0.100  0.187E-02  0.185E-02  0.999E-05  0.999E-05
   0.110  0.202E-02  0.200E-02  0.104E-04  0.104E-04
   0.120  0.210E-02  0.208E-02  0.106E-04  0.106E-04
   0.130  0.210E-02  0.208E-02  0.107E-04  0.107E-04
   0.140  0.204E-02  0.202E-02  0.107E-04  0.107E-04
   0.150  0.191E-02  0.189E-02  0.108E-04  0.108E-04
   0.160  0.174E-02  0.172E-02  0.109E-04  0.109E-04
   0.170  0.156E-02  0.153E-02  0.112E-04  0.112E-04
   0.180  0.137E-02  0.135E-02  0.116E-04  0.116E-04
   0.190  0.120E-02  0.118E-02  0.121E-04  0.121E-04
   0.200  0.105E-02  0.102E-02  0.125E-04  0.125E-04
   0.210  0.920E-03  0.894E-03  0.128E-04  0.128E-04
   0.220  0.813E-03  0.787E-03  0.129E-04  0.129E-04
   0.230  0.724E-03  0.698E-03  0.128E-04  0.128E-04
   0.240  0.651E-03  0.626E-03  0.125E-04  0.125E-04
   0.250  0.592E-03  0.568E-03  0.121E-04  0.121E-04
   0.260  0.550E-03  0.526E-03  0.117E-04  0.117E-04
   0.270  0.528E-03  0.505E-03  0.113E-04  0.113E-04
   0.280  0.533E-03  0.511E-03  0.112E-04  0.112E-04
   0.290  0.576E-03  0.553E-03  0.113E-04  0.113E-04
   0.300  0.665E-03  0.641E-03  0.118E-04  0.118E-04
   0.310  0.810E-03  0.785E-03  0.126E-04  0.126E-04
   0.320  0.102E-02  0.990E-03  0.139E-04  0.139E-04
   0.330  0.129E-02  0.126E-02  0.155E-04  0.155E-04
   0.340  0.161E-02  0.157E-02  0.173E-04  0.173E-04
   0.350  0.196E-02  0.192E-02  0.194E-04  0.194E-04
   0.360  0.231E-02  0.227E-02  0.217E-04  0.217E-04
   0.370  0.263E-02  0.258E-02  0.240E-04  0.240E-04
   0.380  0.287E-02  0.282E-02  0.262E-04  0.262E-04
   0.390  0.301E-02  0.296E-02  0.284E-04  0.284E-04
   0.400  0.303E-02  0.297E-02  0.305E-04  0.305E-04
   0.410  0.291E-02  0.285E-02  0.323E-04  0.323E-04
   0.420  0.268E-02  0.261E-02  0.337E-04  0.337E-04
   0.430  0.236E-02  0.229E-02  0.347E-04  0.347E-04
   0.440  0.198E-02  0.191E-02  0.351E-04  0.351E-04
   0.450  0.159E-02  0.152E-02  0.349E-04  0.349E-04
   0.460  0.122E-02  0.116E-02  0.342E-04  0.342E-04
   0.470  0.901E-03  0.835E-03  0.331E-04  0.331E-04
   0.480  0.641E-03  0.578E-03  0.318E-04  0.318E-04
   0.490  0.448E-03  0.388E-03  0.304E-04  0.304E-04
   0.500  0.320E-03  0.262E-03  0.291E-04  0.291E-04
   0.510  0.251E-03  0.194E-03  0.282E-04  0.282E-04
   0.520  0.233E-03  0.178E-03  0.276E-04  0.276E-04
   0.530  0.265E-03  0.210E-03  0.277E-04  0.277E-04
   0.540  0.349E-03  0.292E-03  0.286E-04  0.286E-04
   0.550  0.493E-03  0.431E-03  0.307E-04  0.307E-04
   0.560  0.708E-03  0.639E-03  0.343E-04  0.343E-04
   0.570  0.100E-02  0.925E-03  0.396E-04  0.396E-04
   0.580  0.139E-02  0.130E-02  0.468E-04  0.468E-04
   0.590  0.186E-02  0.174E-02  0.557E-04  0.557E-04
   0.600  0.238E-02  0.225E-02  0.660E-04  0.660E-04
   0.610  0.293E-02  0.278E-02  0.767E-04  0.767E-04
   0.620  0.345E-02  0.328E-02  0.869E-04  0.869E-04
   0.630  0.387E-02  0.368E-02  0.953E-04  0.953E-04
   0.640  0.413E-02  0.392E-02  0.101E-03  0.101E-03
   0.650  0.418E-02  0.397E-02  0.104E-03  0.104E-03
   0.660  0.401E-02  0.381E-02  0.103E-03  0.103E-03
   0.670  0.364E-02  0.344E-02  0.100E-03  0.100E-03
   0.680  0.311E-02  0.292E-02  0.967E-04  0.967E-04
   0.690  0.250E-02  0.231E-02  0.942E-04  0.942E-04
   0.700  0.188E-02  0.170E-02  0.944E-04  0.944E-04
   0.710  0.135E-02  0.115E-02  0.990E-04  0.990E-04
   0.720  0.954E-03  0.736E-03  0.109E-03  0.109E-03
   0.730  0.723E-03  0.475E-03  0.124E-03  0.124E-03
   0.740  0.660E-03  0.372E-03  0.144E-03  0.144E-03
   0.750  0.742E-03  0.406E-03  0.168E-03  0.168E-03
   0.760  0.935E-03  0.544E-03  0.195E-03  0.195E-03
   0.770  0.120E-02  0.750E-03  0.224E-03  0.224E-03
   0.780  0.149E-02  0.988E-03  0.253E-03  0.253E-03
   0.790  0.180E-02  0.124E-02  0.281E-03  0.281E-03
   0.800  0.209E-02  0.148E-02  0.308E-03  0.308E-03
   0.810  0.237E-02  0.171E-02  0.332E-03  0.332E-03
   0.820  0.264E-02  0.193E-02  0.352E-03  0.352E-03
   0.830  0.289E-02  0.215E-02  0.366E-03  0.366E-03
   0.840  0.312E-02  0.238E-02  0.373E-03  0.373E-03
   0.850  0.335E-02  0.261E-02  0.372E-03  0.372E-03
   0.860  0.358E-02  0.285E-02  0.364E-03  0.364E-03
   0.870  0.379E-02  0.309E-02  0.350E-03  0.350E-03
   0.880  0.400E-02  0.334E-02  0.330E-03  0.330E-03
   0.890  0.419E-02  0.358E-02  0.308E-03  0.308E-03
   0.900  0.435E-02  0.378E-02  0.284E-03  0.284E-03
   0.910  0.447E-02  0.395E-02  0.262E-03  0.262E-03
   0.920  0.452E-02  0.404E-02  0.242E-03  0.242E-03
   0.930  0.450E-02  0.405E-02  0.224E-03  0.224E-03
   0.940  0.440E-02  0.397E-02  0.210E-03  0.210E-03
   0.950  0.421E-02  0.381E-02  0.199E-03  0.199E-03
   0.960  0.395E-02  0.356E-02  0.190E-03  0.190E-03
   0.970  0.364E-02  0.327E-02  0.184E-03  0.184E-03
   0.980  0.332E-02  0.296E-02  0.179E-03  0.179E-03
   0.990  0.302E-02  0.267E-02  0.176E-03  0.176E-03
   1.000  0.277E-02  0.242E-02  0.173E-03  0.173E-03
   1.010  0.257E-02  0.223E-02  0.171E-03  0.171E-03
   1.020  0.245E-02  0.211E-02  0.168E-03  0.168E-03
   1.030  0.240E-02  0.207E-02  0.165E-03  0.165E-03
   1.040  0.241E-02  0.208E-02  0.161E-03  0.161E-03
   1.050  0.247E-02  0.215E-02  0.158E-03  0.158E-03
   1.060  0.257E-02  0.226E-02  0.156E-03  0.156E-03
   1.070  0.271E-02  0.240E-02  0.155E-03  0.155E-03
   1.080  0.287E-02  0.256E-02  0.155E-03  0.155E-03
   1.090  0.303E-02  0.271E-02  0.156E-03  0.156E-03
   1.100  0.318E-02  0.286E-02  0.158E-03  0.158E-03
   1.110  0.331E-02  0.299E-02  0.158E-03  0.158E-03
   1.120  0.341E-02  0.310E-02  0.156E-03  0.156E-03
   1.130  0.350E-02  0.319E-02  0.153E-03  0.153E-03
   1.140  0.358E-02  0.328E-02  0.148E-03  0.148E-03
   1.150  0.366E-02  0.338E-02  0.142E-03  0.142E-03
   1.160  0.378E-02  0.351E-02  0.137E-03  0.137E-03
   1.170  0.394E-02  0.367E-02  0.134E-03  0.134E-03
   1.180  0.413E-02  0.386E-02  0.134E-03  0.134E-03
   1.190  0.434E-02  0.407E-02  0.136E-03  0.136E-03
   1.200  0.455E-02  0.427E-02  0.140E-03  0.140E-03
   1.210  0.471E-02  0.442E-02  0.144E-03  0.144E-03
   1.220  0.480E-02  0.451E-02  0.148E-03  0.148E-03
   1.230  0.479E-02  0.449E-02  0.148E-03  0.148E-03
   1.240  0.466E-02  0.437E-02  0.146E-03  0.146E-03
   1.250  0.443E-02  0.415E-02  0.140E-03  0.140E-03
   1.260  0.411E-02  0.385E-02  0.132E-03  0.132E-03
   1.270  0.375E-02  0.351E-02  0.123E-03  0.123E-03
   1.280  0.339E-02  0.316E-02  0.114E-03  0.114E-03
   1.290  0.308E-02  0.286E-02  0.108E-03  0.108E-03
   1.300  0.285E-02  0.264E-02  0.106E-03  0.106E-03
   1.310  0.274E-02  0.252E-02  0.107E-03  0.107E-03
   1.320  0.274E-02  0.252E-02  0.112E-03  0.112E-03
   1.330  0.284E-02  0.260E-02  0.119E-03  0.119E-03
   1.340  0.301E-02  0.275E-02  0.127E-03  0.127E-03
   1.350  0.320E-02  0.293E-02  0.135E-03  0.135E-03
   1.360  0.336E-02  0.308E-02  0.140E-03  0.140E-03
   1.370  0.346E-02  0.318E-02  0.140E-03  0.140E-03
   1.380  0.348E-02  0.321E-02  0.136E-03  0.136E-03
   1.390  0.342E-02  0.317E-02  0.128E-03  0.128E-03
   1.400  0.331E-02  0.308E-02  0.117E-03  0.117E-03
   1.410  0.320E-02  0.299E-02  0.106E-03  0.106E-03
   1.420  0.312E-02  0.293E-02  0.964E-04  0.964E-04
   1.430  0.313E-02  0.295E-02  0.907E-04  0.907E-04
   1.440  0.325E-02  0.307E-02  0.899E-04  0.899E-04
   1.450  0.347E-02  0.328E-02  0.942E-04  0.942E-04
   1.460  0.379E-02  0.358E-02  0.103E-03  0.103E-03
   1.470  0.415E-02  0.393E-02  0.114E-03  0.114E-03
   1.480  0.453E-02  0.427E-02  0.125E-03  0.125E-03
   1.490  0.485E-02  0.458E-02  0.135E-03  0.135E-03
   1.500  0.507E-02  0.479E-02  0.141E-03  0.141E-03
   1.510  0.517E-02  0.488E-02  0.142E-03  0.142E-03
   1.520  0.513E-02  0.485E-02  0.139E-03  0.139E-03
   1.530  0.495E-02  0.469E-02  0.130E-03  0.130E-03
   1.540  0.467E-02  0.443E-02  0.118E-03  0.118E-03
   1.550  0.432E-02  0.411E-02  0.106E-03  0.106E-03
   1.560  0.394E-02  0.376E-02  0.936E-04  0.936E-04
   1.570  0.359E-02  0.342E-02  0.839E-04  0.839E-04
   1.580  0.328E-02  0.313E-02  0.779E-04  0.779E-04
   1.590  0.306E-02  0.291E-02  0.762E-04  0.762E-04
   1.600  0.293E-02  0.277E-02  0.787E-04  0.787E-04
   1.610  0.289E-02  0.273E-02  0.848E-04  0.848E-04
   1.620  0.296E-02  0.277E-02  0.937E-04  0.937E-04
   1.630  0.309E-02  0.289E-02  0.104E-03  0.104E-03
   1.640  0.329E-02  0.306E-02  0.115E-03  0.115E-03
   1.650  0.350E-02  0.325E-02  0.124E-03  0.124E-03
   1.660  0.369E-02  0.343E-02  0.131E-03  0.131E-03
   1.670  0.383E-02  0.356E-02  0.133E-03  0.133E-03
   1.680  0.388E-02  0.362E-02  0.132E-03  0.132E-03
   1.690  0.383E-02  0.358E-02  0.125E-03  0.125E-03
   1.700  0.368E-02  0.345E-02  0.115E-03  0.115E-03
   1.710  0.346E-02  0.325E-02  0.102E-03  0.102E-03
   1.720  0.321E-02  0.303E-02  0.888E-04  0.888E-04
   1.730  0.299E-02  0.284E-02  0.768E-04  0.768E-04
   1.740  0.286E-02  0.272E-02  0.683E-04  0.683E-04
   1.750  0.285E-02  0.272E-02  0.644E-04  0.644E-04
   1.760  0.298E-02  0.285E-02  0.660E-04  0.660E-04
   1.770  0.326E-02  0.312E-02  0.727E-04  0.727E-04
   1.780  0.366E-02  0.349E-02  0.836E-04  0.836E-04
   1.790  0.413E-02  0.394E-02  0.971E-04  0.971E-04
   1.800  0.462E-02  0.439E-02  0.111E-03  0.111E-03
   1.810  0.506E-02  0.481E-02  0.124E-03  0.124E-03
   1.820  0.540E-02  0.513E-02  0.134E-03  0.134E-03
   1.830  0.558E-02  0.530E-02  0.140E-03  0.140E-03
   1.840  0.558E-02  0.530E-02  0.139E-03  0.139E-03
   1.850  0.538E-02  0.512E-02  0.134E-03  0.134E-03
   1.860  0.502E-02  0.477E-02  0.123E-03  0.123E-03
   1.870  0.453E-02  0.431E-02  0.109E-03  0.109E-03
   1.880  0.398E-02  0.379E-02  0.942E-04  0.942E-04
   1.890  0.344E-02  0.328E-02  0.799E-04  0.799E-04
   1.900  0.298E-02  0.284E-02  0.682E-04  0.682E-04
   1.910  0.263E-02  0.251E-02  0.604E-04  0.604E-04
   1.920  0.243E-02  0.232E-02  0.570E-04  0.570E-04
   1.930  0.237E-02  0.225E-02  0.580E-04  0.580E-04
   1.940  0.243E-02  0.230E-02  0.628E-04  0.628E-04
   1.950  0.259E-02  0.244E-02  0.707E-04  0.707E-04
   1.960  0.282E-02  0.266E-02  0.807E-04  0.807E-04
   1.970  0.310E-02  0.291E-02  0.919E-04  0.919E-04
   1.980  0.340E-02  0.320E-02  0.103E-03  0.103E-03
   1.990  0.371E-02  0.348E-02  0.114E-03  0.114E-03
   2.000  0.399E-02  0.374E-02  0.123E-03  0.123E-03
   2.010  0.421E-02  0.396E-02  0.129E-03  0.129E-03
   2.020  0.435E-02  0.409E-02  0.131E-03  0.131E-03
   2.030  0.437E-02  0.412E-02  0.129E-03  0.129E-03
   2.040  0.427E-02  0.403E-02  0.122E-03  0.122E-03
   2.050  0.406E-02  0.384E-02  0.111E-03  0.111E-03
   2.060  0.376E-02  0.357E-02  0.975E-04  0.975E-04
   2.070  0.343E-02  0.327E-02  0.829E-04  0.829E-04
   2.080  0.313E-02  0.299E-02  0.694E-04  0.694E-04
   2.090  0.291E-02  0.279E-02  0.589E-04  0.589E-04
   2.100  0.282E-02  0.271E-02  0.526E-04  0.526E-04
   2.110  0.288E-02  0.278E-02  0.515E-04  0.515E-04
   2.120  0.310E-02  0.299E-02  0.555E-04  0.555E-04
   2.130  0.346E-02  0.333E-02  0.640E-04  0.640E-04
   2.140  0.391E-02  0.376E-02  0.759E-04  0.759E-04
   2.150  0.440E-02  0.422E-02  0.899E-04  0.899E-04
   2.160  0.486E-02  0.466E-02  0.104E-03  0.104E-03
   2.170  0.524E-02  0.501E-02  0.117E-03  0.117E-03
   2.180  0.548E-02  0.522E-02  0.128E-03  0.128E-03
   2.190  0.553E-02  0.526E-02  0.134E-03  0.134E-03
   2.200  0.539E-02  0.512E-02  0.136E-03  0.136E-03
   2.210  0.507E-02  0.480E-02  0.133E-03  0.133E-03
   2.220  0.460E-02  0.435E-02  0.126E-03  0.126E-03
   2.230  0.407E-02  0.384E-02  0.117E-03  0.117E-03
   2.240  0.354E-02  0.333E-02  0.108E-03  0.108E-03
   2.250  0.311E-02  0.291E-02  0.103E-03  0.103E-03
   2.260  0.284E-02  0.263E-02  0.104E-03  0.104E-03
   2.270  0.277E-02  0.255E-02  0.115E-03  0.115E-03
   2.280  0.293E-02  0.265E-02  0.139E-03  0.139E-03
   2.290  0.330E-02  0.294E-02  0.180E-03  0.180E-03
   2.300  0.386E-02  0.338E-02  0.239E-03  0.239E-03
   2.310  0.456E-02  0.392E-02  0.318E-03  0.318E-03
   2.320  0.537E-02  0.453E-02  0.418E-03  0.418E-03
   2.330  0.625E-02  0.517E-02  0.539E-03  0.539E-03
   2.340  0.718E-02  0.582E-02  0.680E-03  0.680E-03
   2.350  0.813E-02  0.646E-02  0.837E-03  0.837E-03
   2.360  0.907E-02  0.706E-02  0.101E-02  0.101E-02
   2.370  0.997E-02  0.760E-02  0.119E-02  0.119E-02
   2.380  0.108E-01  0.805E-02  0.137E-02  0.137E-02
   2.390  0.115E-01  0.837E-02  0.155E-02  0.155E-02
   2.400  0.120E-01  0.855E-02  0.173E-02  0.173E-02
   2.410  0.124E-01  0.858E-02  0.189E-02  0.189E-02
   2.420  0.125E-01  0.844E-02  0.205E-02  0.205E-02
   2.430  0.126E-01  0.818E-02  0.220E-02  0.220E-02
   2.440  0.125E-01  0.785E-02  0.233E-02  0.233E-02
   2.450  0.124E-01  0.750E-02  0.246E-02  0.246E-02
   2.460  0.124E-01  0.724E-02  0.259E-02  0.259E-02
   2.470  0.126E-01  0.717E-02  0.271E-02  0.271E-02
   2.480  0.131E-01  0.743E-02  0.284E-02  0.284E-02
   2.490  0.141E-01  0.822E-02  0.296E-02  0.296E-02
   2.500  0.160E-01  0.987E-02  0.308E-02  0.308E-02
   2.510  0.193E-01  0.128E-01  0.321E-02  0.321E-02
   2.520  0.245E-01  0.178E-01  0.333E-02  0.333E-02
   2.530  0.327E-01  0.258E-01  0.346E-02  0.346E-02
   2.540  0.452E-01  0.381E-01  0.359E-02  0.359E-02
   2.550  0.636E-01  0.561E-01  0.372E-02  0.372E-02
   2.560  0.896E-01  0.819E-01  0.385E-02  0.385E-02
   2.570  0.125E+00  0.117E+00  0.396E-02  0.396E-02
   2.580  0.172E+00  0.164E+00  0.407E-02  0.407E-02
   2.590  0.231E+00  0.223E+00  0.416E-02  0.416E-02
   2.600  0.305E+00  0.296E+00  0.424E-02  0.424E-02
   2.610  0.392E+00  0.384E+00  0.432E-02  0.432E-02
   2.620  0.494E+00  0.486E+00  0.441E-02  0.441E-02
   2.630  0.610E+00  0.601E+00  0.451E-02  0.451E-02
   2.640  0.737E+00  0.728E+00  0.462E-02  0.462E-02
   2.650  0.873E+00  0.863E+00  0.473E-02  0.473E-02
   2.660  0.101E+01  0.100E+01  0.482E-02  0.482E-02
   2.670  0.116E+01  0.115E+01  0.489E-02  0.489E-02
   2.680  0.129E+01  0.128E+01  0.493E-02  0.493E-02
   2.690  0.142E+01  0.141E+01  0.496E-02  0.496E-02
   2.700  0.152E+01  0.151E+01  0.498E-02  0.498E-02
   2.710  0.160E+01  0.159E+01  0.503E-02  0.503E-02
   2.720  0.165E+01  0.164E+01  0.512E-02  0.512E-02
   2.730  0.166E+01  0.165E+01  0.526E-02  0.526E-02
   2.740  0.164E+01  0.163E+01  0.543E-02  0.543E-02
   2.750  0.158E+01  0.157E+01  0.562E-02  0.562E-02
   2.760  0.150E+01  0.149E+01  0.578E-02  0.578E-02
   2.770  0.140E+01  0.139E+01  0.589E-02  0.589E-02
   2.780  0.129E+01  0.128E+01  0.593E-02  0.593E-02
   2.790  0.118E+01  0.117E+01  0.592E-02  0.592E-02
   2.800  0.108E+01  0.106E+01  0.589E-02  0.589E-02
   2.810  0.988E+00  0.977E+00  0.586E-02  0.586E-02
   2.820  0.915E+00  0.904E+00  0.589E-02  0.589E-02
   2.830  0.857E+00  0.845E+00  0.600E-02  0.600E-02
   2.840  0.811E+00  0.799E+00  0.620E-02  0.620E-02
   2.850  0.774E+00  0.761E+00  0.646E-02  0.646E-02
   2.860  0.744E+00  0.730E+00  0.674E-02  0.674E-02
   2.870  0.718E+00  0.704E+00  0.698E-02  0.698E-02
   2.880  0.697E+00  0.682E+00  0.715E-02  0.715E-02
   2.890  0.678E+00  0.664E+00  0.722E-02  0.722E-02
   2.900  0.664E+00  0.650E+00  0.717E-02  0.717E-02
   2.910  0.654E+00  0.639E+00  0.705E-02  0.705E-02
   2.920  0.646E+00  0.633E+00  0.690E-02  0.690E-02
   2.930  0.642E+00  0.628E+00  0.678E-02  0.678E-02
   2.940  0.638E+00  0.624E+00  0.677E-02  0.677E-02
   2.950  0.634E+00  0.620E+00  0.688E-02  0.688E-02
   2.960  0.627E+00  0.612E+00  0.713E-02  0.713E-02
   2.970  0.615E+00  0.600E+00  0.748E-02  0.748E-02
   2.980  0.598E+00  0.583E+00  0.788E-02  0.788E-02
   2.990  0.577E+00  0.561E+00  0.826E-02  0.826E-02
   3.000  0.555E+00  0.537E+00  0.855E-02  0.855E-02
   3.010  0.533E+00  0.516E+00  0.869E-02  0.869E-02
   3.020  0.517E+00  0.500E+00  0.867E-02  0.867E-02
   3.030  0.510E+00  0.493E+00  0.849E-02  0.849E-02
   3.040  0.512E+00  0.496E+00  0.821E-02  0.821E-02
   3.050  0.522E+00  0.506E+00  0.790E-02  0.790E-02
   3.060  0.536E+00  0.521E+00  0.763E-02  0.763E-02
   3.070  0.547E+00  0.533E+00  0.747E-02  0.747E-02
   3.080  0.552E+00  0.537E+00  0.749E-02  0.749E-02
   3.090  0.545E+00  0.530E+00  0.769E-02  0.769E-02
   3.100  0.528E+00  0.512E+00  0.806E-02  0.806E-02
   3.110  0.502E+00  0.485E+00  0.855E-02  0.855E-02
   3.120  0.473E+00  0.455E+00  0.906E-02  0.906E-02
   3.130  0.448E+00  0.429E+00  0.951E-02  0.951E-02
   3.140  0.430E+00  0.411E+00  0.981E-02  0.981E-02
   3.150  0.424E+00  0.404E+00  0.992E-02  0.992E-02
   3.160  0.428E+00  0.408E+00  0.981E-02  0.981E-02
   3.170  0.438E+00  0.419E+00  0.953E-02  0.953E-02
   3.180  0.451E+00  0.433E+00  0.915E-02  0.915E-02
   3.190  0.461E+00  0.443E+00  0.874E-02  0.874E-02
   3.200  0.465E+00  0.448E+00  0.839E-02  0.839E-02
   3.210  0.461E+00  0.445E+00  0.816E-02  0.816E-02
   3.220  0.453E+00  0.436E+00  0.809E-02  0.809E-02
   3.230  0.442E+00  0.425E+00  0.820E-02  0.820E-02
   3.240  0.432E+00  0.415E+00  0.849E-02  0.849E-02
   3.250  0.426E+00  0.408E+00  0.891E-02  0.891E-02
   3.260  0.424E+00  0.406E+00  0.943E-02  0.943E-02
   3.270  0.427E+00  0.407E+00  0.998E-02  0.998E-02
   3.280  0.430E+00  0.409E+00  0.105E-01  0.105E-01
   3.290  0.431E+00  0.409E+00  0.108E-01  0.108E-01
   3.300  0.426E+00  0.404E+00  0.110E-01  0.110E-01
   3.310  0.413E+00  0.392E+00  0.110E-01  0.110E-01
   3.320  0.394E+00  0.373E+00  0.107E-01  0.107E-01
   3.330  0.371E+00  0.351E+00  0.102E-01  0.102E-01
   3.340  0.348E+00  0.329E+00  0.967E-02  0.967E-02
   3.350  0.330E+00  0.312E+00  0.909E-02  0.909E-02
   3.360  0.322E+00  0.305E+00  0.860E-02  0.860E-02
   3.370  0.327E+00  0.310E+00  0.828E-02  0.828E-02
   3.380  0.343E+00  0.327E+00  0.820E-02  0.820E-02
   3.390  0.370E+00  0.353E+00  0.838E-02  0.838E-02
   3.400  0.402E+00  0.384E+00  0.879E-02  0.879E-02
   3.410  0.432E+00  0.413E+00  0.939E-02  0.939E-02
   3.420  0.453E+00  0.433E+00  0.101E-01  0.101E-01
   3.430  0.462E+00  0.440E+00  0.108E-01  0.108E-01
   3.440  0.454E+00  0.431E+00  0.115E-01  0.115E-01
   3.450  0.431E+00  0.407E+00  0.119E-01  0.119E-01
   3.460  0.396E+00  0.372E+00  0.122E-01  0.122E-01
   3.470  0.355E+00  0.331E+00  0.122E-01  0.122E-01
   3.480  0.315E+00  0.291E+00  0.119E-01  0.119E-01
   3.490  0.282E+00  0.259E+00  0.113E-01  0.113E-01
   3.500  0.262E+00  0.241E+00  0.106E-01  0.106E-01
   3.510  0.257E+00  0.238E+00  0.984E-02  0.984E-02
   3.520  0.268E+00  0.250E+00  0.912E-02  0.912E-02
   3.530  0.290E+00  0.273E+00  0.856E-02  0.856E-02
   3.540  0.320E+00  0.303E+00  0.825E-02  0.825E-02
   3.550  0.350E+00  0.333E+00  0.824E-02  0.824E-02
   3.560  0.376E+00  0.359E+00  0.854E-02  0.854E-02
   3.570  0.394E+00  0.375E+00  0.910E-02  0.910E-02
   3.580  0.401E+00  0.381E+00  0.986E-02  0.986E-02
   3.590  0.397E+00  0.376E+00  0.107E-01  0.107E-01
   3.600  0.385E+00  0.362E+00  0.115E-01  0.115E-01
   3.610  0.367E+00  0.343E+00  0.122E-01  0.122E-01
   3.620  0.347E+00  0.322E+00  0.126E-01  0.126E-01
   3.630  0.328E+00  0.302E+00  0.127E-01  0.127E-01
   3.640  0.313E+00  0.287E+00  0.126E-01  0.126E-01
   3.650  0.303E+00  0.278E+00  0.123E-01  0.123E-01
   3.660  0.299E+00  0.276E+00  0.118E-01  0.118E-01
   3.670  0.301E+00  0.279E+00  0.113E-01  0.113E-01
   3.680  0.307E+00  0.286E+00  0.107E-01  0.107E-01
   3.690  0.314E+00  0.293E+00  0.102E-01  0.102E-01
   3.700  0.319E+00  0.299E+00  0.971E-02  0.971E-02
   3.710  0.319E+00  0.301E+00  0.936E-02  0.936E-02
   3.720  0.315E+00  0.297E+00  0.913E-02  0.913E-02
   3.730  0.305E+00  0.287E+00  0.903E-02  0.903E-02
   3.740  0.292E+00  0.274E+00  0.908E-02  0.908E-02
   3.750  0.279E+00  0.260E+00  0.929E-02  0.929E-02
   3.760  0.268E+00  0.249E+00  0.967E-02  0.967E-02
   3.770  0.263E+00  0.243E+00  0.102E-01  0.102E-01
   3.780  0.266E+00  0.244E+00  0.109E-01  0.109E-01
   3.790  0.277E+00  0.254E+00  0.116E-01  0.116E-01
   3.800  0.296E+00  0.271E+00  0.122E-01  0.122E-01
   3.810  0.319E+00  0.293E+00  0.128E-01  0.128E-01
   3.820  0.343E+00  0.317E+00  0.131E-01  0.131E-01
   3.830  0.364E+00  0.338E+00  0.132E-01  0.132E-01
   3.840  0.378E+00  0.352E+00  0.130E-01  0.130E-01
   3.850  0.382E+00  0.357E+00  0.125E-01  0.125E-01
   3.860  0.374E+00  0.350E+00  0.120E-01  0.120E-01
   3.870  0.355E+00  0.332E+00  0.114E-01  0.114E-01
   3.880  0.327E+00  0.305E+00  0.108E-01  0.108E-01
   3.890  0.293E+00  0.272E+00  0.103E-01  0.103E-01
   3.900  0.258E+00  0.238E+00  0.995E-02  0.995E-02
   3.910  0.227E+00  0.208E+00  0.966E-02  0.966E-02
   3.920  0.204E+00  0.186E+00  0.946E-02  0.946E-02
   3.930  0.193E+00  0.174E+00  0.932E-02  0.932E-02
   3.940  0.193E+00  0.174E+00  0.927E-02  0.927E-02
   3.950  0.204E+00  0.186E+00  0.934E-02  0.934E-02
   3.960  0.225E+00  0.206E+00  0.956E-02  0.956E-02
   3.970  0.252E+00  0.232E+00  0.998E-02  0.998E-02
   3.980  0.280E+00  0.259E+00  0.106E-01  0.106E-01
   3.990  0.308E+00  0.286E+00  0.114E-01  0.114E-01
   4.000  0.332E+00  0.307E+00  0.123E-01  0.123E-01
   4.010  0.349E+00  0.323E+00  0.131E-01  0.131E-01
   4.020  0.358E+00  0.331E+00  0.139E-01  0.139E-01
   4.030  0.359E+00  0.330E+00  0.143E-01  0.143E-01
   4.040  0.350E+00  0.321E+00  0.145E-01  0.145E-01
   4.050  0.335E+00  0.306E+00  0.143E-01  0.143E-01
   4.060  0.313E+00  0.286E+00  0.138E-01  0.138E-01
   4.070  0.289E+00  0.264E+00  0.129E-01  0.129E-01
   4.080  0.266E+00  0.242E+00  0.120E-01  0.120E-01
   4.090  0.246E+00  0.224E+00  0.110E-01  0.110E-01
   4.100  0.232E+00  0.212E+00  0.101E-01  0.101E-01
   4.110  0.225E+00  0.206E+00  0.943E-02  0.943E-02
   4.120  0.226E+00  0.208E+00  0.900E-02  0.900E-02
   4.130  0.232E+00  0.214E+00  0.882E-02  0.882E-02
   4.140  0.242E+00  0.224E+00  0.888E-02  0.888E-02
   4.150  0.253E+00  0.234E+00  0.914E-02  0.914E-02
   4.160  0.262E+00  0.243E+00  0.957E-02  0.957E-02
   4.170  0.267E+00  0.247E+00  0.101E-01  0.101E-01
   4.180  0.268E+00  0.247E+00  0.108E-01  0.108E-01
   4.190  0.266E+00  0.243E+00  0.116E-01  0.116E-01
   4.200  0.261E+00  0.236E+00  0.125E-01  0.125E-01
   4.210  0.256E+00  0.230E+00  0.133E-01  0.133E-01
   4.220  0.253E+00  0.225E+00  0.141E-01  0.141E-01
   4.230  0.254E+00  0.224E+00  0.147E-01  0.147E-01
   4.240  0.258E+00  0.228E+00  0.151E-01  0.151E-01
   4.250  0.267E+00  0.236E+00  0.152E-01  0.152E-01
   4.260  0.278E+00  0.248E+00  0.149E-01  0.149E-01
   4.270  0.291E+00  0.262E+00  0.145E-01  0.145E-01
   4.280  0.304E+00  0.276E+00  0.137E-01  0.137E-01
   4.290  0.314E+00  0.288E+00  0.128E-01  0.128E-01
   4.300  0.319E+00  0.296E+00  0.119E-01  0.119E-01
   4.310  0.319E+00  0.297E+00  0.109E-01  0.109E-01
   4.320  0.310E+00  0.290E+00  0.998E-02  0.998E-02
   4.330  0.295E+00  0.276E+00  0.923E-02  0.923E-02
   4.340  0.273E+00  0.256E+00  0.871E-02  0.871E-02
   4.350  0.248E+00  0.231E+00  0.846E-02  0.846E-02
   4.360  0.221E+00  0.204E+00  0.852E-02  0.852E-02
   4.370  0.199E+00  0.181E+00  0.889E-02  0.889E-02
   4.380  0.182E+00  0.163E+00  0.955E-02  0.955E-02
   4.390  0.174E+00  0.154E+00  0.104E-01  0.104E-01
   4.400  0.177E+00  0.154E+00  0.115E-01  0.115E-01
   4.410  0.188E+00  0.163E+00  0.126E-01  0.126E-01
   4.420  0.207E+00  0.179E+00  0.136E-01  0.136E-01
   4.430  0.230E+00  0.201E+00  0.145E-01  0.145E-01
   4.440  0.255E+00  0.225E+00  0.152E-01  0.152E-01
   4.450  0.279E+00  0.248E+00  0.156E-01  0.156E-01
   4.460  0.300E+00  0.269E+00  0.157E-01  0.157E-01
   4.470  0.316E+00  0.285E+00  0.154E-01  0.154E-01
   4.480  0.325E+00  0.295E+00  0.149E-01  0.149E-01
   4.490  0.328E+00  0.299E+00  0.141E-01  0.141E-01
   4.500  0.323E+00  0.297E+00  0.133E-01  0.133E-01
   4.510  0.312E+00  0.287E+00  0.125E-01  0.125E-01
   4.520  0.297E+00  0.273E+00  0.118E-01  0.118E-01
   4.530  0.277E+00  0.255E+00  0.112E-01  0.112E-01
   4.540  0.256E+00  0.235E+00  0.108E-01  0.108E-01
   4.550  0.237E+00  0.216E+00  0.104E-01  0.104E-01
   4.560  0.220E+00  0.200E+00  0.101E-01  0.101E-01
   4.570  0.209E+00  0.190E+00  0.989E-02  0.989E-02
   4.580  0.205E+00  0.186E+00  0.972E-02  0.972E-02
   4.590  0.207E+00  0.188E+00  0.964E-02  0.964E-02
   4.600  0.215E+00  0.196E+00  0.971E-02  0.971E-02
   4.610  0.226E+00  0.206E+00  0.999E-02  0.999E-02
   4.620  0.239E+00  0.218E+00  0.105E-01  0.105E-01
   4.630  0.249E+00  0.227E+00  0.113E-01  0.113E-01
   4.640  0.257E+00  0.233E+00  0.122E-01  0.122E-01
   4.650  0.261E+00  0.235E+00  0.132E-01  0.132E-01
   4.660  0.261E+00  0.233E+00  0.142E-01  0.142E-01
   4.670  0.259E+00  0.228E+00  0.151E-01  0.151E-01
   4.680  0.255E+00  0.224E+00  0.157E-01  0.157E-01
   4.690  0.253E+00  0.221E+00  0.159E-01  0.159E-01
   4.700  0.253E+00  0.221E+00  0.159E-01  0.159E-01
   4.710  0.256E+00  0.225E+00  0.155E-01  0.155E-01
   4.720  0.263E+00  0.233E+00  0.149E-01  0.149E-01
   4.730  0.272E+00  0.244E+00  0.141E-01  0.141E-01
   4.740  0.283E+00  0.256E+00  0.133E-01  0.133E-01
   4.750  0.293E+00  0.268E+00  0.125E-01  0.125E-01
   4.760  0.301E+00  0.277E+00  0.119E-01  0.119E-01
   4.770  0.305E+00  0.282E+00  0.114E-01  0.114E-01
   4.780  0.303E+00  0.281E+00  0.112E-01  0.112E-01
   4.790  0.296E+00  0.274E+00  0.111E-01  0.111E-01
   4.800  0.283E+00  0.261E+00  0.111E-01  0.111E-01
   4.810  0.266E+00  0.244E+00  0.112E-01  0.112E-01
   4.820  0.248E+00  0.225E+00  0.114E-01  0.114E-01
   4.830  0.231E+00  0.208E+00  0.115E-01  0.115E-01
   4.840  0.218E+00  0.195E+00  0.115E-01  0.115E-01
   4.850  0.212E+00  0.189E+00  0.116E-01  0.116E-01
   4.860  0.214E+00  0.191E+00  0.117E-01  0.117E-01
   4.870  0.223E+00  0.199E+00  0.120E-01  0.120E-01
   4.880  0.239E+00  0.214E+00  0.125E-01  0.125E-01
   4.890  0.260E+00  0.234E+00  0.131E-01  0.131E-01
   4.900  0.282E+00  0.254E+00  0.139E-01  0.139E-01
   4.910  0.303E+00  0.273E+00  0.146E-01  0.146E-01
   4.920  0.321E+00  0.290E+00  0.154E-01  0.154E-01
   4.930  0.334E+00  0.302E+00  0.158E-01  0.158E-01
   4.940  0.341E+00  0.309E+00  0.161E-01  0.161E-01
   4.950  0.344E+00  0.312E+00  0.159E-01  0.159E-01
   4.960  0.342E+00  0.311E+00  0.155E-01  0.155E-01
   4.970  0.337E+00  0.307E+00  0.149E-01  0.149E-01
   4.980  0.330E+00  0.302E+00  0.142E-01  0.142E-01
   4.990  0.322E+00  0.295E+00  0.134E-01  0.134E-01
   5.000  0.315E+00  0.290E+00  0.126E-01  0.126E-01
   5.010  0.309E+00  0.285E+00  0.119E-01  0.119E-01
   5.020  0.304E+00  0.281E+00  0.114E-01  0.114E-01
   5.030  0.300E+00  0.278E+00  0.109E-01  0.109E-01
   5.040  0.296E+00  0.275E+00  0.106E-01  0.106E-01
   5.050  0.292E+00  0.271E+00  0.104E-01  0.104E-01
   5.060  0.288E+00  0.268E+00  0.103E-01  0.103E-01
   5.070  0.285E+00  0.264E+00  0.103E-01  0.103E-01
   5.080  0.283E+00  0.262E+00  0.105E-01  0.105E-01
   5.090  0.285E+00  0.263E+00  0.108E-01  0.108E-01
   5.100  0.290E+00  0.268E+00  0.112E-01  0.112E-01
   5.110  0.301E+00  0.278E+00  0.117E-01  0.117E-01
   5.120  0.317E+00  0.293E+00  0.124E-01  0.124E-01
   5.130  0.337E+00  0.311E+00  0.131E-01  0.131E-01
   5.140  0.359E+00  0.331E+00  0.140E-01  0.140E-01
   5.150  0.379E+00  0.349E+00  0.150E-01  0.150E-01
   5.160  0.394E+00  0.362E+00  0.159E-01  0.159E-01
   5.170  0.402E+00  0.369E+00  0.167E-01  0.167E-01
   5.180  0.401E+00  0.366E+00  0.172E-01  0.172E-01
   5.190  0.390E+00  0.355E+00  0.173E-01  0.173E-01
   5.200  0.371E+00  0.337E+00  0.170E-01  0.170E-01
   5.210  0.347E+00  0.314E+00  0.161E-01  0.161E-01
   5.220  0.319E+00  0.290E+00  0.148E-01  0.148E-01
   5.230  0.292E+00  0.266E+00  0.131E-01  0.131E-01
   5.240  0.269E+00  0.246E+00  0.113E-01  0.113E-01
   5.250  0.251E+00  0.232E+00  0.949E-02  0.949E-02
   5.260  0.239E+00  0.223E+00  0.779E-02  0.779E-02
   5.270  0.233E+00  0.220E+00  0.634E-02  0.634E-02
   5.280  0.232E+00  0.221E+00  0.519E-02  0.519E-02
   5.290  0.234E+00  0.225E+00  0.438E-02  0.438E-02
   5.300  0.237E+00  0.229E+00  0.390E-02  0.390E-02
   5.310  0.238E+00  0.231E+00  0.372E-02  0.372E-02
   5.320  0.236E+00  0.229E+00  0.377E-02  0.377E-02
   5.330  0.229E+00  0.221E+00  0.401E-02  0.401E-02
   5.340  0.215E+00  0.206E+00  0.436E-02  0.436E-02
   5.350  0.196E+00  0.186E+00  0.478E-02  0.478E-02
   5.360  0.172E+00  0.162E+00  0.523E-02  0.523E-02
   5.370  0.146E+00  0.135E+00  0.570E-02  0.570E-02
   5.380  0.119E+00  0.107E+00  0.618E-02  0.618E-02
   5.390  0.947E-01  0.813E-01  0.668E-02  0.668E-02
   5.400  0.735E-01  0.591E-01  0.722E-02  0.722E-02
   5.410  0.570E-01  0.414E-01  0.780E-02  0.780E-02
   5.420  0.456E-01  0.288E-01  0.841E-02  0.841E-02
   5.430  0.389E-01  0.209E-01  0.904E-02  0.904E-02
   5.440  0.363E-01  0.170E-01  0.964E-02  0.964E-02
   5.450  0.365E-01  0.162E-01  0.102E-01  0.102E-01
   5.460  0.387E-01  0.174E-01  0.106E-01  0.106E-01
   5.470  0.418E-01  0.198E-01  0.110E-01  0.110E-01
   5.480  0.452E-01  0.226E-01  0.113E-01  0.113E-01
   5.490  0.483E-01  0.254E-01  0.114E-01  0.114E-01
   5.500  0.509E-01  0.278E-01  0.116E-01  0.116E-01
   5.510  0.529E-01  0.296E-01  0.117E-01  0.117E-01
   5.520  0.543E-01  0.308E-01  0.118E-01  0.118E-01
   5.530  0.551E-01  0.314E-01  0.118E-01  0.118E-01
   5.540  0.554E-01  0.317E-01  0.119E-01  0.119E-01
   5.550  0.552E-01  0.315E-01  0.118E-01  0.118E-01
   5.560  0.547E-01  0.312E-01  0.117E-01  0.117E-01
   5.570  0.538E-01  0.307E-01  0.116E-01  0.116E-01
   5.580  0.527E-01  0.301E-01  0.113E-01  0.113E-01
   5.590  0.516E-01  0.295E-01  0.110E-01  0.110E-01
   5.600  0.505E-01  0.291E-01  0.107E-01  0.107E-01
   5.610  0.496E-01  0.288E-01  0.104E-01  0.104E-01
   5.620  0.490E-01  0.287E-01  0.101E-01  0.101E-01
   5.630  0.488E-01  0.290E-01  0.992E-02  0.992E-02
   5.640  0.490E-01  0.295E-01  0.975E-02  0.975E-02
   5.650  0.494E-01  0.301E-01  0.963E-02  0.963E-02
   5.660  0.499E-01  0.308E-01  0.956E-02  0.956E-02
   5.670  0.505E-01  0.314E-01  0.953E-02  0.953E-02
   5.680  0.509E-01  0.318E-01  0.958E-02  0.958E-02
   5.690  0.513E-01  0.319E-01  0.974E-02  0.974E-02
   5.700  0.518E-01  0.317E-01  0.100E-01  0.100E-01
   5.710  0.525E-01  0.315E-01  0.105E-01  0.105E-01
   5.720  0.536E-01  0.313E-01  0.112E-01  0.112E-01
   5.730  0.552E-01  0.312E-01  0.120E-01  0.120E-01
   5.740  0.570E-01  0.314E-01  0.128E-01  0.128E-01
   5.750  0.590E-01  0.317E-01  0.136E-01  0.136E-01
   5.760  0.608E-01  0.322E-01  0.143E-01  0.143E-01
   5.770  0.621E-01  0.326E-01  0.147E-01  0.147E-01
   5.780  0.628E-01  0.330E-01  0.149E-01  0.149E-01
   5.790  0.628E-01  0.332E-01  0.148E-01  0.148E-01
   5.800  0.623E-01  0.333E-01  0.145E-01  0.145E-01
   5.810  0.616E-01  0.334E-01  0.141E-01  0.141E-01
   5.820  0.610E-01  0.336E-01  0.137E-01  0.137E-01
   5.830  0.609E-01  0.341E-01  0.134E-01  0.134E-01
   5.840  0.614E-01  0.349E-01  0.132E-01  0.132E-01
   5.850  0.623E-01  0.359E-01  0.132E-01  0.132E-01
   5.860  0.635E-01  0.372E-01  0.132E-01  0.132E-01
   5.870  0.648E-01  0.384E-01  0.132E-01  0.132E-01
   5.880  0.658E-01  0.395E-01  0.132E-01  0.132E-01
   5.890  0.663E-01  0.403E-01  0.130E-01  0.130E-01
   5.900  0.663E-01  0.408E-01  0.128E-01  0.128E-01
   5.910  0.658E-01  0.410E-01  0.124E-01  0.124E-01
   5.920  0.652E-01  0.411E-01  0.120E-01  0.120E-01
   5.930  0.646E-01  0.413E-01  0.116E-01  0.116E-01
   5.940  0.643E-01  0.418E-01  0.113E-01  0.113E-01
   5.950  0.644E-01  0.425E-01  0.109E-01  0.109E-01
   5.960  0.650E-01  0.436E-01  0.107E-01  0.107E-01
   5.970  0.660E-01  0.447E-01  0.106E-01  0.106E-01
   5.980  0.671E-01  0.458E-01  0.106E-01  0.106E-01
   5.990  0.681E-01  0.465E-01  0.108E-01  0.108E-01
   6.000  0.690E-01  0.468E-01  0.111E-01  0.111E-01
   6.010  0.698E-01  0.466E-01  0.116E-01  0.116E-01
   6.020  0.707E-01  0.460E-01  0.123E-01  0.123E-01
   6.030  0.720E-01  0.455E-01  0.133E-01  0.133E-01
   6.040  0.743E-01  0.455E-01  0.144E-01  0.144E-01
   6.050  0.779E-01  0.467E-01  0.156E-01  0.156E-01
   6.060  0.834E-01  0.498E-01  0.168E-01  0.168E-01
   6.070  0.913E-01  0.553E-01  0.180E-01  0.180E-01
   6.080  0.102E+00  0.639E-01  0.189E-01  0.189E-01
   6.090  0.115E+00  0.759E-01  0.197E-01  0.197E-01
   6.100  0.132E+00  0.915E-01  0.203E-01  0.203E-01
   6.110  0.152E+00  0.111E+00  0.208E-01  0.208E-01
   6.120  0.175E+00  0.133E+00  0.213E-01  0.213E-01
   6.130  0.202E+00  0.158E+00  0.219E-01  0.219E-01
   6.140  0.230E+00  0.185E+00  0.226E-01  0.226E-01
   6.150  0.261E+00  0.213E+00  0.237E-01  0.237E-01
   6.160  0.292E+00  0.242E+00  0.249E-01  0.249E-01
   6.170  0.322E+00  0.270E+00  0.262E-01  0.262E-01
   6.180  0.351E+00  0.296E+00  0.276E-01  0.276E-01
   6.190  0.378E+00  0.320E+00  0.289E-01  0.289E-01
   6.200  0.402E+00  0.342E+00  0.300E-01  0.300E-01
   6.210  0.422E+00  0.360E+00  0.309E-01  0.309E-01
   6.220  0.438E+00  0.375E+00  0.316E-01  0.316E-01
   6.230  0.448E+00  0.385E+00  0.319E-01  0.319E-01
   6.240  0.453E+00  0.389E+00  0.319E-01  0.319E-01
   6.250  0.451E+00  0.388E+00  0.316E-01  0.316E-01
   6.260  0.442E+00  0.380E+00  0.310E-01  0.310E-01
   6.270  0.425E+00  0.365E+00  0.301E-01  0.301E-01
   6.280  0.402E+00  0.344E+00  0.290E-01  0.290E-01
   6.290  0.373E+00  0.317E+00  0.277E-01  0.277E-01
   6.300  0.339E+00  0.287E+00  0.264E-01  0.264E-01
   6.310  0.304E+00  0.254E+00  0.250E-01  0.250E-01
   6.320  0.269E+00  0.221E+00  0.238E-01  0.238E-01
   6.330  0.238E+00  0.192E+00  0.229E-01  0.229E-01
   6.340  0.212E+00  0.168E+00  0.222E-01  0.222E-01
   6.350  0.195E+00  0.152E+00  0.219E-01  0.219E-01
   6.360  0.188E+00  0.144E+00  0.218E-01  0.218E-01
   6.370  0.191E+00  0.147E+00  0.221E-01  0.221E-01
   6.380  0.205E+00  0.160E+00  0.225E-01  0.225E-01
   6.390  0.229E+00  0.183E+00  0.229E-01  0.229E-01
   6.400  0.260E+00  0.213E+00  0.233E-01  0.233E-01
   6.410  0.297E+00  0.250E+00  0.236E-01  0.236E-01
   6.420  0.337E+00  0.290E+00  0.237E-01  0.237E-01
   6.430  0.378E+00  0.330E+00  0.238E-01  0.238E-01
   6.440  0.417E+00  0.370E+00  0.237E-01  0.237E-01
   6.450  0.452E+00  0.405E+00  0.236E-01  0.236E-01
   6.460  0.480E+00  0.434E+00  0.234E-01  0.234E-01
   6.470  0.501E+00  0.454E+00  0.232E-01  0.232E-01
   6.480  0.510E+00  0.465E+00  0.230E-01  0.230E-01
   6.490  0.509E+00  0.464E+00  0.226E-01  0.226E-01
   6.500  0.496E+00  0.452E+00  0.222E-01  0.222E-01
   6.510  0.471E+00  0.428E+00  0.216E-01  0.216E-01
   6.520  0.436E+00  0.394E+00  0.210E-01  0.210E-01
   6.530  0.393E+00  0.352E+00  0.204E-01  0.204E-01
   6.540  0.343E+00  0.304E+00  0.197E-01  0.197E-01
   6.550  0.291E+00  0.253E+00  0.190E-01  0.190E-01
   6.560  0.238E+00  0.201E+00  0.183E-01  0.183E-01
   6.570  0.187E+00  0.152E+00  0.175E-01  0.175E-01
   6.580  0.140E+00  0.107E+00  0.167E-01  0.167E-01
   6.590  0.100E+00  0.688E-01  0.157E-01  0.157E-01
   6.600  0.674E-01  0.379E-01  0.148E-01  0.148E-01
   6.610  0.424E-01  0.148E-01  0.138E-01  0.138E-01
   6.620  0.251E-01 -0.919E-03  0.130E-01  0.130E-01
   6.630  0.149E-01 -0.100E-01  0.124E-01  0.124E-01
   6.640  0.106E-01 -0.138E-01  0.122E-01  0.122E-01
   6.650  0.110E-01 -0.137E-01  0.124E-01  0.124E-01
   6.660  0.146E-01 -0.111E-01  0.129E-01  0.129E-01
   6.670  0.201E-01 -0.724E-02  0.137E-01  0.137E-01
   6.680  0.263E-01 -0.305E-02  0.147E-01  0.147E-01
   6.690  0.324E-01  0.793E-03  0.158E-01  0.158E-01
   6.700  0.376E-01  0.395E-02  0.168E-01  0.168E-01
   6.710  0.418E-01  0.629E-02  0.177E-01  0.177E-01
   6.720  0.447E-01  0.786E-02  0.184E-01  0.184E-01
   6.730  0.465E-01  0.879E-02  0.188E-01  0.188E-01
   6.740  0.472E-01  0.924E-02  0.190E-01  0.190E-01
   6.750  0.472E-01  0.936E-02  0.189E-01  0.189E-01
   6.760  0.466E-01  0.929E-02  0.187E-01  0.187E-01
   6.770  0.457E-01  0.913E-02  0.183E-01  0.183E-01
   6.780  0.446E-01  0.894E-02  0.178E-01  0.178E-01
   6.790  0.435E-01  0.876E-02  0.174E-01  0.174E-01
   6.800  0.423E-01  0.858E-02  0.169E-01  0.169E-01
   6.810  0.410E-01  0.838E-02  0.163E-01  0.163E-01
   6.820  0.395E-01  0.814E-02  0.157E-01  0.157E-01
   6.830  0.379E-01  0.784E-02  0.150E-01  0.150E-01
   6.840  0.361E-01  0.748E-02  0.143E-01  0.143E-01
   6.850  0.345E-01  0.709E-02  0.137E-01  0.137E-01
   6.860  0.331E-01  0.669E-02  0.132E-01  0.132E-01
   6.870  0.320E-01  0.634E-02  0.129E-01  0.129E-01
   6.880  0.315E-01  0.609E-02  0.127E-01  0.127E-01
   6.890  0.316E-01  0.596E-02  0.128E-01  0.128E-01
   6.900  0.322E-01  0.599E-02  0.131E-01  0.131E-01
   6.910  0.332E-01  0.616E-02  0.135E-01  0.135E-01
   6.920  0.346E-01  0.647E-02  0.140E-01  0.140E-01
   6.930  0.362E-01  0.691E-02  0.146E-01  0.146E-01
   6.940  0.380E-01  0.747E-02  0.153E-01  0.153E-01
   6.950  0.402E-01  0.817E-02  0.160E-01  0.160E-01
   6.960  0.427E-01  0.903E-02  0.168E-01  0.168E-01
   6.970  0.457E-01  0.101E-01  0.178E-01  0.178E-01
   6.980  0.491E-01  0.115E-01  0.188E-01  0.188E-01
   6.990  0.529E-01  0.132E-01  0.199E-01  0.199E-01
   7.000  0.571E-01  0.154E-01  0.209E-01  0.209E-01
   7.010  0.615E-01  0.180E-01  0.217E-01  0.217E-01
   7.020  0.658E-01  0.212E-01  0.223E-01  0.223E-01
   7.030  0.697E-01  0.247E-01  0.225E-01  0.225E-01
   7.040  0.732E-01  0.286E-01  0.223E-01  0.223E-01
   7.050  0.758E-01  0.325E-01  0.216E-01  0.216E-01
   7.060  0.777E-01  0.364E-01  0.207E-01  0.207E-01
   7.070  0.786E-01  0.398E-01  0.194E-01  0.194E-01
   7.080  0.787E-01  0.427E-01  0.180E-01  0.180E-01
   7.090  0.782E-01  0.450E-01  0.166E-01  0.166E-01
   7.100  0.773E-01  0.466E-01  0.153E-01  0.153E-01
   7.110  0.762E-01  0.476E-01  0.143E-01  0.143E-01
   7.120  0.752E-01  0.482E-01  0.135E-01  0.135E-01
   7.130  0.747E-01  0.484E-01  0.131E-01  0.131E-01
   7.140  0.748E-01  0.485E-01  0.131E-01  0.131E-01
   7.150  0.755E-01  0.485E-01  0.135E-01  0.135E-01
   7.160  0.769E-01  0.485E-01  0.142E-01  0.142E-01
   7.170  0.787E-01  0.486E-01  0.151E-01  0.151E-01
   7.180  0.808E-01  0.487E-01  0.160E-01  0.160E-01
   7.190  0.829E-01  0.489E-01  0.170E-01  0.170E-01
   7.200  0.849E-01  0.492E-01  0.178E-01  0.178E-01
   7.210  0.866E-01  0.495E-01  0.185E-01  0.185E-01
   7.220  0.880E-01  0.499E-01  0.190E-01  0.190E-01
   7.230  0.892E-01  0.504E-01  0.194E-01  0.194E-01
   7.240  0.904E-01  0.509E-01  0.197E-01  0.197E-01
   7.250  0.917E-01  0.516E-01  0.200E-01  0.200E-01
   7.260  0.931E-01  0.524E-01  0.204E-01  0.204E-01
   7.270  0.946E-01  0.533E-01  0.207E-01  0.207E-01
   7.280  0.960E-01  0.542E-01  0.209E-01  0.209E-01
   7.290  0.971E-01  0.552E-01  0.210E-01  0.210E-01
   7.300  0.979E-01  0.562E-01  0.209E-01  0.209E-01
   7.310  0.984E-01  0.573E-01  0.206E-01  0.206E-01
   7.320  0.986E-01  0.584E-01  0.201E-01  0.201E-01
   7.330  0.988E-01  0.595E-01  0.196E-01  0.196E-01
   7.340  0.992E-01  0.607E-01  0.192E-01  0.192E-01
   7.350  0.998E-01  0.618E-01  0.190E-01  0.190E-01
   7.360  0.101E+00  0.628E-01  0.189E-01  0.189E-01
   7.370  0.102E+00  0.636E-01  0.191E-01  0.191E-01
   7.380  0.103E+00  0.640E-01  0.194E-01  0.194E-01
   7.390  0.104E+00  0.641E-01  0.199E-01  0.199E-01
   7.400  0.105E+00  0.639E-01  0.204E-01  0.204E-01
   7.410  0.105E+00  0.634E-01  0.208E-01  0.208E-01
   7.420  0.105E+00  0.627E-01  0.213E-01  0.213E-01
   7.430  0.105E+00  0.621E-01  0.216E-01  0.216E-01
   7.440  0.105E+00  0.616E-01  0.219E-01  0.219E-01
   7.450  0.106E+00  0.616E-01  0.221E-01  0.221E-01
   7.460  0.107E+00  0.622E-01  0.223E-01  0.223E-01
   7.470  0.108E+00  0.634E-01  0.225E-01  0.225E-01
   7.480  0.111E+00  0.654E-01  0.228E-01  0.228E-01
   7.490  0.115E+00  0.682E-01  0.232E-01  0.232E-01
   7.500  0.119E+00  0.715E-01  0.237E-01  0.237E-01
   7.510  0.124E+00  0.752E-01  0.244E-01  0.244E-01
   7.520  0.130E+00  0.794E-01  0.251E-01  0.251E-01
   7.530  0.135E+00  0.838E-01  0.258E-01  0.258E-01
   7.540  0.142E+00  0.887E-01  0.265E-01  0.265E-01
   7.550  0.148E+00  0.940E-01  0.270E-01  0.270E-01
   7.560  0.155E+00  0.999E-01  0.274E-01  0.274E-01
   7.570  0.162E+00  0.107E+00  0.275E-01  0.275E-01
   7.580  0.169E+00  0.114E+00  0.274E-01  0.274E-01
   7.590  0.177E+00  0.123E+00  0.270E-01  0.270E-01
   7.600  0.186E+00  0.133E+00  0.263E-01  0.263E-01
   7.610  0.195E+00  0.144E+00  0.255E-01  0.255E-01
   7.620  0.206E+00  0.157E+00  0.246E-01  0.246E-01
   7.630  0.218E+00  0.171E+00  0.237E-01  0.237E-01
   7.640  0.233E+00  0.187E+00  0.229E-01  0.229E-01
   7.650  0.251E+00  0.206E+00  0.225E-01  0.225E-01
   7.660  0.274E+00  0.229E+00  0.227E-01  0.227E-01
   7.670  0.302E+00  0.255E+00  0.236E-01  0.236E-01
   7.680  0.336E+00  0.285E+00  0.255E-01  0.255E-01
   7.690  0.373E+00  0.316E+00  0.285E-01  0.285E-01
   7.700  0.410E+00  0.345E+00  0.325E-01  0.325E-01
   7.710  0.444E+00  0.370E+00  0.374E-01  0.374E-01
   7.720  0.470E+00  0.385E+00  0.427E-01  0.427E-01
   7.730  0.483E+00  0.386E+00  0.481E-01  0.481E-01
   7.740  0.479E+00  0.373E+00  0.530E-01  0.530E-01
   7.750  0.458E+00  0.344E+00  0.570E-01  0.570E-01
   7.760  0.421E+00  0.302E+00  0.597E-01  0.597E-01
   7.770  0.373E+00  0.251E+00  0.609E-01  0.609E-01
   7.780  0.319E+00  0.197E+00  0.607E-01  0.607E-01
   7.790  0.264E+00  0.145E+00  0.593E-01  0.593E-01
   7.800  0.215E+00  0.100E+00  0.571E-01  0.571E-01
   7.810  0.174E+00  0.649E-01  0.545E-01  0.545E-01
   7.820  0.143E+00  0.398E-01  0.518E-01  0.518E-01
   7.830  0.123E+00  0.245E-01  0.492E-01  0.492E-01
   7.840  0.111E+00  0.169E-01  0.469E-01  0.469E-01
   7.850  0.105E+00  0.148E-01  0.451E-01  0.451E-01
   7.860  0.103E+00  0.157E-01  0.437E-01  0.437E-01
   7.870  0.103E+00  0.179E-01  0.426E-01  0.426E-01
   7.880  0.104E+00  0.201E-01  0.417E-01  0.417E-01
   7.890  0.104E+00  0.217E-01  0.411E-01  0.411E-01
   7.900  0.103E+00  0.226E-01  0.404E-01  0.404E-01
   7.910  0.102E+00  0.229E-01  0.397E-01  0.397E-01
   7.920  0.101E+00  0.228E-01  0.390E-01  0.390E-01
   7.930  0.995E-01  0.226E-01  0.384E-01  0.384E-01
   7.940  0.984E-01  0.223E-01  0.380E-01  0.380E-01
   7.950  0.978E-01  0.219E-01  0.380E-01  0.380E-01
   7.960  0.979E-01  0.215E-01  0.382E-01  0.382E-01
   7.970  0.985E-01  0.209E-01  0.388E-01  0.388E-01
   7.980  0.993E-01  0.201E-01  0.396E-01  0.396E-01
   7.990  0.999E-01  0.191E-01  0.404E-01  0.404E-01
   8.000  0.997E-01  0.181E-01  0.408E-01  0.408E-01
   8.010  0.987E-01  0.171E-01  0.408E-01  0.408E-01
   8.020  0.966E-01  0.162E-01  0.402E-01  0.402E-01
   8.030  0.936E-01  0.156E-01  0.390E-01  0.390E-01
   8.040  0.901E-01  0.152E-01  0.375E-01  0.375E-01
   8.050  0.866E-01  0.152E-01  0.357E-01  0.357E-01
   8.060  0.835E-01  0.153E-01  0.341E-01  0.341E-01
   8.070  0.813E-01  0.157E-01  0.328E-01  0.328E-01
   8.080  0.803E-01  0.161E-01  0.321E-01  0.321E-01
   8.090  0.806E-01  0.165E-01  0.320E-01  0.320E-01
   8.100  0.820E-01  0.168E-01  0.326E-01  0.326E-01
   8.110  0.841E-01  0.169E-01  0.336E-01  0.336E-01
   8.120  0.865E-01  0.167E-01  0.349E-01  0.349E-01
   8.130  0.887E-01  0.163E-01  0.362E-01  0.362E-01
   8.140  0.903E-01  0.155E-01  0.374E-01  0.374E-01
   8.150  0.910E-01  0.146E-01  0.382E-01  0.382E-01
   8.160  0.907E-01  0.136E-01  0.385E-01  0.385E-01
   8.170  0.895E-01  0.126E-01  0.384E-01  0.384E-01
   8.180  0.877E-01  0.117E-01  0.380E-01  0.380E-01
   8.190  0.856E-01  0.111E-01  0.372E-01  0.372E-01
   8.200  0.837E-01  0.108E-01  0.365E-01  0.365E-01
   8.210  0.822E-01  0.107E-01  0.358E-01  0.358E-01
   8.220  0.815E-01  0.108E-01  0.353E-01  0.353E-01
   8.230  0.815E-01  0.110E-01  0.353E-01  0.353E-01
   8.240  0.825E-01  0.113E-01  0.356E-01  0.356E-01
   8.250  0.841E-01  0.115E-01  0.363E-01  0.363E-01
   8.260  0.864E-01  0.118E-01  0.373E-01  0.373E-01
   8.270  0.890E-01  0.121E-01  0.384E-01  0.384E-01
   8.280  0.918E-01  0.125E-01  0.396E-01  0.396E-01
   8.290  0.942E-01  0.129E-01  0.407E-01  0.407E-01
   8.300  0.961E-01  0.132E-01  0.414E-01  0.414E-01
   8.310  0.970E-01  0.135E-01  0.418E-01  0.418E-01
   8.320  0.968E-01  0.136E-01  0.416E-01  0.416E-01
   8.330  0.954E-01  0.135E-01  0.409E-01  0.409E-01
   8.340  0.932E-01  0.133E-01  0.399E-01  0.399E-01
   8.350  0.904E-01  0.129E-01  0.387E-01  0.387E-01
   8.360  0.877E-01  0.125E-01  0.376E-01  0.376E-01
   8.370  0.856E-01  0.121E-01  0.367E-01  0.367E-01
   8.380  0.845E-01  0.118E-01  0.364E-01  0.364E-01
   8.390  0.846E-01  0.115E-01  0.365E-01  0.365E-01
   8.400  0.858E-01  0.114E-01  0.372E-01  0.372E-01
   8.410  0.876E-01  0.112E-01  0.382E-01  0.382E-01
   8.420  0.894E-01  0.110E-01  0.392E-01  0.392E-01
   8.430  0.908E-01  0.106E-01  0.401E-01  0.401E-01
   8.440  0.913E-01  0.999E-02  0.406E-01  0.406E-01
   8.450  0.909E-01  0.932E-02  0.408E-01  0.408E-01
   8.460  0.899E-01  0.865E-02  0.406E-01  0.406E-01
   8.470  0.890E-01  0.812E-02  0.404E-01  0.404E-01
   8.480  0.888E-01  0.787E-02  0.405E-01  0.405E-01
   8.490  0.898E-01  0.798E-02  0.409E-01  0.409E-01
   8.500  0.926E-01  0.847E-02  0.420E-01  0.420E-01
   8.510  0.969E-01  0.927E-02  0.438E-01  0.438E-01
   8.520  0.102E+00  0.102E-01  0.461E-01  0.461E-01
   8.530  0.108E+00  0.112E-01  0.486E-01  0.486E-01
   8.540  0.114E+00  0.121E-01  0.510E-01  0.510E-01
   8.550  0.119E+00  0.126E-01  0.530E-01  0.530E-01
   8.560  0.121E+00  0.129E-01  0.542E-01  0.542E-01
   8.570  0.122E+00  0.128E-01  0.547E-01  0.547E-01
   8.580  0.121E+00  0.125E-01  0.542E-01  0.542E-01
   8.590  0.118E+00  0.121E-01  0.529E-01  0.529E-01
   8.600  0.113E+00  0.118E-01  0.508E-01  0.508E-01
   8.610  0.108E+00  0.116E-01  0.482E-01  0.482E-01
   8.620  0.102E+00  0.117E-01  0.453E-01  0.453E-01
   8.630  0.963E-01  0.119E-01  0.422E-01  0.422E-01
   8.640  0.906E-01  0.123E-01  0.392E-01  0.392E-01
   8.650  0.856E-01  0.126E-01  0.365E-01  0.365E-01
   8.660  0.814E-01  0.128E-01  0.343E-01  0.343E-01
   8.670  0.784E-01  0.128E-01  0.328E-01  0.328E-01
   8.680  0.770E-01  0.126E-01  0.322E-01  0.322E-01
   8.690  0.774E-01  0.123E-01  0.326E-01  0.326E-01
   8.700  0.800E-01  0.119E-01  0.340E-01  0.340E-01
   8.710  0.848E-01  0.117E-01  0.366E-01  0.366E-01
   8.720  0.920E-01  0.116E-01  0.402E-01  0.402E-01
   8.730  0.101E+00  0.118E-01  0.447E-01  0.447E-01
   8.740  0.112E+00  0.122E-01  0.499E-01  0.499E-01
   8.750  0.124E+00  0.128E-01  0.554E-01  0.554E-01
   8.760  0.135E+00  0.133E-01  0.606E-01  0.606E-01
   8.770  0.144E+00  0.136E-01  0.652E-01  0.652E-01
   8.780  0.151E+00  0.137E-01  0.687E-01  0.687E-01
   8.790  0.155E+00  0.133E-01  0.709E-01  0.709E-01
   8.800  0.156E+00  0.126E-01  0.716E-01  0.716E-01
   8.810  0.154E+00  0.117E-01  0.711E-01  0.711E-01
   8.820  0.150E+00  0.107E-01  0.698E-01  0.698E-01
   8.830  0.146E+00  0.987E-02  0.681E-01  0.681E-01
   8.840  0.142E+00  0.935E-02  0.663E-01  0.663E-01
   8.850  0.139E+00  0.918E-02  0.648E-01  0.648E-01
   8.860  0.137E+00  0.932E-02  0.636E-01  0.636E-01
   8.870  0.135E+00  0.964E-02  0.629E-01  0.629E-01
   8.880  0.135E+00  0.995E-02  0.625E-01  0.625E-01
   8.890  0.135E+00  0.101E-01  0.625E-01  0.625E-01
   8.900  0.136E+00  0.992E-02  0.629E-01  0.629E-01
   8.910  0.137E+00  0.942E-02  0.638E-01  0.638E-01
   8.920  0.140E+00  0.866E-02  0.656E-01  0.656E-01
   8.930  0.144E+00  0.777E-02  0.682E-01  0.682E-01
   8.940  0.150E+00  0.690E-02  0.718E-01  0.718E-01
   8.950  0.158E+00  0.621E-02  0.761E-01  0.761E-01
   8.960  0.168E+00  0.579E-02  0.809E-01  0.809E-01
   8.970  0.177E+00  0.568E-02  0.857E-01  0.857E-01
   8.980  0.186E+00  0.583E-02  0.901E-01  0.901E-01
   8.990  0.193E+00  0.613E-02  0.936E-01  0.936E-01
   9.000  0.198E+00  0.646E-02  0.959E-01  0.959E-01
   9.010  0.200E+00  0.668E-02  0.966E-01  0.966E-01
   9.020  0.199E+00  0.670E-02  0.959E-01  0.959E-01
   9.030  0.194E+00  0.648E-02  0.938E-01  0.938E-01
   9.040  0.187E+00  0.602E-02  0.906E-01  0.906E-01
   9.050  0.179E+00  0.540E-02  0.868E-01  0.868E-01
   9.060  0.170E+00  0.471E-02  0.826E-01  0.826E-01
   9.070  0.161E+00  0.406E-02  0.785E-01  0.785E-01
   9.080  0.153E+00  0.357E-02  0.750E-01  0.750E-01
   9.090  0.148E+00  0.328E-02  0.722E-01  0.722E-01
   9.100  0.144E+00  0.323E-02  0.704E-01  0.704E-01
   9.110  0.143E+00  0.340E-02  0.698E-01  0.698E-01
   9.120  0.144E+00  0.371E-02  0.702E-01  0.702E-01
   9.130  0.147E+00  0.408E-02  0.715E-01  0.715E-01
   9.140  0.151E+00  0.441E-02  0.733E-01  0.733E-01
   9.150  0.155E+00  0.463E-02  0.754E-01  0.754E-01
   9.160  0.159E+00  0.468E-02  0.773E-01  0.773E-01
   9.170  0.162E+00  0.454E-02  0.787E-01  0.787E-01
   9.180  0.163E+00  0.423E-02  0.795E-01  0.795E-01
   9.190  0.164E+00  0.381E-02  0.799E-01  0.799E-01
   9.200  0.163E+00  0.336E-02  0.799E-01  0.799E-01
   9.210  0.163E+00  0.295E-02  0.799E-01  0.799E-01
   9.220  0.163E+00  0.265E-02  0.800E-01  0.800E-01
   9.230  0.163E+00  0.248E-02  0.803E-01  0.803E-01
   9.240  0.164E+00  0.247E-02  0.806E-01  0.806E-01
   9.250  0.164E+00  0.258E-02  0.808E-01  0.808E-01
   9.260  0.164E+00  0.277E-02  0.804E-01  0.804E-01
   9.270  0.162E+00  0.299E-02  0.794E-01  0.794E-01
   9.280  0.158E+00  0.318E-02  0.775E-01  0.775E-01
   9.290  0.153E+00  0.330E-02  0.750E-01  0.750E-01
   9.300  0.148E+00  0.331E-02  0.723E-01  0.723E-01
   9.310  0.143E+00  0.321E-02  0.698E-01  0.698E-01
   9.320  0.139E+00  0.302E-02  0.681E-01  0.681E-01
   9.330  0.138E+00  0.277E-02  0.677E-01  0.677E-01
   9.340  0.141E+00  0.250E-02  0.692E-01  0.692E-01
   9.350  0.148E+00  0.228E-02  0.729E-01  0.729E-01
   9.360  0.161E+00  0.213E-02  0.793E-01  0.793E-01
   9.370  0.179E+00  0.209E-02  0.884E-01  0.884E-01
   9.380  0.203E+00  0.217E-02  0.101E+00  0.101E+00
   9.390  0.234E+00  0.238E-02  0.116E+00  0.116E+00
   9.400  0.270E+00  0.270E-02  0.134E+00  0.134E+00
   9.410  0.312E+00  0.309E-02  0.154E+00  0.154E+00
   9.420  0.357E+00  0.354E-02  0.177E+00  0.177E+00
   9.430  0.404E+00  0.400E-02  0.200E+00  0.200E+00
   9.440  0.453E+00  0.446E-02  0.224E+00  0.224E+00
   9.450  0.500E+00  0.491E-02  0.248E+00  0.248E+00
   9.460  0.547E+00  0.533E-02  0.271E+00  0.271E+00
   9.470  0.592E+00  0.573E-02  0.293E+00  0.293E+00
   9.480  0.636E+00  0.610E-02  0.315E+00  0.315E+00
   9.490  0.680E+00  0.647E-02  0.337E+00  0.337E+00
   9.500  0.723E+00  0.683E-02  0.358E+00  0.358E+00
   9.510  0.766E+00  0.719E-02  0.380E+00  0.380E+00
   9.520  0.810E+00  0.756E-02  0.401E+00  0.401E+00
   9.530  0.854E+00  0.791E-02  0.423E+00  0.423E+00
   9.540  0.897E+00  0.826E-02  0.444E+00  0.444E+00
   9.550  0.936E+00  0.860E-02  0.464E+00  0.464E+00
   9.560  0.970E+00  0.891E-02  0.481E+00  0.481E+00
   9.570  0.997E+00  0.922E-02  0.494E+00  0.494E+00
   9.580  0.101E+01  0.953E-02  0.502E+00  0.502E+00
   9.590  0.102E+01  0.990E-02  0.503E+00  0.503E+00
   9.600  0.100E+01  0.104E-01  0.496E+00  0.496E+00
   9.610  0.971E+00  0.111E-01  0.480E+00  0.480E+00
   9.620  0.924E+00  0.124E-01  0.456E+00  0.456E+00
   9.630  0.862E+00  0.143E-01  0.424E+00  0.424E+00
   9.640  0.789E+00  0.174E-01  0.386E+00  0.386E+00
   9.650  0.711E+00  0.220E-01  0.345E+00  0.345E+00
   9.660  0.635E+00  0.286E-01  0.303E+00  0.303E+00
   9.670  0.568E+00  0.376E-01  0.265E+00  0.265E+00
   9.680  0.513E+00  0.493E-01  0.232E+00  0.232E+00
   9.690  0.475E+00  0.635E-01  0.206E+00  0.206E+00
   9.700  0.453E+00  0.798E-01  0.187E+00  0.187E+00
   9.710  0.446E+00  0.975E-01  0.174E+00  0.174E+00
   9.720  0.451E+00  0.115E+00  0.168E+00  0.168E+00
   9.730  0.463E+00  0.132E+00  0.165E+00  0.165E+00
   9.740  0.477E+00  0.147E+00  0.165E+00  0.165E+00
   9.750  0.491E+00  0.157E+00  0.167E+00  0.167E+00
   9.760  0.501E+00  0.164E+00  0.168E+00  0.168E+00
   9.770  0.507E+00  0.167E+00  0.170E+00  0.170E+00
   9.780  0.509E+00  0.167E+00  0.171E+00  0.171E+00
   9.790  0.508E+00  0.165E+00  0.172E+00  0.172E+00
   9.800  0.505E+00  0.162E+00  0.172E+00  0.172E+00
   9.810  0.501E+00  0.160E+00  0.171E+00  0.171E+00
   9.820  0.499E+00  0.160E+00  0.169E+00  0.169E+00
   9.830  0.499E+00  0.164E+00  0.167E+00  0.167E+00
   9.840  0.501E+00  0.171E+00  0.165E+00  0.165E+00
   9.850  0.505E+00  0.181E+00  0.162E+00  0.162E+00
   9.860  0.512E+00  0.194E+00  0.159E+00  0.159E+00
   9.870  0.520E+00  0.207E+00  0.156E+00  0.156E+00
   9.880  0.528E+00  0.219E+00  0.155E+00  0.155E+00
   9.890  0.533E+00  0.226E+00  0.153E+00  0.153E+00
   9.900  0.532E+00  0.227E+00  0.153E+00  0.153E+00
   9.910  0.523E+00  0.220E+00  0.152E+00  0.152E+00
   9.920  0.504E+00  0.204E+00  0.150E+00  0.150E+00
   9.930  0.473E+00  0.180E+00  0.146E+00  0.146E+00
   9.940  0.431E+00  0.150E+00  0.141E+00  0.141E+00
   9.950  0.382E+00  0.116E+00  0.133E+00  0.133E+00
   9.960  0.330E+00  0.818E-01  0.124E+00  0.124E+00
   9.970  0.278E+00  0.501E-01  0.114E+00  0.114E+00
   9.980  0.233E+00  0.236E-01  0.105E+00  0.105E+00
   9.990  0.196E+00  0.351E-02  0.964E-01  0.964E-01
  10.000  0.171E+00 -0.967E-02  0.902E-01  0.902E-01
  10.010  0.156E+00 -0.166E-01  0.863E-01  0.863E-01
  10.020  0.151E+00 -0.185E-01  0.847E-01  0.847E-01
  10.030  0.153E+00 -0.170E-01  0.849E-01  0.849E-01
  10.040  0.159E+00 -0.136E-01  0.861E-01  0.861E-01
  10.050  0.166E+00 -0.933E-02  0.878E-01  0.878E-01
  10.060  0.173E+00 -0.521E-02  0.893E-01  0.893E-01
  10.070  0.179E+00 -0.168E-02  0.901E-01  0.901E-01
  10.080  0.181E+00  0.110E-02  0.902E-01  0.902E-01
  10.090  0.182E+00  0.313E-02  0.894E-01  0.894E-01
  10.100  0.181E+00  0.452E-02  0.883E-01  0.883E-01
  10.110  0.179E+00  0.544E-02  0.869E-01  0.869E-01
  10.120  0.178E+00  0.603E-02  0.859E-01  0.859E-01
  10.130  0.177E+00  0.642E-02  0.853E-01  0.853E-01
  10.140  0.177E+00  0.669E-02  0.854E-01  0.854E-01
  10.150  0.179E+00  0.689E-02  0.859E-01  0.859E-01
  10.160  0.180E+00  0.704E-02  0.867E-01  0.867E-01
  10.170  0.182E+00  0.713E-02  0.874E-01  0.874E-01
  10.180  0.182E+00  0.715E-02  0.875E-01  0.875E-01
  10.190  0.181E+00  0.706E-02  0.870E-01  0.870E-01
  10.200  0.178E+00  0.686E-02  0.857E-01  0.857E-01
  10.210  0.174E+00  0.655E-02  0.837E-01  0.837E-01
  10.220  0.169E+00  0.615E-02  0.814E-01  0.814E-01
  10.230  0.164E+00  0.570E-02  0.790E-01  0.790E-01
  10.240  0.159E+00  0.523E-02  0.769E-01  0.769E-01
  10.250  0.155E+00  0.480E-02  0.753E-01  0.753E-01
  10.260  0.153E+00  0.445E-02  0.742E-01  0.742E-01
  10.270  0.151E+00  0.420E-02  0.736E-01  0.736E-01
  10.280  0.151E+00  0.406E-02  0.733E-01  0.733E-01
  10.290  0.150E+00  0.401E-02  0.731E-01  0.731E-01
  10.300  0.150E+00  0.403E-02  0.728E-01  0.728E-01
  10.310  0.149E+00  0.409E-02  0.723E-01  0.723E-01
  10.320  0.147E+00  0.415E-02  0.714E-01  0.714E-01
  10.330  0.145E+00  0.419E-02  0.702E-01  0.702E-01
  10.340  0.141E+00  0.421E-02  0.686E-01  0.686E-01
  10.350  0.138E+00  0.419E-02  0.668E-01  0.668E-01
  10.360  0.134E+00  0.416E-02  0.650E-01  0.650E-01
  10.370  0.131E+00  0.413E-02  0.633E-01  0.633E-01
  10.380  0.128E+00  0.412E-02  0.621E-01  0.621E-01
  10.390  0.128E+00  0.414E-02  0.617E-01  0.617E-01
  10.400  0.129E+00  0.418E-02  0.622E-01  0.622E-01
  10.410  0.132E+00  0.422E-02  0.637E-01  0.637E-01
  10.420  0.136E+00  0.426E-02  0.659E-01  0.659E-01
  10.430  0.141E+00  0.428E-02  0.685E-01  0.685E-01
  10.440  0.147E+00  0.427E-02  0.712E-01  0.712E-01
  10.450  0.151E+00  0.425E-02  0.735E-01  0.735E-01
  10.460  0.155E+00  0.422E-02  0.752E-01  0.752E-01
  10.470  0.156E+00  0.419E-02  0.759E-01  0.759E-01
  10.480  0.156E+00  0.420E-02  0.757E-01  0.757E-01
  10.490  0.153E+00  0.424E-02  0.745E-01  0.745E-01
  10.500  0.149E+00  0.433E-02  0.725E-01  0.725E-01
  10.510  0.144E+00  0.446E-02  0.699E-01  0.699E-01
  10.520  0.138E+00  0.463E-02  0.668E-01  0.668E-01
  10.530  0.132E+00  0.483E-02  0.635E-01  0.635E-01
  10.540  0.125E+00  0.504E-02  0.601E-01  0.601E-01
  10.550  0.119E+00  0.525E-02  0.568E-01  0.568E-01
  10.560  0.113E+00  0.544E-02  0.539E-01  0.539E-01
  10.570  0.109E+00  0.561E-02  0.517E-01  0.517E-01
  10.580  0.107E+00  0.576E-02  0.504E-01  0.504E-01
  10.590  0.106E+00  0.590E-02  0.500E-01  0.500E-01
  10.600  0.107E+00  0.602E-02  0.506E-01  0.506E-01
  10.610  0.110E+00  0.614E-02  0.521E-01  0.521E-01
  10.620  0.114E+00  0.625E-02  0.540E-01  0.540E-01
  10.630  0.118E+00  0.634E-02  0.560E-01  0.560E-01
  10.640  0.122E+00  0.641E-02  0.577E-01  0.577E-01
  10.650  0.124E+00  0.643E-02  0.587E-01  0.587E-01
  10.660  0.124E+00  0.639E-02  0.588E-01  0.588E-01
  10.670  0.122E+00  0.627E-02  0.580E-01  0.580E-01
  10.680  0.119E+00  0.609E-02  0.564E-01  0.564E-01
  10.690  0.115E+00  0.584E-02  0.544E-01  0.544E-01
  10.700  0.110E+00  0.556E-02  0.523E-01  0.523E-01
  10.710  0.106E+00  0.528E-02  0.505E-01  0.505E-01
  10.720  0.104E+00  0.504E-02  0.494E-01  0.494E-01
  10.730  0.103E+00  0.485E-02  0.491E-01  0.491E-01
  10.740  0.104E+00  0.475E-02  0.498E-01  0.498E-01
  10.750  0.108E+00  0.474E-02  0.515E-01  0.515E-01
  10.760  0.113E+00  0.483E-02  0.542E-01  0.542E-01
  10.770  0.121E+00  0.502E-02  0.578E-01  0.578E-01
  10.780  0.129E+00  0.530E-02  0.619E-01  0.619E-01
  10.790  0.138E+00  0.564E-02  0.663E-01  0.663E-01
  10.800  0.147E+00  0.602E-02  0.706E-01  0.706E-01
  10.810  0.155E+00  0.641E-02  0.743E-01  0.743E-01
  10.820  0.161E+00  0.678E-02  0.770E-01  0.770E-01
  10.830  0.163E+00  0.708E-02  0.782E-01  0.782E-01
  10.840  0.163E+00  0.729E-02  0.778E-01  0.778E-01
  10.850  0.159E+00  0.739E-02  0.757E-01  0.757E-01
  10.860  0.152E+00  0.739E-02  0.723E-01  0.723E-01
  10.870  0.143E+00  0.729E-02  0.679E-01  0.679E-01
  10.880  0.134E+00  0.711E-02  0.632E-01  0.632E-01
  10.890  0.124E+00  0.689E-02  0.587E-01  0.587E-01
  10.900  0.116E+00  0.666E-02  0.548E-01  0.548E-01
  10.910  0.110E+00  0.644E-02  0.520E-01  0.520E-01
  10.920  0.107E+00  0.626E-02  0.504E-01  0.504E-01
  10.930  0.106E+00  0.612E-02  0.501E-01  0.501E-01
  10.940  0.108E+00  0.604E-02  0.508E-01  0.508E-01
  10.950  0.111E+00  0.600E-02  0.523E-01  0.523E-01
  10.960  0.114E+00  0.597E-02  0.542E-01  0.542E-01
  10.970  0.118E+00  0.593E-02  0.562E-01  0.562E-01
  10.980  0.122E+00  0.586E-02  0.579E-01  0.579E-01
  10.990  0.124E+00  0.574E-02  0.592E-01  0.592E-01
  11.000  0.126E+00  0.556E-02  0.601E-01  0.601E-01
  11.010  0.127E+00  0.532E-02  0.607E-01  0.607E-01
  11.020  0.127E+00  0.503E-02  0.609E-01  0.609E-01
  11.030  0.127E+00  0.470E-02  0.609E-01  0.609E-01
  11.040  0.126E+00  0.435E-02  0.608E-01  0.608E-01
  11.050  0.125E+00  0.403E-02  0.604E-01  0.604E-01
  11.060  0.123E+00  0.375E-02  0.597E-01  0.597E-01
  11.070  0.121E+00  0.356E-02  0.587E-01  0.587E-01
  11.080  0.118E+00  0.347E-02  0.572E-01  0.572E-01
  11.090  0.114E+00  0.349E-02  0.554E-01  0.554E-01
  11.100  0.111E+00  0.361E-02  0.535E-01  0.535E-01
  11.110  0.107E+00  0.381E-02  0.516E-01  0.516E-01
  11.120  0.104E+00  0.402E-02  0.498E-01  0.498E-01
  11.130  0.101E+00  0.421E-02  0.483E-01  0.483E-01
  11.140  0.980E-01  0.434E-02  0.468E-01  0.468E-01
  11.150  0.950E-01  0.438E-02  0.453E-01  0.453E-01
  11.160  0.915E-01  0.432E-02  0.436E-01  0.436E-01
  11.170  0.874E-01  0.419E-02  0.416E-01  0.416E-01
  11.180  0.828E-01  0.403E-02  0.394E-01  0.394E-01
  11.190  0.780E-01  0.388E-02  0.371E-01  0.371E-01
  11.200  0.739E-01  0.379E-02  0.350E-01  0.350E-01
  11.210  0.710E-01  0.379E-02  0.336E-01  0.336E-01
  11.220  0.701E-01  0.389E-02  0.331E-01  0.331E-01
  11.230  0.715E-01  0.407E-02  0.337E-01  0.337E-01
  11.240  0.752E-01  0.430E-02  0.354E-01  0.354E-01
  11.250  0.807E-01  0.454E-02  0.381E-01  0.381E-01
  11.260  0.873E-01  0.475E-02  0.413E-01  0.413E-01
  11.270  0.940E-01  0.487E-02  0.446E-01  0.446E-01
  11.280  0.998E-01  0.488E-02  0.474E-01  0.474E-01
  11.290  0.104E+00  0.478E-02  0.495E-01  0.495E-01
  11.300  0.105E+00  0.458E-02  0.504E-01  0.504E-01
  11.310  0.104E+00  0.431E-02  0.499E-01  0.499E-01
  11.320  0.101E+00  0.400E-02  0.483E-01  0.483E-01
  11.330  0.947E-01  0.369E-02  0.455E-01  0.455E-01
  11.340  0.874E-01  0.342E-02  0.420E-01  0.420E-01
  11.350  0.796E-01  0.321E-02  0.382E-01  0.382E-01
  11.360  0.722E-01  0.307E-02  0.346E-01  0.346E-01
  11.370  0.660E-01  0.300E-02  0.315E-01  0.315E-01
  11.380  0.615E-01  0.300E-02  0.292E-01  0.292E-01
  11.390  0.592E-01  0.305E-02  0.281E-01  0.281E-01
  11.400  0.592E-01  0.313E-02  0.280E-01  0.280E-01
  11.410  0.614E-01  0.322E-02  0.291E-01  0.291E-01
  11.420  0.653E-01  0.333E-02  0.310E-01  0.310E-01
  11.430  0.704E-01  0.343E-02  0.335E-01  0.335E-01
  11.440  0.759E-01  0.354E-02  0.362E-01  0.362E-01
  11.450  0.811E-01  0.366E-02  0.387E-01  0.387E-01
  11.460  0.852E-01  0.380E-02  0.407E-01  0.407E-01
  11.470  0.876E-01  0.398E-02  0.418E-01  0.418E-01
  11.480  0.880E-01  0.420E-02  0.419E-01  0.419E-01
  11.490  0.863E-01  0.445E-02  0.409E-01  0.409E-01
  11.500  0.826E-01  0.472E-02  0.389E-01  0.389E-01
  11.510  0.775E-01  0.502E-02  0.363E-01  0.363E-01
  11.520  0.717E-01  0.531E-02  0.332E-01  0.332E-01
  11.530  0.658E-01  0.559E-02  0.301E-01  0.301E-01
  11.540  0.607E-01  0.583E-02  0.274E-01  0.274E-01
  11.550  0.570E-01  0.600E-02  0.255E-01  0.255E-01
  11.560  0.552E-01  0.611E-02  0.245E-01  0.245E-01
  11.570  0.554E-01  0.612E-02  0.246E-01  0.246E-01
  11.580  0.576E-01  0.605E-02  0.258E-01  0.258E-01
  11.590  0.613E-01  0.589E-02  0.277E-01  0.277E-01
  11.600  0.661E-01  0.566E-02  0.302E-01  0.302E-01
  11.610  0.712E-01  0.536E-02  0.329E-01  0.329E-01
  11.620  0.759E-01  0.503E-02  0.354E-01  0.354E-01
  11.630  0.795E-01  0.469E-02  0.374E-01  0.374E-01
  11.640  0.817E-01  0.438E-02  0.386E-01  0.386E-01
  11.650  0.820E-01  0.411E-02  0.390E-01  0.390E-01
  11.660  0.806E-01  0.391E-02  0.383E-01  0.383E-01
  11.670  0.776E-01  0.381E-02  0.369E-01  0.369E-01
  11.680  0.733E-01  0.379E-02  0.348E-01  0.348E-01
  11.690  0.683E-01  0.385E-02  0.322E-01  0.322E-01
  11.700  0.632E-01  0.396E-02  0.296E-01  0.296E-01
  11.710  0.585E-01  0.408E-02  0.272E-01  0.272E-01
  11.720  0.546E-01  0.416E-02  0.252E-01  0.252E-01
  11.730  0.519E-01  0.417E-02  0.239E-01  0.239E-01
  11.740  0.506E-01  0.409E-02  0.232E-01  0.232E-01
  11.750  0.505E-01  0.392E-02  0.233E-01  0.233E-01
  11.760  0.516E-01  0.370E-02  0.240E-01  0.240E-01
  11.770  0.535E-01  0.345E-02  0.250E-01  0.250E-01
  11.780  0.557E-01  0.322E-02  0.262E-01  0.262E-01
  11.790  0.579E-01  0.306E-02  0.274E-01  0.274E-01
  11.800  0.595E-01  0.300E-02  0.283E-01  0.283E-01
  11.810  0.604E-01  0.304E-02  0.287E-01  0.287E-01
  11.820  0.602E-01  0.317E-02  0.285E-01  0.285E-01
  11.830  0.589E-01  0.337E-02  0.278E-01  0.278E-01
  11.840  0.568E-01  0.361E-02  0.266E-01  0.266E-01
  11.850  0.539E-01  0.385E-02  0.250E-01  0.250E-01
  11.860  0.507E-01  0.405E-02  0.233E-01  0.233E-01
  11.870  0.476E-01  0.418E-02  0.217E-01  0.217E-01
  11.880  0.452E-01  0.422E-02  0.205E-01  0.205E-01
  11.890  0.438E-01  0.417E-02  0.198E-01  0.198E-01
  11.900  0.438E-01  0.403E-02  0.199E-01  0.199E-01
  11.910  0.452E-01  0.383E-02  0.207E-01  0.207E-01
  11.920  0.481E-01  0.363E-02  0.222E-01  0.222E-01
  11.930  0.521E-01  0.346E-02  0.243E-01  0.243E-01
  11.940  0.565E-01  0.337E-02  0.266E-01  0.266E-01
  11.950  0.608E-01  0.337E-02  0.287E-01  0.287E-01
  11.960  0.642E-01  0.347E-02  0.304E-01  0.304E-01
  11.970  0.659E-01  0.364E-02  0.311E-01  0.311E-01
  11.980  0.656E-01  0.382E-02  0.309E-01  0.309E-01
  11.990  0.633E-01  0.398E-02  0.297E-01  0.297E-01
  12.000  0.592E-01  0.405E-02  0.276E-01  0.276E-01
  12.010  0.542E-01  0.401E-02  0.251E-01  0.251E-01
  12.020  0.492E-01  0.383E-02  0.227E-01  0.227E-01
  12.030  0.450E-01  0.352E-02  0.207E-01  0.207E-01
  12.040  0.425E-01  0.312E-02  0.197E-01  0.197E-01
  12.050  0.421E-01  0.268E-02  0.197E-01  0.197E-01
  12.060  0.438E-01  0.224E-02  0.208E-01  0.208E-01
  12.070  0.471E-01  0.186E-02  0.226E-01  0.226E-01
  12.080  0.516E-01  0.157E-02  0.250E-01  0.250E-01
  12.090  0.564E-01  0.141E-02  0.275E-01  0.275E-01
  12.100  0.610E-01  0.138E-02  0.298E-01  0.298E-01
  12.110  0.650E-01  0.147E-02  0.317E-01  0.317E-01
  12.120  0.680E-01  0.167E-02  0.332E-01  0.332E-01
  12.130  0.702E-01  0.196E-02  0.341E-01  0.341E-01
  12.140  0.715E-01  0.229E-02  0.346E-01  0.346E-01
  12.150  0.721E-01  0.263E-02  0.347E-01  0.347E-01
  12.160  0.719E-01  0.294E-02  0.345E-01  0.345E-01
  12.170  0.709E-01  0.319E-02  0.339E-01  0.339E-01
  12.180  0.692E-01  0.335E-02  0.329E-01  0.329E-01
  12.190  0.667E-01  0.341E-02  0.316E-01  0.316E-01
  12.200  0.636E-01  0.338E-02  0.301E-01  0.301E-01
  12.210  0.602E-01  0.326E-02  0.284E-01  0.284E-01
  12.220  0.567E-01  0.309E-02  0.268E-01  0.268E-01
  12.230  0.535E-01  0.290E-02  0.253E-01  0.253E-01
  12.240  0.508E-01  0.273E-02  0.240E-01  0.240E-01
  12.250  0.487E-01  0.260E-02  0.230E-01  0.230E-01
  12.260  0.471E-01  0.253E-02  0.223E-01  0.223E-01
  12.270  0.459E-01  0.252E-02  0.217E-01  0.217E-01
  12.280  0.450E-01  0.257E-02  0.212E-01  0.212E-01
  12.290  0.441E-01  0.264E-02  0.207E-01  0.207E-01
  12.300  0.433E-01  0.274E-02  0.203E-01  0.203E-01
  12.310  0.425E-01  0.282E-02  0.198E-01  0.198E-01
  12.320  0.417E-01  0.290E-02  0.194E-01  0.194E-01
  12.330  0.412E-01  0.295E-02  0.191E-01  0.191E-01
  12.340  0.410E-01  0.300E-02  0.190E-01  0.190E-01
  12.350  0.412E-01  0.303E-02  0.191E-01  0.191E-01
  12.360  0.418E-01  0.307E-02  0.194E-01  0.194E-01
  12.370  0.430E-01  0.312E-02  0.199E-01  0.199E-01
  12.380  0.446E-01  0.317E-02  0.207E-01  0.207E-01
  12.390  0.465E-01  0.321E-02  0.217E-01  0.217E-01
  12.400  0.488E-01  0.325E-02  0.228E-01  0.228E-01
  12.410  0.511E-01  0.327E-02  0.239E-01  0.239E-01
  12.420  0.534E-01  0.326E-02  0.251E-01  0.251E-01
  12.430  0.553E-01  0.322E-02  0.261E-01  0.261E-01
  12.440  0.567E-01  0.316E-02  0.268E-01  0.268E-01
  12.450  0.574E-01  0.308E-02  0.272E-01  0.272E-01
  12.460  0.573E-01  0.300E-02  0.271E-01  0.271E-01
  12.470  0.562E-01  0.293E-02  0.266E-01  0.266E-01
  12.480  0.542E-01  0.286E-02  0.257E-01  0.257E-01
  12.490  0.515E-01  0.280E-02  0.243E-01  0.243E-01
  12.500  0.482E-01  0.273E-02  0.228E-01  0.228E-01
  12.510  0.447E-01  0.265E-02  0.210E-01  0.210E-01
  12.520  0.413E-01  0.256E-02  0.194E-01  0.194E-01
  12.530  0.383E-01  0.244E-02  0.179E-01  0.179E-01
  12.540  0.360E-01  0.232E-02  0.168E-01  0.168E-01
  12.550  0.345E-01  0.219E-02  0.162E-01  0.162E-01
  12.560  0.341E-01  0.207E-02  0.160E-01  0.160E-01
  12.570  0.347E-01  0.198E-02  0.164E-01  0.164E-01
  12.580  0.364E-01  0.193E-02  0.172E-01  0.172E-01
  12.590  0.390E-01  0.194E-02  0.185E-01  0.185E-01
  12.600  0.424E-01  0.202E-02  0.202E-01  0.202E-01
  12.610  0.462E-01  0.216E-02  0.220E-01  0.220E-01
  12.620  0.503E-01  0.238E-02  0.239E-01  0.239E-01
  12.630  0.541E-01  0.267E-02  0.257E-01  0.257E-01
  12.640  0.572E-01  0.301E-02  0.271E-01  0.271E-01
  12.650  0.594E-01  0.341E-02  0.280E-01  0.280E-01
  12.660  0.603E-01  0.385E-02  0.282E-01  0.282E-01
  12.670  0.598E-01  0.430E-02  0.277E-01  0.277E-01
  12.680  0.580E-01  0.476E-02  0.266E-01  0.266E-01
  12.690  0.552E-01  0.521E-02  0.250E-01  0.250E-01
  12.700  0.520E-01  0.564E-02  0.232E-01  0.232E-01
  12.710  0.489E-01  0.604E-02  0.214E-01  0.214E-01
  12.720  0.465E-01  0.640E-02  0.201E-01  0.201E-01
  12.730  0.453E-01  0.672E-02  0.193E-01  0.193E-01
  12.740  0.455E-01  0.699E-02  0.192E-01  0.192E-01
  12.750  0.468E-01  0.720E-02  0.198E-01  0.198E-01
  12.760  0.490E-01  0.734E-02  0.208E-01  0.208E-01
  12.770  0.518E-01  0.738E-02  0.222E-01  0.222E-01
  12.780  0.545E-01  0.731E-02  0.236E-01  0.236E-01
  12.790  0.570E-01  0.711E-02  0.249E-01  0.249E-01
  12.800  0.589E-01  0.677E-02  0.261E-01  0.261E-01
  12.810  0.602E-01  0.629E-02  0.270E-01  0.270E-01
  12.820  0.610E-01  0.570E-02  0.277E-01  0.277E-01
  12.830  0.614E-01  0.502E-02  0.282E-01  0.282E-01
  12.840  0.614E-01  0.430E-02  0.285E-01  0.285E-01
  12.850  0.611E-01  0.358E-02  0.288E-01  0.288E-01
  12.860  0.604E-01  0.291E-02  0.288E-01  0.288E-01
  12.870  0.592E-01  0.233E-02  0.284E-01  0.284E-01
  12.880  0.572E-01  0.185E-02  0.277E-01  0.277E-01
  12.890  0.543E-01  0.149E-02  0.264E-01  0.264E-01
  12.900  0.504E-01  0.124E-02  0.246E-01  0.246E-01
  12.910  0.457E-01  0.107E-02  0.223E-01  0.223E-01
  12.920  0.404E-01  0.960E-03  0.197E-01  0.197E-01
  12.930  0.349E-01  0.885E-03  0.170E-01  0.170E-01
  12.940  0.298E-01  0.826E-03  0.145E-01  0.145E-01
  12.950  0.255E-01  0.773E-03  0.124E-01  0.124E-01
  12.960  0.223E-01  0.726E-03  0.108E-01  0.108E-01
  12.970  0.205E-01  0.688E-03  0.988E-02  0.988E-02
  12.980  0.199E-01  0.667E-03  0.962E-02  0.962E-02
  12.990  0.205E-01  0.670E-03  0.992E-02  0.992E-02
  13.000  0.219E-01  0.697E-03  0.106E-01  0.106E-01
  13.010  0.238E-01  0.745E-03  0.115E-01  0.115E-01
  13.020  0.259E-01  0.809E-03  0.126E-01  0.126E-01
  13.030  0.280E-01  0.880E-03  0.135E-01  0.135E-01
  13.040  0.298E-01  0.950E-03  0.144E-01  0.144E-01
  13.050  0.314E-01  0.102E-02  0.152E-01  0.152E-01
  13.060  0.329E-01  0.107E-02  0.159E-01  0.159E-01
  13.070  0.343E-01  0.113E-02  0.166E-01  0.166E-01
  13.080  0.355E-01  0.118E-02  0.171E-01  0.171E-01
  13.090  0.364E-01  0.123E-02  0.176E-01  0.176E-01
  13.100  0.369E-01  0.129E-02  0.178E-01  0.178E-01
  13.110  0.367E-01  0.135E-02  0.177E-01  0.177E-01
  13.120  0.356E-01  0.141E-02  0.171E-01  0.171E-01
  13.130  0.336E-01  0.145E-02  0.161E-01  0.161E-01
  13.140  0.306E-01  0.146E-02  0.146E-01  0.146E-01
  13.150  0.270E-01  0.144E-02  0.128E-01  0.128E-01
  13.160  0.232E-01  0.139E-02  0.109E-01  0.109E-01
  13.170  0.194E-01  0.128E-02  0.908E-02  0.908E-02
  13.180  0.162E-01  0.115E-02  0.754E-02  0.754E-02
  13.190  0.138E-01  0.985E-03  0.643E-02  0.643E-02
  13.200  0.124E-01  0.816E-03  0.579E-02  0.579E-02
  13.210  0.119E-01  0.656E-03  0.562E-02  0.562E-02
  13.220  0.123E-01  0.520E-03  0.587E-02  0.587E-02
  13.230  0.133E-01  0.419E-03  0.643E-02  0.643E-02
  13.240  0.148E-01  0.359E-03  0.721E-02  0.721E-02
  13.250  0.166E-01  0.338E-03  0.812E-02  0.812E-02
  13.260  0.185E-01  0.350E-03  0.908E-02  0.908E-02
  13.270  0.204E-01  0.387E-03  0.100E-01  0.100E-01
  13.280  0.222E-01  0.438E-03  0.109E-01  0.109E-01
  13.290  0.238E-01  0.495E-03  0.116E-01  0.116E-01
  13.300  0.250E-01  0.550E-03  0.122E-01  0.122E-01
  13.310  0.258E-01  0.601E-03  0.126E-01  0.126E-01
  13.320  0.261E-01  0.646E-03  0.127E-01  0.127E-01
  13.330  0.259E-01  0.686E-03  0.126E-01  0.126E-01
  13.340  0.252E-01  0.724E-03  0.123E-01  0.123E-01
  13.350  0.241E-01  0.758E-03  0.117E-01  0.117E-01
  13.360  0.225E-01  0.787E-03  0.109E-01  0.109E-01
  13.370  0.207E-01  0.807E-03  0.993E-02  0.993E-02
  13.380  0.186E-01  0.812E-03  0.888E-02  0.888E-02
  13.390  0.163E-01  0.798E-03  0.777E-02  0.777E-02
  13.400  0.141E-01  0.765E-03  0.668E-02  0.668E-02
  13.410  0.120E-01  0.717E-03  0.566E-02  0.566E-02
  13.420  0.102E-01  0.660E-03  0.479E-02  0.479E-02
  13.430  0.887E-02  0.607E-03  0.413E-02  0.413E-02
  13.440  0.800E-02  0.567E-03  0.372E-02  0.372E-02
  13.450  0.769E-02  0.552E-03  0.357E-02  0.357E-02
  13.460  0.791E-02  0.565E-03  0.367E-02  0.367E-02
  13.470  0.854E-02  0.607E-03  0.397E-02  0.397E-02
  13.480  0.942E-02  0.671E-03  0.437E-02  0.437E-02
  13.490  0.103E-01  0.746E-03  0.479E-02  0.479E-02
  13.500  0.110E-01  0.818E-03  0.511E-02  0.511E-02
  13.510  0.114E-01  0.874E-03  0.527E-02  0.527E-02
  13.520  0.113E-01  0.904E-03  0.521E-02  0.521E-02
  13.530  0.108E-01  0.905E-03  0.494E-02  0.494E-02
  13.540  0.992E-02  0.880E-03  0.452E-02  0.452E-02
  13.550  0.889E-02  0.836E-03  0.403E-02  0.403E-02
  13.560  0.791E-02  0.786E-03  0.356E-02  0.356E-02
  13.570  0.716E-02  0.743E-03  0.321E-02  0.321E-02
  13.580  0.678E-02  0.717E-03  0.303E-02  0.303E-02
  13.590  0.681E-02  0.713E-03  0.305E-02  0.305E-02
  13.600  0.721E-02  0.730E-03  0.324E-02  0.324E-02
  13.610  0.788E-02  0.763E-03  0.356E-02  0.356E-02
  13.620  0.865E-02  0.801E-03  0.393E-02  0.393E-02
  13.630  0.940E-02  0.835E-03  0.428E-02  0.428E-02
  13.640  0.998E-02  0.856E-03  0.456E-02  0.456E-02
  13.650  0.103E-01  0.858E-03  0.473E-02  0.473E-02
  13.660  0.104E-01  0.841E-03  0.478E-02  0.478E-02
  13.670  0.102E-01  0.803E-03  0.470E-02  0.470E-02
  13.680  0.977E-02  0.750E-03  0.451E-02  0.451E-02
  13.690  0.913E-02  0.683E-03  0.422E-02  0.422E-02
  13.700  0.834E-02  0.607E-03  0.386E-02  0.386E-02
  13.710  0.741E-02  0.524E-03  0.344E-02  0.344E-02
  13.720  0.637E-02  0.437E-03  0.297E-02  0.297E-02
  13.730  0.525E-02  0.348E-03  0.245E-02  0.245E-02
  13.740  0.409E-02  0.259E-03  0.192E-02  0.192E-02
  13.750  0.294E-02  0.176E-03  0.138E-02  0.138E-02
  13.760  0.187E-02  0.101E-03  0.883E-03  0.883E-03
  13.770  0.921E-03  0.375E-04  0.442E-03  0.442E-03
  13.780  0.156E-03 -0.110E-04  0.837E-04  0.837E-04
  13.790 -0.398E-03 -0.440E-04 -0.177E-03 -0.177E-03
  13.800 -0.740E-03 -0.623E-04 -0.339E-03 -0.339E-03
  13.810 -0.893E-03 -0.680E-04 -0.412E-03 -0.412E-03
  13.820 -0.896E-03 -0.645E-04 -0.416E-03 -0.416E-03
  13.830 -0.797E-03 -0.551E-04 -0.371E-03 -0.371E-03
  13.840 -0.640E-03 -0.430E-04 -0.299E-03 -0.299E-03
  13.850 -0.461E-03 -0.306E-04 -0.215E-03 -0.215E-03
  13.860 -0.281E-03 -0.193E-04 -0.131E-03 -0.131E-03
  13.870 -0.111E-03 -0.100E-04 -0.506E-04 -0.506E-04
  13.880  0.481E-04 -0.283E-05  0.254E-04  0.254E-04
  13.890  0.201E-03  0.246E-05  0.995E-04  0.995E-04
  13.900  0.355E-03  0.617E-05  0.174E-03  0.174E-03
  13.910  0.513E-03  0.867E-05  0.252E-03  0.252E-03
  13.920  0.675E-03  0.103E-04  0.333E-03  0.333E-03
  13.930  0.839E-03  0.112E-04  0.414E-03  0.414E-03
  13.940  0.998E-03  0.115E-04  0.493E-03  0.493E-03
  13.950  0.115E-02  0.114E-04  0.567E-03  0.567E-03
  13.960  0.128E-02  0.110E-04  0.634E-03  0.634E-03
  13.970  0.140E-02  0.103E-04  0.695E-03  0.695E-03
  13.980  0.151E-02  0.949E-05  0.752E-03  0.752E-03
  13.990  0.163E-02  0.856E-05  0.811E-03  0.811E-03
  14.000  0.176E-02  0.764E-05  0.876E-03  0.876E-03
  14.010  0.191E-02  0.678E-05  0.951E-03  0.951E-03
  14.020  0.207E-02  0.600E-05  0.103E-02  0.103E-02
  14.030  0.222E-02  0.531E-05  0.111E-02  0.111E-02
  14.040  0.233E-02  0.467E-05  0.116E-02  0.116E-02
  14.050  0.237E-02  0.407E-05  0.118E-02  0.118E-02
  14.060  0.232E-02  0.347E-05  0.116E-02  0.116E-02
  14.070  0.215E-02  0.287E-05  0.107E-02  0.107E-02
  14.080  0.187E-02  0.229E-05  0.934E-03  0.934E-03
  14.090  0.152E-02  0.174E-05  0.757E-03  0.757E-03
  14.100  0.112E-02  0.128E-05  0.560E-03  0.560E-03
  14.110  0.736E-03  0.963E-06  0.368E-03  0.368E-03
  14.120  0.404E-03  0.843E-06  0.202E-03  0.202E-03
  14.130  0.156E-03  0.960E-06  0.776E-04  0.776E-04
  14.140  0.701E-05  0.134E-05  0.284E-05  0.284E-05
  14.150 -0.454E-04  0.197E-05 -0.237E-04 -0.237E-04
  14.160 -0.166E-04  0.281E-05 -0.972E-05 -0.972E-05
  14.170  0.700E-04  0.380E-05  0.331E-04  0.331E-04
  14.180  0.189E-03  0.483E-05  0.920E-04  0.920E-04
  14.190  0.316E-03  0.578E-05  0.155E-03  0.155E-03
  14.200  0.434E-03  0.652E-05  0.214E-03  0.214E-03
  14.210  0.530E-03  0.695E-05  0.262E-03  0.262E-03
  14.220  0.598E-03  0.700E-05  0.296E-03  0.296E-03
  14.230  0.636E-03  0.666E-05  0.315E-03  0.315E-03
  14.240  0.645E-03  0.597E-05  0.319E-03  0.319E-03
  14.250  0.629E-03  0.503E-05  0.312E-03  0.312E-03
  14.260  0.592E-03  0.395E-05  0.294E-03  0.294E-03
  14.270  0.537E-03  0.286E-05  0.267E-03  0.267E-03
  14.280  0.468E-03  0.186E-05  0.233E-03  0.233E-03
  14.290  0.389E-03  0.102E-05  0.194E-03  0.194E-03
  14.300  0.304E-03  0.383E-06  0.152E-03  0.152E-03
  14.310  0.219E-03 -0.631E-07  0.109E-03  0.109E-03
  14.320  0.138E-03 -0.338E-06  0.691E-04  0.691E-04
  14.330  0.671E-04 -0.477E-06  0.338E-04  0.338E-04
  14.340  0.104E-04 -0.520E-06  0.548E-05  0.548E-05
  14.350 -0.301E-04 -0.500E-06 -0.148E-04 -0.148E-04
  14.360 -0.545E-04 -0.443E-06 -0.270E-04 -0.270E-04
  14.370 -0.649E-04 -0.370E-06 -0.322E-04 -0.322E-04
  14.380 -0.645E-04 -0.294E-06 -0.321E-04 -0.321E-04
  14.390 -0.572E-04 -0.224E-06 -0.285E-04 -0.285E-04
  14.400 -0.465E-04 -0.162E-06 -0.232E-04 -0.232E-04
  14.410 -0.352E-04 -0.113E-06 -0.175E-04 -0.175E-04
  14.420 -0.249E-04 -0.752E-07 -0.124E-04 -0.124E-04
  14.430 -0.166E-04 -0.479E-07 -0.830E-05 -0.830E-05
  14.440 -0.105E-04 -0.292E-07 -0.524E-05 -0.524E-05
  14.450 -0.628E-05 -0.170E-07 -0.313E-05 -0.313E-05
  14.460 -0.357E-05 -0.945E-08 -0.178E-05 -0.178E-05
