# E (eV)   ldos(E)   pdos(E)    pdos(E)    pdos(E)   
 -20.380  0.513E-10  0.350E-10  0.815E-11  0.815E-11
 -20.370  0.152E-09  0.102E-09  0.248E-10  0.248E-10
 -20.360  0.432E-09  0.287E-09  0.723E-10  0.723E-10
 -20.350  0.118E-08  0.771E-09  0.202E-09  0.202E-09
 -20.340  0.307E-08  0.199E-08  0.543E-09  0.543E-09
 -20.330  0.770E-08  0.490E-08  0.140E-08  0.140E-08
 -20.320  0.185E-07  0.116E-07  0.346E-08  0.346E-08
 -20.310  0.427E-07  0.262E-07  0.823E-08  0.823E-08
 -20.300  0.945E-07  0.570E-07  0.188E-07  0.188E-07
 -20.290  0.201E-06  0.119E-06  0.412E-07  0.412E-07
 -20.280  0.410E-06  0.237E-06  0.867E-07  0.867E-07
 -20.270  0.804E-06  0.453E-06  0.176E-06  0.176E-06
 -20.260  0.151E-05  0.831E-06  0.342E-06  0.342E-06
 -20.250  0.274E-05  0.146E-05  0.641E-06  0.641E-06
 -20.240  0.478E-05  0.247E-05  0.116E-05  0.116E-05
 -20.230  0.801E-05  0.400E-05  0.201E-05  0.201E-05
 -20.220  0.129E-04  0.622E-05  0.336E-05  0.336E-05
 -20.210  0.201E-04  0.929E-05  0.542E-05  0.542E-05
 -20.200  0.302E-04  0.133E-04  0.844E-05  0.844E-05
 -20.190  0.438E-04  0.184E-04  0.127E-04  0.127E-04
 -20.180  0.613E-04  0.244E-04  0.185E-04  0.185E-04
 -20.170  0.832E-04  0.312E-04  0.260E-04  0.260E-04
 -20.160  0.109E-03  0.385E-04  0.355E-04  0.355E-04
 -20.150  0.140E-03  0.458E-04  0.470E-04  0.470E-04
 -20.140  0.174E-03  0.527E-04  0.606E-04  0.606E-04
 -20.130  0.211E-03  0.588E-04  0.761E-04  0.761E-04
 -20.120  0.250E-03  0.636E-04  0.932E-04  0.932E-04
 -20.110  0.291E-03  0.672E-04  0.112E-03  0.112E-03
 -20.100  0.332E-03  0.693E-04  0.131E-03  0.131E-03
 -20.090  0.373E-03  0.702E-04  0.151E-03  0.151E-03
 -20.080  0.414E-03  0.701E-04  0.172E-03  0.172E-03
 -20.070  0.455E-03  0.692E-04  0.193E-03  0.193E-03
 -20.060  0.496E-03  0.679E-04  0.214E-03  0.214E-03
 -20.050  0.536E-03  0.664E-04  0.235E-03  0.235E-03
 -20.040  0.577E-03  0.650E-04  0.256E-03  0.256E-03
 -20.030  0.619E-03  0.637E-04  0.278E-03  0.278E-03
 -20.020  0.663E-03  0.626E-04  0.300E-03  0.300E-03
 -20.010  0.710E-03  0.618E-04  0.324E-03  0.324E-03
 -20.000  0.761E-03  0.613E-04  0.350E-03  0.350E-03
 -19.990  0.819E-03  0.611E-04  0.379E-03  0.379E-03
 -19.980  0.886E-03  0.612E-04  0.412E-03  0.412E-03
 -19.970  0.966E-03  0.615E-04  0.452E-03  0.452E-03
 -19.960  0.106E-02  0.622E-04  0.500E-03  0.500E-03
 -19.950  0.118E-02  0.631E-04  0.556E-03  0.556E-03
 -19.940  0.131E-02  0.643E-04  0.624E-03  0.624E-03
 -19.930  0.147E-02  0.657E-04  0.705E-03  0.705E-03
 -19.920  0.166E-02  0.671E-04  0.797E-03  0.797E-03
 -19.910  0.187E-02  0.684E-04  0.902E-03  0.902E-03
 -19.900  0.211E-02  0.696E-04  0.102E-02  0.102E-02
 -19.890  0.236E-02  0.705E-04  0.115E-02  0.115E-02
 -19.880  0.263E-02  0.711E-04  0.128E-02  0.128E-02
 -19.870  0.291E-02  0.714E-04  0.142E-02  0.142E-02
 -19.860  0.319E-02  0.714E-04  0.156E-02  0.156E-02
 -19.850  0.347E-02  0.712E-04  0.170E-02  0.170E-02
 -19.840  0.374E-02  0.707E-04  0.184E-02  0.184E-02
 -19.830  0.401E-02  0.700E-04  0.197E-02  0.197E-02
 -19.820  0.428E-02  0.693E-04  0.210E-02  0.210E-02
 -19.810  0.453E-02  0.685E-04  0.223E-02  0.223E-02
 -19.800  0.479E-02  0.679E-04  0.236E-02  0.236E-02
 -19.790  0.503E-02  0.673E-04  0.248E-02  0.248E-02
 -19.780  0.528E-02  0.668E-04  0.260E-02  0.260E-02
 -19.770  0.551E-02  0.664E-04  0.272E-02  0.272E-02
 -19.760  0.574E-02  0.660E-04  0.284E-02  0.284E-02
 -19.750  0.596E-02  0.654E-04  0.295E-02  0.295E-02
 -19.740  0.618E-02  0.648E-04  0.306E-02  0.306E-02
 -19.730  0.639E-02  0.642E-04  0.316E-02  0.316E-02
 -19.720  0.661E-02  0.636E-04  0.327E-02  0.327E-02
 -19.710  0.683E-02  0.632E-04  0.338E-02  0.338E-02
 -19.700  0.705E-02  0.630E-04  0.349E-02  0.349E-02
 -19.690  0.727E-02  0.628E-04  0.360E-02  0.360E-02
 -19.680  0.748E-02  0.626E-04  0.371E-02  0.371E-02
 -19.670  0.768E-02  0.623E-04  0.381E-02  0.381E-02
 -19.660  0.787E-02  0.618E-04  0.391E-02  0.391E-02
 -19.650  0.805E-02  0.611E-04  0.400E-02  0.400E-02
 -19.640  0.823E-02  0.604E-04  0.408E-02  0.408E-02
 -19.630  0.841E-02  0.596E-04  0.418E-02  0.418E-02
 -19.620  0.861E-02  0.592E-04  0.427E-02  0.427E-02
 -19.610  0.882E-02  0.589E-04  0.438E-02  0.438E-02
 -19.600  0.904E-02  0.589E-04  0.449E-02  0.449E-02
 -19.590  0.926E-02  0.590E-04  0.460E-02  0.460E-02
 -19.580  0.946E-02  0.590E-04  0.470E-02  0.470E-02
 -19.570  0.962E-02  0.587E-04  0.478E-02  0.478E-02
 -19.560  0.977E-02  0.581E-04  0.485E-02  0.485E-02
 -19.550  0.989E-02  0.573E-04  0.492E-02  0.492E-02
 -19.540  0.100E-01  0.563E-04  0.498E-02  0.498E-02
 -19.530  0.102E-01  0.555E-04  0.506E-02  0.506E-02
 -19.520  0.104E-01  0.549E-04  0.515E-02  0.515E-02
 -19.510  0.106E-01  0.547E-04  0.526E-02  0.526E-02
 -19.500  0.108E-01  0.548E-04  0.538E-02  0.538E-02
 -19.490  0.110E-01  0.551E-04  0.549E-02  0.549E-02
 -19.480  0.112E-01  0.553E-04  0.559E-02  0.559E-02
 -19.470  0.114E-01  0.553E-04  0.566E-02  0.566E-02
 -19.460  0.115E-01  0.549E-04  0.572E-02  0.572E-02
 -19.450  0.116E-01  0.541E-04  0.577E-02  0.577E-02
 -19.440  0.117E-01  0.532E-04  0.581E-02  0.581E-02
 -19.430  0.118E-01  0.522E-04  0.587E-02  0.587E-02
 -19.420  0.119E-01  0.513E-04  0.594E-02  0.594E-02
 -19.410  0.121E-01  0.508E-04  0.603E-02  0.603E-02
 -19.400  0.123E-01  0.506E-04  0.613E-02  0.613E-02
 -19.390  0.125E-01  0.507E-04  0.623E-02  0.623E-02
 -19.380  0.127E-01  0.510E-04  0.634E-02  0.634E-02
 -19.370  0.129E-01  0.513E-04  0.644E-02  0.644E-02
 -19.360  0.131E-01  0.514E-04  0.652E-02  0.652E-02
 -19.350  0.132E-01  0.513E-04  0.659E-02  0.659E-02
 -19.340  0.133E-01  0.508E-04  0.664E-02  0.664E-02
 -19.330  0.134E-01  0.501E-04  0.668E-02  0.668E-02
 -19.320  0.135E-01  0.491E-04  0.671E-02  0.671E-02
 -19.310  0.135E-01  0.481E-04  0.673E-02  0.673E-02
 -19.300  0.136E-01  0.472E-04  0.676E-02  0.676E-02
 -19.290  0.137E-01  0.466E-04  0.682E-02  0.682E-02
 -19.280  0.138E-01  0.463E-04  0.690E-02  0.690E-02
 -19.270  0.141E-01  0.464E-04  0.701E-02  0.701E-02
 -19.260  0.143E-01  0.468E-04  0.714E-02  0.714E-02
 -19.250  0.146E-01  0.473E-04  0.729E-02  0.729E-02
 -19.240  0.149E-01  0.477E-04  0.742E-02  0.742E-02
 -19.230  0.151E-01  0.479E-04  0.752E-02  0.752E-02
 -19.220  0.152E-01  0.477E-04  0.757E-02  0.757E-02
 -19.210  0.152E-01  0.470E-04  0.757E-02  0.757E-02
 -19.200  0.151E-01  0.460E-04  0.753E-02  0.753E-02
 -19.190  0.150E-01  0.447E-04  0.746E-02  0.746E-02
 -19.180  0.149E-01  0.435E-04  0.741E-02  0.741E-02
 -19.170  0.148E-01  0.425E-04  0.740E-02  0.740E-02
 -19.160  0.150E-01  0.420E-04  0.747E-02  0.747E-02
 -19.150  0.153E-01  0.420E-04  0.761E-02  0.761E-02
 -19.140  0.157E-01  0.425E-04  0.782E-02  0.782E-02
 -19.130  0.161E-01  0.433E-04  0.805E-02  0.805E-02
 -19.120  0.166E-01  0.442E-04  0.827E-02  0.827E-02
 -19.110  0.169E-01  0.448E-04  0.843E-02  0.843E-02
 -19.100  0.170E-01  0.450E-04  0.850E-02  0.850E-02
 -19.090  0.170E-01  0.446E-04  0.846E-02  0.846E-02
 -19.080  0.167E-01  0.435E-04  0.834E-02  0.834E-02
 -19.070  0.164E-01  0.421E-04  0.817E-02  0.817E-02
 -19.060  0.161E-01  0.405E-04  0.801E-02  0.801E-02
 -19.050  0.159E-01  0.391E-04  0.791E-02  0.791E-02
 -19.040  0.159E-01  0.381E-04  0.791E-02  0.791E-02
 -19.030  0.161E-01  0.377E-04  0.803E-02  0.803E-02
 -19.020  0.166E-01  0.380E-04  0.826E-02  0.826E-02
 -19.010  0.172E-01  0.389E-04  0.857E-02  0.857E-02
 -19.000  0.178E-01  0.400E-04  0.889E-02  0.889E-02
 -18.990  0.184E-01  0.412E-04  0.917E-02  0.917E-02
 -18.980  0.187E-01  0.420E-04  0.934E-02  0.934E-02
 -18.970  0.188E-01  0.423E-04  0.938E-02  0.938E-02
 -18.960  0.186E-01  0.418E-04  0.928E-02  0.928E-02
 -18.950  0.182E-01  0.407E-04  0.906E-02  0.906E-02
 -18.940  0.176E-01  0.391E-04  0.879E-02  0.879E-02
 -18.930  0.171E-01  0.373E-04  0.854E-02  0.854E-02
 -18.920  0.168E-01  0.357E-04  0.838E-02  0.838E-02
 -18.910  0.167E-01  0.344E-04  0.835E-02  0.835E-02
 -18.900  0.170E-01  0.339E-04  0.848E-02  0.848E-02
 -18.890  0.175E-01  0.340E-04  0.875E-02  0.875E-02
 -18.880  0.183E-01  0.348E-04  0.911E-02  0.911E-02
 -18.870  0.190E-01  0.360E-04  0.950E-02  0.950E-02
 -18.860  0.197E-01  0.374E-04  0.984E-02  0.984E-02
 -18.850  0.202E-01  0.386E-04  0.101E-01  0.101E-01
 -18.840  0.203E-01  0.394E-04  0.101E-01  0.101E-01
 -18.830  0.202E-01  0.395E-04  0.101E-01  0.101E-01
 -18.820  0.197E-01  0.389E-04  0.984E-02  0.984E-02
 -18.810  0.191E-01  0.377E-04  0.954E-02  0.954E-02
 -18.800  0.185E-01  0.360E-04  0.921E-02  0.921E-02
 -18.790  0.179E-01  0.341E-04  0.895E-02  0.895E-02
 -18.780  0.177E-01  0.323E-04  0.881E-02  0.881E-02
 -18.770  0.177E-01  0.309E-04  0.885E-02  0.885E-02
 -18.760  0.181E-01  0.303E-04  0.905E-02  0.905E-02
 -18.750  0.188E-01  0.303E-04  0.939E-02  0.939E-02
 -18.740  0.197E-01  0.310E-04  0.982E-02  0.982E-02
 -18.730  0.205E-01  0.322E-04  0.102E-01  0.102E-01
 -18.720  0.212E-01  0.337E-04  0.106E-01  0.106E-01
 -18.710  0.215E-01  0.351E-04  0.108E-01  0.108E-01
 -18.700  0.216E-01  0.361E-04  0.108E-01  0.108E-01
 -18.690  0.213E-01  0.366E-04  0.106E-01  0.106E-01
 -18.680  0.207E-01  0.365E-04  0.103E-01  0.103E-01
 -18.670  0.200E-01  0.358E-04  0.999E-02  0.999E-02
 -18.660  0.194E-01  0.345E-04  0.966E-02  0.966E-02
 -18.650  0.188E-01  0.329E-04  0.941E-02  0.941E-02
 -18.640  0.186E-01  0.311E-04  0.930E-02  0.930E-02
 -18.630  0.187E-01  0.294E-04  0.935E-02  0.935E-02
 -18.620  0.192E-01  0.281E-04  0.957E-02  0.957E-02
 -18.610  0.199E-01  0.272E-04  0.992E-02  0.992E-02
 -18.600  0.207E-01  0.270E-04  0.103E-01  0.103E-01
 -18.590  0.215E-01  0.274E-04  0.108E-01  0.108E-01
 -18.580  0.222E-01  0.283E-04  0.111E-01  0.111E-01
 -18.570  0.226E-01  0.296E-04  0.113E-01  0.113E-01
 -18.560  0.226E-01  0.311E-04  0.113E-01  0.113E-01
 -18.550  0.223E-01  0.325E-04  0.111E-01  0.111E-01
 -18.540  0.217E-01  0.334E-04  0.108E-01  0.108E-01
 -18.530  0.209E-01  0.339E-04  0.104E-01  0.104E-01
 -18.520  0.202E-01  0.337E-04  0.101E-01  0.101E-01
 -18.510  0.197E-01  0.328E-04  0.982E-02  0.982E-02
 -18.500  0.194E-01  0.316E-04  0.970E-02  0.970E-02
 -18.490  0.195E-01  0.300E-04  0.975E-02  0.975E-02
 -18.480  0.200E-01  0.284E-04  0.997E-02  0.997E-02
 -18.470  0.207E-01  0.269E-04  0.103E-01  0.103E-01
 -18.460  0.215E-01  0.257E-04  0.108E-01  0.108E-01
 -18.450  0.224E-01  0.248E-04  0.112E-01  0.112E-01
 -18.440  0.231E-01  0.244E-04  0.115E-01  0.115E-01
 -18.430  0.235E-01  0.244E-04  0.117E-01  0.117E-01
 -18.420  0.235E-01  0.248E-04  0.118E-01  0.118E-01
 -18.410  0.232E-01  0.256E-04  0.116E-01  0.116E-01
 -18.400  0.226E-01  0.267E-04  0.113E-01  0.113E-01
 -18.390  0.218E-01  0.280E-04  0.109E-01  0.109E-01
 -18.380  0.210E-01  0.293E-04  0.105E-01  0.105E-01
 -18.370  0.203E-01  0.304E-04  0.101E-01  0.101E-01
 -18.360  0.199E-01  0.311E-04  0.994E-02  0.994E-02
 -18.350  0.199E-01  0.312E-04  0.995E-02  0.995E-02
 -18.340  0.203E-01  0.307E-04  0.101E-01  0.101E-01
 -18.330  0.210E-01  0.296E-04  0.105E-01  0.105E-01
 -18.320  0.220E-01  0.281E-04  0.110E-01  0.110E-01
 -18.310  0.229E-01  0.263E-04  0.115E-01  0.115E-01
 -18.300  0.238E-01  0.246E-04  0.119E-01  0.119E-01
 -18.290  0.244E-01  0.232E-04  0.122E-01  0.122E-01
 -18.280  0.246E-01  0.221E-04  0.123E-01  0.123E-01
 -18.270  0.244E-01  0.214E-04  0.122E-01  0.122E-01
 -18.260  0.238E-01  0.213E-04  0.119E-01  0.119E-01
 -18.250  0.230E-01  0.216E-04  0.115E-01  0.115E-01
 -18.240  0.220E-01  0.222E-04  0.110E-01  0.110E-01
 -18.230  0.211E-01  0.231E-04  0.105E-01  0.105E-01
 -18.220  0.204E-01  0.242E-04  0.102E-01  0.102E-01
 -18.210  0.200E-01  0.254E-04  0.998E-02  0.998E-02
 -18.200  0.200E-01  0.266E-04  0.100E-01  0.100E-01
 -18.190  0.206E-01  0.276E-04  0.103E-01  0.103E-01
 -18.180  0.215E-01  0.283E-04  0.107E-01  0.107E-01
 -18.170  0.226E-01  0.286E-04  0.113E-01  0.113E-01
 -18.160  0.238E-01  0.284E-04  0.119E-01  0.119E-01
 -18.150  0.248E-01  0.277E-04  0.124E-01  0.124E-01
 -18.140  0.255E-01  0.264E-04  0.127E-01  0.127E-01
 -18.130  0.257E-01  0.248E-04  0.128E-01  0.128E-01
 -18.120  0.254E-01  0.230E-04  0.127E-01  0.127E-01
 -18.110  0.246E-01  0.212E-04  0.123E-01  0.123E-01
 -18.100  0.236E-01  0.196E-04  0.118E-01  0.118E-01
 -18.090  0.225E-01  0.185E-04  0.112E-01  0.112E-01
 -18.080  0.214E-01  0.179E-04  0.107E-01  0.107E-01
 -18.070  0.205E-01  0.179E-04  0.102E-01  0.102E-01
 -18.060  0.200E-01  0.185E-04  0.100E-01  0.100E-01
 -18.050  0.200E-01  0.196E-04  0.100E-01  0.100E-01
 -18.040  0.205E-01  0.211E-04  0.102E-01  0.102E-01
 -18.030  0.214E-01  0.227E-04  0.107E-01  0.107E-01
 -18.020  0.226E-01  0.241E-04  0.113E-01  0.113E-01
 -18.010  0.238E-01  0.253E-04  0.119E-01  0.119E-01
 -18.000  0.250E-01  0.261E-04  0.125E-01  0.125E-01
 -17.990  0.259E-01  0.264E-04  0.129E-01  0.129E-01
 -17.980  0.263E-01  0.262E-04  0.131E-01  0.131E-01
 -17.970  0.262E-01  0.256E-04  0.131E-01  0.131E-01
 -17.960  0.255E-01  0.246E-04  0.127E-01  0.127E-01
 -17.950  0.245E-01  0.234E-04  0.122E-01  0.122E-01
 -17.940  0.232E-01  0.220E-04  0.116E-01  0.116E-01
 -17.930  0.220E-01  0.205E-04  0.110E-01  0.110E-01
 -17.920  0.209E-01  0.192E-04  0.105E-01  0.105E-01
 -17.910  0.203E-01  0.180E-04  0.101E-01  0.101E-01
 -17.900  0.201E-01  0.170E-04  0.100E-01  0.100E-01
 -17.890  0.204E-01  0.163E-04  0.102E-01  0.102E-01
 -17.880  0.211E-01  0.159E-04  0.105E-01  0.105E-01
 -17.870  0.221E-01  0.161E-04  0.111E-01  0.111E-01
 -17.860  0.234E-01  0.166E-04  0.117E-01  0.117E-01
 -17.850  0.246E-01  0.177E-04  0.123E-01  0.123E-01
 -17.840  0.256E-01  0.191E-04  0.128E-01  0.128E-01
 -17.830  0.262E-01  0.207E-04  0.131E-01  0.131E-01
 -17.820  0.263E-01  0.223E-04  0.132E-01  0.132E-01
 -17.810  0.259E-01  0.236E-04  0.130E-01  0.130E-01
 -17.800  0.251E-01  0.245E-04  0.125E-01  0.125E-01
 -17.790  0.239E-01  0.247E-04  0.119E-01  0.119E-01
 -17.780  0.226E-01  0.242E-04  0.113E-01  0.113E-01
 -17.770  0.214E-01  0.233E-04  0.107E-01  0.107E-01
 -17.760  0.205E-01  0.219E-04  0.103E-01  0.103E-01
 -17.750  0.201E-01  0.204E-04  0.101E-01  0.101E-01
 -17.740  0.202E-01  0.189E-04  0.101E-01  0.101E-01
 -17.730  0.208E-01  0.176E-04  0.104E-01  0.104E-01
 -17.720  0.217E-01  0.166E-04  0.108E-01  0.108E-01
 -17.710  0.229E-01  0.159E-04  0.114E-01  0.114E-01
 -17.700  0.241E-01  0.155E-04  0.120E-01  0.120E-01
 -17.690  0.251E-01  0.152E-04  0.126E-01  0.126E-01
 -17.680  0.258E-01  0.152E-04  0.129E-01  0.129E-01
 -17.670  0.261E-01  0.153E-04  0.130E-01  0.130E-01
 -17.660  0.258E-01  0.155E-04  0.129E-01  0.129E-01
 -17.650  0.251E-01  0.159E-04  0.125E-01  0.125E-01
 -17.640  0.240E-01  0.164E-04  0.120E-01  0.120E-01
 -17.630  0.228E-01  0.173E-04  0.114E-01  0.114E-01
 -17.620  0.215E-01  0.183E-04  0.108E-01  0.108E-01
 -17.610  0.205E-01  0.194E-04  0.103E-01  0.103E-01
 -17.600  0.199E-01  0.206E-04  0.996E-02  0.996E-02
 -17.590  0.199E-01  0.215E-04  0.992E-02  0.992E-02
 -17.580  0.203E-01  0.221E-04  0.101E-01  0.101E-01
 -17.570  0.211E-01  0.221E-04  0.105E-01  0.105E-01
 -17.560  0.222E-01  0.216E-04  0.111E-01  0.111E-01
 -17.550  0.234E-01  0.206E-04  0.117E-01  0.117E-01
 -17.540  0.245E-01  0.193E-04  0.123E-01  0.123E-01
 -17.530  0.253E-01  0.177E-04  0.127E-01  0.127E-01
 -17.520  0.257E-01  0.162E-04  0.128E-01  0.128E-01
 -17.510  0.255E-01  0.148E-04  0.128E-01  0.128E-01
 -17.500  0.249E-01  0.138E-04  0.124E-01  0.124E-01
 -17.490  0.239E-01  0.131E-04  0.119E-01  0.119E-01
 -17.480  0.226E-01  0.127E-04  0.113E-01  0.113E-01
 -17.470  0.213E-01  0.127E-04  0.107E-01  0.107E-01
 -17.460  0.202E-01  0.130E-04  0.101E-01  0.101E-01
 -17.450  0.195E-01  0.135E-04  0.973E-02  0.973E-02
 -17.440  0.192E-01  0.142E-04  0.959E-02  0.959E-02
 -17.430  0.194E-01  0.150E-04  0.971E-02  0.971E-02
 -17.420  0.202E-01  0.158E-04  0.101E-01  0.101E-01
 -17.410  0.212E-01  0.167E-04  0.106E-01  0.106E-01
 -17.400  0.224E-01  0.175E-04  0.112E-01  0.112E-01
 -17.390  0.235E-01  0.183E-04  0.118E-01  0.118E-01
 -17.380  0.244E-01  0.188E-04  0.122E-01  0.122E-01
 -17.370  0.248E-01  0.192E-04  0.124E-01  0.124E-01
 -17.360  0.248E-01  0.194E-04  0.124E-01  0.124E-01
 -17.350  0.242E-01  0.193E-04  0.121E-01  0.121E-01
 -17.340  0.232E-01  0.189E-04  0.116E-01  0.116E-01
 -17.330  0.220E-01  0.182E-04  0.110E-01  0.110E-01
 -17.320  0.207E-01  0.172E-04  0.103E-01  0.103E-01
 -17.310  0.196E-01  0.161E-04  0.978E-02  0.978E-02
 -17.300  0.188E-01  0.149E-04  0.938E-02  0.938E-02
 -17.290  0.184E-01  0.137E-04  0.921E-02  0.921E-02
 -17.280  0.186E-01  0.127E-04  0.929E-02  0.929E-02
 -17.270  0.192E-01  0.118E-04  0.960E-02  0.960E-02
 -17.260  0.202E-01  0.112E-04  0.101E-01  0.101E-01
 -17.250  0.213E-01  0.109E-04  0.106E-01  0.106E-01
 -17.240  0.223E-01  0.110E-04  0.111E-01  0.111E-01
 -17.230  0.231E-01  0.113E-04  0.115E-01  0.115E-01
 -17.220  0.234E-01  0.120E-04  0.117E-01  0.117E-01
 -17.210  0.233E-01  0.129E-04  0.116E-01  0.116E-01
 -17.200  0.227E-01  0.140E-04  0.113E-01  0.113E-01
 -17.190  0.216E-01  0.151E-04  0.108E-01  0.108E-01
 -17.180  0.204E-01  0.162E-04  0.102E-01  0.102E-01
 -17.170  0.192E-01  0.171E-04  0.958E-02  0.958E-02
 -17.160  0.182E-01  0.177E-04  0.907E-02  0.907E-02
 -17.150  0.175E-01  0.179E-04  0.874E-02  0.874E-02
 -17.140  0.173E-01  0.178E-04  0.864E-02  0.864E-02
 -17.130  0.176E-01  0.173E-04  0.879E-02  0.879E-02
 -17.120  0.183E-01  0.166E-04  0.913E-02  0.913E-02
 -17.110  0.192E-01  0.158E-04  0.960E-02  0.960E-02
 -17.100  0.202E-01  0.151E-04  0.101E-01  0.101E-01
 -17.090  0.210E-01  0.143E-04  0.105E-01  0.105E-01
 -17.080  0.215E-01  0.137E-04  0.107E-01  0.107E-01
 -17.070  0.215E-01  0.131E-04  0.107E-01  0.107E-01
 -17.060  0.210E-01  0.126E-04  0.105E-01  0.105E-01
 -17.050  0.201E-01  0.121E-04  0.100E-01  0.100E-01
 -17.040  0.189E-01  0.115E-04  0.943E-02  0.943E-02
 -17.030  0.176E-01  0.110E-04  0.881E-02  0.881E-02
 -17.020  0.165E-01  0.105E-04  0.827E-02  0.827E-02
 -17.010  0.158E-01  0.102E-04  0.790E-02  0.790E-02
 -17.000  0.155E-01  0.101E-04  0.775E-02  0.775E-02
 -16.990  0.157E-01  0.103E-04  0.784E-02  0.784E-02
 -16.980  0.163E-01  0.108E-04  0.812E-02  0.812E-02
 -16.970  0.171E-01  0.116E-04  0.852E-02  0.852E-02
 -16.960  0.179E-01  0.126E-04  0.894E-02  0.894E-02
 -16.950  0.185E-01  0.138E-04  0.926E-02  0.926E-02
 -16.940  0.188E-01  0.150E-04  0.939E-02  0.939E-02
 -16.930  0.186E-01  0.161E-04  0.929E-02  0.929E-02
 -16.920  0.179E-01  0.169E-04  0.895E-02  0.895E-02
 -16.910  0.169E-01  0.173E-04  0.842E-02  0.842E-02
 -16.900  0.156E-01  0.172E-04  0.780E-02  0.780E-02
 -16.890  0.144E-01  0.166E-04  0.719E-02  0.719E-02
 -16.880  0.134E-01  0.157E-04  0.671E-02  0.671E-02
 -16.870  0.129E-01  0.146E-04  0.642E-02  0.642E-02
 -16.860  0.127E-01  0.134E-04  0.636E-02  0.636E-02
 -16.850  0.130E-01  0.123E-04  0.650E-02  0.650E-02
 -16.840  0.135E-01  0.114E-04  0.676E-02  0.676E-02
 -16.830  0.141E-01  0.109E-04  0.704E-02  0.704E-02
 -16.820  0.144E-01  0.105E-04  0.722E-02  0.722E-02
 -16.810  0.144E-01  0.104E-04  0.722E-02  0.722E-02
 -16.800  0.140E-01  0.103E-04  0.699E-02  0.699E-02
 -16.790  0.132E-01  0.102E-04  0.657E-02  0.657E-02
 -16.780  0.121E-01  0.102E-04  0.603E-02  0.603E-02
 -16.770  0.110E-01  0.101E-04  0.547E-02  0.547E-02
 -16.760  0.100E-01  0.100E-04  0.501E-02  0.501E-02
 -16.750  0.946E-02  0.100E-04  0.472E-02  0.472E-02
 -16.740  0.930E-02  0.102E-04  0.464E-02  0.464E-02
 -16.730  0.949E-02  0.105E-04  0.474E-02  0.474E-02
 -16.720  0.988E-02  0.110E-04  0.493E-02  0.493E-02
 -16.710  0.103E-01  0.117E-04  0.513E-02  0.513E-02
 -16.700  0.105E-01  0.125E-04  0.523E-02  0.523E-02
 -16.690  0.104E-01  0.132E-04  0.518E-02  0.518E-02
 -16.680  0.999E-02  0.139E-04  0.499E-02  0.499E-02
 -16.670  0.937E-02  0.143E-04  0.468E-02  0.468E-02
 -16.660  0.866E-02  0.145E-04  0.432E-02  0.432E-02
 -16.650  0.802E-02  0.144E-04  0.400E-02  0.400E-02
 -16.640  0.756E-02  0.141E-04  0.377E-02  0.377E-02
 -16.630  0.732E-02  0.134E-04  0.366E-02  0.366E-02
 -16.620  0.728E-02  0.125E-04  0.363E-02  0.363E-02
 -16.610  0.735E-02  0.115E-04  0.367E-02  0.367E-02
 -16.600  0.741E-02  0.104E-04  0.370E-02  0.370E-02
 -16.590  0.739E-02  0.937E-05  0.369E-02  0.369E-02
 -16.580  0.724E-02  0.851E-05  0.361E-02  0.361E-02
 -16.570  0.694E-02  0.788E-05  0.347E-02  0.347E-02
 -16.560  0.656E-02  0.752E-05  0.328E-02  0.328E-02
 -16.550  0.617E-02  0.741E-05  0.308E-02  0.308E-02
 -16.540  0.581E-02  0.752E-05  0.290E-02  0.290E-02
 -16.530  0.553E-02  0.779E-05  0.276E-02  0.276E-02
 -16.520  0.534E-02  0.816E-05  0.266E-02  0.266E-02
 -16.510  0.520E-02  0.859E-05  0.260E-02  0.260E-02
 -16.500  0.509E-02  0.903E-05  0.254E-02  0.254E-02
 -16.490  0.496E-02  0.948E-05  0.248E-02  0.248E-02
 -16.480  0.479E-02  0.995E-05  0.239E-02  0.239E-02
 -16.470  0.457E-02  0.104E-04  0.228E-02  0.228E-02
 -16.460  0.433E-02  0.109E-04  0.216E-02  0.216E-02
 -16.450  0.407E-02  0.114E-04  0.203E-02  0.203E-02
 -16.440  0.383E-02  0.118E-04  0.191E-02  0.191E-02
 -16.430  0.360E-02  0.120E-04  0.180E-02  0.180E-02
 -16.420  0.340E-02  0.121E-04  0.169E-02  0.169E-02
 -16.410  0.321E-02  0.120E-04  0.160E-02  0.160E-02
 -16.400  0.303E-02  0.118E-04  0.151E-02  0.151E-02
 -16.390  0.283E-02  0.114E-04  0.141E-02  0.141E-02
 -16.380  0.263E-02  0.110E-04  0.131E-02  0.131E-02
 -16.370  0.242E-02  0.105E-04  0.120E-02  0.120E-02
 -16.360  0.221E-02  0.100E-04  0.110E-02  0.110E-02
 -16.350  0.200E-02  0.951E-05  0.993E-03  0.993E-03
 -16.340  0.179E-02  0.894E-05  0.889E-03  0.889E-03
 -16.330  0.158E-02  0.833E-05  0.788E-03  0.788E-03
 -16.320  0.139E-02  0.771E-05  0.690E-03  0.690E-03
 -16.310  0.119E-02  0.711E-05  0.593E-03  0.593E-03
 -16.300  0.100E-02  0.659E-05  0.499E-03  0.499E-03
 -16.290  0.822E-03  0.622E-05  0.408E-03  0.408E-03
 -16.280  0.649E-03  0.604E-05  0.321E-03  0.321E-03
 -16.270  0.488E-03  0.608E-05  0.241E-03  0.241E-03
 -16.260  0.343E-03  0.635E-05  0.168E-03  0.168E-03
 -16.250  0.217E-03  0.681E-05  0.105E-03  0.105E-03
 -16.240  0.112E-03  0.741E-05  0.524E-04  0.524E-04
 -16.230  0.297E-04  0.811E-05  0.108E-04  0.108E-04
 -16.220 -0.307E-04  0.885E-05 -0.197E-04 -0.197E-04
 -16.210 -0.701E-04  0.955E-05 -0.398E-04 -0.398E-04
 -16.200 -0.912E-04  0.102E-04 -0.507E-04 -0.507E-04
 -16.190 -0.972E-04  0.106E-04 -0.539E-04 -0.539E-04
 -16.180 -0.923E-04  0.109E-04 -0.516E-04 -0.516E-04
 -16.170 -0.803E-04  0.110E-04 -0.456E-04 -0.456E-04
 -16.160 -0.648E-04  0.108E-04 -0.378E-04 -0.378E-04
 -16.150 -0.487E-04  0.104E-04 -0.296E-04 -0.296E-04
 -16.140 -0.339E-04  0.989E-05 -0.219E-04 -0.219E-04
 -16.130 -0.216E-04  0.926E-05 -0.154E-04 -0.154E-04
 -16.120 -0.119E-04  0.861E-05 -0.103E-04 -0.103E-04
 -16.110 -0.492E-05  0.802E-05 -0.647E-05 -0.647E-05
 -16.100 -0.814E-07  0.755E-05 -0.382E-05 -0.382E-05
 -16.090  0.310E-05  0.722E-05 -0.206E-05 -0.206E-05
 -16.080  0.510E-05  0.701E-05 -0.954E-06 -0.954E-06
 -16.070  0.629E-05  0.687E-05 -0.289E-06 -0.289E-06
 -16.060  0.692E-05  0.673E-05  0.933E-07  0.933E-07
 -16.050  0.717E-05  0.656E-05  0.303E-06  0.303E-06
 -16.040  0.715E-05  0.632E-05  0.414E-06  0.414E-06
 -16.030  0.697E-05  0.602E-05  0.473E-06  0.473E-06
 -16.020  0.674E-05  0.572E-05  0.512E-06  0.512E-06
 -16.010  0.658E-05  0.548E-05  0.552E-06  0.552E-06
 -16.000  0.658E-05  0.537E-05  0.608E-06  0.608E-06
 -15.990  0.683E-05  0.545E-05  0.689E-06  0.689E-06
 -15.980  0.736E-05  0.577E-05  0.799E-06  0.799E-06
 -15.970  0.817E-05  0.629E-05  0.936E-06  0.936E-06
 -15.960  0.918E-05  0.700E-05  0.109E-05  0.109E-05
 -15.950  0.103E-04  0.779E-05  0.126E-05  0.126E-05
 -15.940  0.114E-04  0.859E-05  0.142E-05  0.142E-05
 -15.930  0.124E-04  0.928E-05  0.156E-05  0.156E-05
 -15.920  0.131E-04  0.979E-05  0.167E-05  0.167E-05
 -15.910  0.135E-04  0.101E-04  0.175E-05  0.175E-05
 -15.900  0.136E-04  0.100E-04  0.178E-05  0.178E-05
 -15.890  0.133E-04  0.978E-05  0.178E-05  0.178E-05
 -15.880  0.128E-04  0.930E-05  0.176E-05  0.176E-05
 -15.870  0.121E-04  0.866E-05  0.172E-05  0.172E-05
 -15.860  0.113E-04  0.794E-05  0.170E-05  0.170E-05
 -15.850  0.106E-04  0.722E-05  0.170E-05  0.170E-05
 -15.840  0.100E-04  0.655E-05  0.174E-05  0.174E-05
 -15.830  0.967E-05  0.599E-05  0.184E-05  0.184E-05
 -15.820  0.959E-05  0.558E-05  0.201E-05  0.201E-05
 -15.810  0.979E-05  0.533E-05  0.223E-05  0.223E-05
 -15.800  0.102E-04  0.522E-05  0.249E-05  0.249E-05
 -15.790  0.108E-04  0.522E-05  0.277E-05  0.277E-05
 -15.780  0.113E-04  0.528E-05  0.302E-05  0.302E-05
 -15.770  0.118E-04  0.534E-05  0.322E-05  0.322E-05
 -15.760  0.120E-04  0.536E-05  0.334E-05  0.334E-05
 -15.750  0.121E-04  0.533E-05  0.336E-05  0.336E-05
 -15.740  0.119E-04  0.526E-05  0.332E-05  0.332E-05
 -15.730  0.117E-04  0.520E-05  0.323E-05  0.323E-05
 -15.720  0.115E-04  0.520E-05  0.315E-05  0.315E-05
 -15.710  0.116E-04  0.531E-05  0.312E-05  0.312E-05
 -15.700  0.119E-04  0.559E-05  0.318E-05  0.318E-05
 -15.690  0.127E-04  0.602E-05  0.336E-05  0.336E-05
 -15.680  0.139E-04  0.658E-05  0.364E-05  0.364E-05
 -15.670  0.153E-04  0.720E-05  0.402E-05  0.402E-05
 -15.660  0.167E-04  0.780E-05  0.446E-05  0.446E-05
 -15.650  0.181E-04  0.828E-05  0.489E-05  0.489E-05
 -15.640  0.192E-04  0.858E-05  0.529E-05  0.529E-05
 -15.630  0.199E-04  0.864E-05  0.561E-05  0.561E-05
 -15.620  0.201E-04  0.846E-05  0.584E-05  0.584E-05
 -15.610  0.200E-04  0.807E-05  0.597E-05  0.597E-05
 -15.600  0.196E-04  0.754E-05  0.601E-05  0.601E-05
 -15.590  0.189E-04  0.693E-05  0.598E-05  0.598E-05
 -15.580  0.181E-04  0.630E-05  0.591E-05  0.591E-05
 -15.570  0.174E-04  0.570E-05  0.585E-05  0.585E-05
 -15.560  0.168E-04  0.517E-05  0.583E-05  0.583E-05
 -15.550  0.165E-04  0.473E-05  0.589E-05  0.589E-05
 -15.540  0.165E-04  0.440E-05  0.607E-05  0.607E-05
 -15.530  0.170E-04  0.418E-05  0.639E-05  0.639E-05
 -15.520  0.178E-04  0.406E-05  0.685E-05  0.685E-05
 -15.510  0.188E-04  0.403E-05  0.741E-05  0.741E-05
 -15.500  0.201E-04  0.406E-05  0.802E-05  0.802E-05
 -15.490  0.213E-04  0.415E-05  0.858E-05  0.858E-05
 -15.480  0.223E-04  0.425E-05  0.903E-05  0.903E-05
 -15.470  0.229E-04  0.435E-05  0.930E-05  0.930E-05
 -15.460  0.232E-04  0.444E-05  0.937E-05  0.937E-05
 -15.450  0.231E-04  0.455E-05  0.929E-05  0.929E-05
 -15.440  0.230E-04  0.470E-05  0.914E-05  0.914E-05
 -15.430  0.230E-04  0.490E-05  0.902E-05  0.902E-05
 -15.420  0.233E-04  0.520E-05  0.906E-05  0.906E-05
 -15.410  0.242E-04  0.557E-05  0.932E-05  0.932E-05
 -15.400  0.257E-04  0.599E-05  0.984E-05  0.984E-05
 -15.390  0.276E-04  0.642E-05  0.106E-04  0.106E-04
 -15.380  0.298E-04  0.679E-05  0.115E-04  0.115E-04
 -15.370  0.318E-04  0.704E-05  0.124E-04  0.124E-04
 -15.360  0.336E-04  0.711E-05  0.132E-04  0.132E-04
 -15.350  0.347E-04  0.700E-05  0.139E-04  0.139E-04
 -15.340  0.352E-04  0.671E-05  0.143E-04  0.143E-04
 -15.330  0.351E-04  0.628E-05  0.144E-04  0.144E-04
 -15.320  0.346E-04  0.577E-05  0.144E-04  0.144E-04
 -15.310  0.339E-04  0.524E-05  0.143E-04  0.143E-04
 -15.300  0.331E-04  0.472E-05  0.142E-04  0.142E-04
 -15.290  0.326E-04  0.427E-05  0.142E-04  0.142E-04
 -15.280  0.325E-04  0.390E-05  0.143E-04  0.143E-04
 -15.270  0.328E-04  0.361E-05  0.146E-04  0.146E-04
 -15.260  0.336E-04  0.340E-05  0.151E-04  0.151E-04
 -15.250  0.348E-04  0.324E-05  0.158E-04  0.158E-04
 -15.240  0.363E-04  0.314E-05  0.166E-04  0.166E-04
 -15.230  0.380E-04  0.308E-05  0.174E-04  0.174E-04
 -15.220  0.396E-04  0.304E-05  0.183E-04  0.183E-04
 -15.210  0.410E-04  0.304E-05  0.190E-04  0.190E-04
 -15.200  0.421E-04  0.306E-05  0.195E-04  0.195E-04
 -15.190  0.431E-04  0.311E-05  0.200E-04  0.200E-04
 -15.180  0.441E-04  0.321E-05  0.204E-04  0.204E-04
 -15.170  0.453E-04  0.337E-05  0.210E-04  0.210E-04
 -15.160  0.471E-04  0.360E-05  0.218E-04  0.218E-04
 -15.150  0.496E-04  0.390E-05  0.229E-04  0.229E-04
 -15.140  0.529E-04  0.425E-05  0.243E-04  0.243E-04
 -15.130  0.569E-04  0.464E-05  0.261E-04  0.261E-04
 -15.120  0.613E-04  0.500E-05  0.281E-04  0.281E-04
 -15.110  0.658E-04  0.530E-05  0.302E-04  0.302E-04
 -15.100  0.700E-04  0.548E-05  0.323E-04  0.323E-04
 -15.090  0.739E-04  0.551E-05  0.342E-04  0.342E-04
 -15.080  0.773E-04  0.538E-05  0.360E-04  0.360E-04
 -15.070  0.802E-04  0.511E-05  0.375E-04  0.375E-04
 -15.060  0.825E-04  0.473E-05  0.389E-04  0.389E-04
 -15.050  0.843E-04  0.427E-05  0.400E-04  0.400E-04
 -15.040  0.853E-04  0.379E-05  0.408E-04  0.408E-04
 -15.030  0.855E-04  0.333E-05  0.411E-04  0.411E-04
 -15.020  0.847E-04  0.291E-05  0.409E-04  0.409E-04
 -15.010  0.827E-04  0.255E-05  0.401E-04  0.401E-04
 -15.000  0.798E-04  0.225E-05  0.388E-04  0.388E-04
 -14.990  0.759E-04  0.201E-05  0.369E-04  0.369E-04
 -14.980  0.713E-04  0.181E-05  0.348E-04  0.348E-04
 -14.970  0.664E-04  0.165E-05  0.324E-04  0.324E-04
 -14.960  0.613E-04  0.152E-05  0.299E-04  0.299E-04
 -14.950  0.565E-04  0.142E-05  0.275E-04  0.275E-04
 -14.940  0.522E-04  0.135E-05  0.254E-04  0.254E-04
 -14.930  0.485E-04  0.132E-05  0.236E-04  0.236E-04
 -14.920  0.459E-04  0.133E-05  0.223E-04  0.223E-04
 -14.910  0.444E-04  0.140E-05  0.215E-04  0.215E-04
 -14.900  0.441E-04  0.153E-05  0.213E-04  0.213E-04
 -14.890  0.449E-04  0.173E-05  0.216E-04  0.216E-04
 -14.880  0.465E-04  0.200E-05  0.222E-04  0.222E-04
 -14.870  0.483E-04  0.231E-05  0.230E-04  0.230E-04
 -14.860  0.498E-04  0.265E-05  0.236E-04  0.236E-04
 -14.850  0.506E-04  0.299E-05  0.238E-04  0.238E-04
 -14.840  0.504E-04  0.327E-05  0.236E-04  0.236E-04
 -14.830  0.490E-04  0.348E-05  0.228E-04  0.228E-04
 -14.820  0.468E-04  0.357E-05  0.216E-04  0.216E-04
 -14.810  0.442E-04  0.355E-05  0.203E-04  0.203E-04
 -14.800  0.418E-04  0.341E-05  0.192E-04  0.192E-04
 -14.790  0.402E-04  0.318E-05  0.185E-04  0.185E-04
 -14.780  0.396E-04  0.287E-05  0.184E-04  0.184E-04
 -14.770  0.402E-04  0.253E-05  0.188E-04  0.188E-04
 -14.760  0.417E-04  0.218E-05  0.198E-04  0.198E-04
 -14.750  0.436E-04  0.185E-05  0.209E-04  0.209E-04
 -14.740  0.453E-04  0.155E-05  0.219E-04  0.219E-04
 -14.730  0.460E-04  0.128E-05  0.224E-04  0.224E-04
 -14.720  0.453E-04  0.103E-05  0.222E-04  0.222E-04
 -14.710  0.429E-04  0.817E-06  0.210E-04  0.210E-04
 -14.700  0.388E-04  0.621E-06  0.191E-04  0.191E-04
 -14.690  0.332E-04  0.446E-06  0.164E-04  0.164E-04
 -14.680  0.270E-04  0.299E-06  0.133E-04  0.133E-04
 -14.670  0.208E-04  0.189E-06  0.103E-04  0.103E-04
 -14.660  0.154E-04  0.128E-06  0.766E-05  0.766E-05
 -14.650  0.117E-04  0.129E-06  0.579E-05  0.579E-05
 -14.640  0.100E-04  0.204E-06  0.492E-05  0.492E-05
 -14.630  0.107E-04  0.360E-06  0.517E-05  0.517E-05
 -14.620  0.137E-04  0.601E-06  0.653E-05  0.653E-05
 -14.610  0.187E-04  0.921E-06  0.888E-05  0.888E-05
 -14.600  0.253E-04  0.131E-05  0.120E-04  0.120E-04
 -14.590  0.329E-04  0.173E-05  0.156E-04  0.156E-04
 -14.580  0.409E-04  0.216E-05  0.194E-04  0.194E-04
 -14.570  0.484E-04  0.254E-05  0.229E-04  0.229E-04
 -14.560  0.546E-04  0.283E-05  0.259E-04  0.259E-04
 -14.550  0.588E-04  0.300E-05  0.279E-04  0.279E-04
 -14.540  0.603E-04  0.300E-05  0.286E-04  0.286E-04
 -14.530  0.587E-04  0.284E-05  0.280E-04  0.280E-04
 -14.520  0.542E-04  0.252E-05  0.259E-04  0.259E-04
 -14.510  0.473E-04  0.209E-05  0.226E-04  0.226E-04
 -14.500  0.386E-04  0.160E-05  0.185E-04  0.185E-04
 -14.490  0.293E-04  0.109E-05  0.141E-04  0.141E-04
 -14.480  0.204E-04  0.626E-06  0.990E-05  0.990E-05
 -14.470  0.129E-04  0.243E-06  0.632E-05  0.632E-05
 -14.460  0.725E-05 -0.399E-07  0.364E-05  0.364E-05
 -14.450  0.376E-05 -0.218E-06  0.199E-05  0.199E-05
 -14.440  0.231E-05 -0.303E-06  0.131E-05  0.131E-05
 -14.430  0.256E-05 -0.313E-06  0.144E-05  0.144E-05
 -14.420  0.409E-05 -0.270E-06  0.218E-05  0.218E-05
 -14.410  0.649E-05 -0.190E-06  0.334E-05  0.334E-05
 -14.400  0.948E-05 -0.869E-07  0.478E-05  0.478E-05
 -14.390  0.129E-04  0.349E-07  0.645E-05  0.645E-05
 -14.380  0.168E-04  0.175E-06  0.831E-05  0.831E-05
 -14.370  0.211E-04  0.338E-06  0.104E-04  0.104E-04
 -14.360  0.257E-04  0.527E-06  0.126E-04  0.126E-04
 -14.350  0.306E-04  0.743E-06  0.150E-04  0.150E-04
 -14.340  0.355E-04  0.980E-06  0.173E-04  0.173E-04
 -14.330  0.400E-04  0.122E-05  0.194E-04  0.194E-04
 -14.320  0.435E-04  0.145E-05  0.210E-04  0.210E-04
 -14.310  0.457E-04  0.164E-05  0.220E-04  0.220E-04
 -14.300  0.460E-04  0.176E-05  0.221E-04  0.221E-04
 -14.290  0.444E-04  0.179E-05  0.213E-04  0.213E-04
 -14.280  0.408E-04  0.171E-05  0.196E-04  0.196E-04
 -14.270  0.357E-04  0.154E-05  0.171E-04  0.171E-04
 -14.260  0.295E-04  0.129E-05  0.141E-04  0.141E-04
 -14.250  0.230E-04  0.984E-06  0.110E-04  0.110E-04
 -14.240  0.169E-04  0.670E-06  0.811E-05  0.811E-05
 -14.230  0.117E-04  0.379E-06  0.564E-05  0.564E-05
 -14.220  0.767E-05  0.137E-06  0.377E-05  0.377E-05
 -14.210  0.509E-05 -0.393E-07  0.256E-05  0.256E-05
 -14.200  0.381E-05 -0.147E-06  0.198E-05  0.198E-05
 -14.190  0.365E-05 -0.194E-06  0.192E-05  0.192E-05
 -14.180  0.436E-05 -0.193E-06  0.228E-05  0.228E-05
 -14.170  0.572E-05 -0.158E-06  0.294E-05  0.294E-05
 -14.160  0.758E-05 -0.105E-06  0.384E-05  0.384E-05
 -14.150  0.981E-05 -0.411E-07  0.493E-05  0.493E-05
 -14.140  0.123E-04  0.268E-07  0.615E-05  0.615E-05
 -14.130  0.150E-04  0.974E-07  0.747E-05  0.747E-05
 -14.120  0.178E-04  0.172E-06  0.883E-05  0.883E-05
 -14.110  0.206E-04  0.251E-06  0.102E-04  0.102E-04
 -14.100  0.232E-04  0.337E-06  0.114E-04  0.114E-04
 -14.090  0.256E-04  0.430E-06  0.126E-04  0.126E-04
 -14.080  0.275E-04  0.525E-06  0.135E-04  0.135E-04
 -14.070  0.290E-04  0.617E-06  0.142E-04  0.142E-04
 -14.060  0.298E-04  0.696E-06  0.146E-04  0.146E-04
 -14.050  0.299E-04  0.754E-06  0.146E-04  0.146E-04
 -14.040  0.291E-04  0.782E-06  0.141E-04  0.141E-04
 -14.030  0.274E-04  0.776E-06  0.133E-04  0.133E-04
 -14.020  0.249E-04  0.736E-06  0.121E-04  0.121E-04
 -14.010  0.218E-04  0.671E-06  0.106E-04  0.106E-04
 -14.000  0.183E-04  0.599E-06  0.887E-05  0.887E-05
 -13.990  0.149E-04  0.542E-06  0.717E-05  0.717E-05
 -13.980  0.118E-04  0.526E-06  0.562E-05  0.562E-05
 -13.970  0.921E-05  0.581E-06  0.431E-05  0.431E-05
 -13.960  0.739E-05  0.731E-06  0.333E-05  0.333E-05
 -13.950  0.637E-05  0.995E-06  0.269E-05  0.269E-05
 -13.940  0.615E-05  0.138E-05  0.238E-05  0.238E-05
 -13.930  0.667E-05  0.190E-05  0.239E-05  0.239E-05
 -13.920  0.789E-05  0.252E-05  0.269E-05  0.269E-05
 -13.910  0.974E-05  0.322E-05  0.326E-05  0.326E-05
 -13.900  0.121E-04  0.396E-05  0.409E-05  0.409E-05
 -13.890  0.150E-04  0.469E-05  0.515E-05  0.515E-05
 -13.880  0.181E-04  0.536E-05  0.638E-05  0.638E-05
 -13.870  0.214E-04  0.594E-05  0.771E-05  0.771E-05
 -13.860  0.245E-04  0.640E-05  0.907E-05  0.907E-05
 -13.850  0.274E-04  0.672E-05  0.104E-04  0.104E-04
 -13.840  0.299E-04  0.693E-05  0.115E-04  0.115E-04
 -13.830  0.318E-04  0.704E-05  0.124E-04  0.124E-04
 -13.820  0.332E-04  0.710E-05  0.131E-04  0.131E-04
 -13.810  0.340E-04  0.713E-05  0.134E-04  0.134E-04
 -13.800  0.341E-04  0.714E-05  0.135E-04  0.135E-04
 -13.790  0.336E-04  0.714E-05  0.132E-04  0.132E-04
 -13.780  0.325E-04  0.710E-05  0.127E-04  0.127E-04
 -13.770  0.308E-04  0.700E-05  0.119E-04  0.119E-04
 -13.760  0.286E-04  0.684E-05  0.109E-04  0.109E-04
 -13.750  0.263E-04  0.663E-05  0.986E-05  0.986E-05
 -13.740  0.242E-04  0.639E-05  0.892E-05  0.892E-05
 -13.730  0.226E-04  0.618E-05  0.823E-05  0.823E-05
 -13.720  0.219E-04  0.605E-05  0.791E-05  0.791E-05
 -13.710  0.220E-04  0.604E-05  0.799E-05  0.799E-05
 -13.700  0.231E-04  0.616E-05  0.845E-05  0.845E-05
 -13.690  0.247E-04  0.638E-05  0.918E-05  0.918E-05
 -13.680  0.267E-04  0.665E-05  0.100E-04  0.100E-04
 -13.670  0.285E-04  0.689E-05  0.108E-04  0.108E-04
 -13.660  0.298E-04  0.702E-05  0.114E-04  0.114E-04
 -13.650  0.305E-04  0.700E-05  0.118E-04  0.118E-04
 -13.640  0.306E-04  0.681E-05  0.119E-04  0.119E-04
 -13.630  0.302E-04  0.650E-05  0.119E-04  0.119E-04
 -13.620  0.298E-04  0.615E-05  0.118E-04  0.118E-04
 -13.610  0.297E-04  0.585E-05  0.119E-04  0.119E-04
 -13.600  0.302E-04  0.567E-05  0.123E-04  0.123E-04
 -13.590  0.315E-04  0.567E-05  0.129E-04  0.129E-04
 -13.580  0.333E-04  0.584E-05  0.137E-04  0.137E-04
 -13.570  0.355E-04  0.616E-05  0.147E-04  0.147E-04
 -13.560  0.376E-04  0.653E-05  0.156E-04  0.156E-04
 -13.550  0.394E-04  0.688E-05  0.162E-04  0.162E-04
 -13.540  0.404E-04  0.712E-05  0.166E-04  0.166E-04
 -13.530  0.406E-04  0.721E-05  0.167E-04  0.167E-04
 -13.520  0.399E-04  0.712E-05  0.164E-04  0.164E-04
 -13.510  0.385E-04  0.689E-05  0.158E-04  0.158E-04
 -13.500  0.365E-04  0.657E-05  0.150E-04  0.150E-04
 -13.490  0.343E-04  0.621E-05  0.141E-04  0.141E-04
 -13.480  0.322E-04  0.590E-05  0.131E-04  0.131E-04
 -13.470  0.304E-04  0.567E-05  0.123E-04  0.123E-04
 -13.460  0.291E-04  0.558E-05  0.118E-04  0.118E-04
 -13.450  0.287E-04  0.563E-05  0.115E-04  0.115E-04
 -13.440  0.292E-04  0.581E-05  0.117E-04  0.117E-04
 -13.430  0.307E-04  0.609E-05  0.123E-04  0.123E-04
 -13.420  0.332E-04  0.641E-05  0.134E-04  0.134E-04
 -13.410  0.365E-04  0.671E-05  0.149E-04  0.149E-04
 -13.400  0.401E-04  0.694E-05  0.166E-04  0.166E-04
 -13.390  0.436E-04  0.705E-05  0.183E-04  0.183E-04
 -13.380  0.467E-04  0.702E-05  0.198E-04  0.198E-04
 -13.370  0.487E-04  0.685E-05  0.210E-04  0.210E-04
 -13.360  0.497E-04  0.657E-05  0.216E-04  0.216E-04
 -13.350  0.495E-04  0.625E-05  0.216E-04  0.216E-04
 -13.340  0.484E-04  0.595E-05  0.212E-04  0.212E-04
 -13.330  0.467E-04  0.573E-05  0.205E-04  0.205E-04
 -13.320  0.448E-04  0.564E-05  0.196E-04  0.196E-04
 -13.310  0.432E-04  0.570E-05  0.188E-04  0.188E-04
 -13.300  0.421E-04  0.587E-05  0.181E-04  0.181E-04
 -13.290  0.417E-04  0.612E-05  0.178E-04  0.178E-04
 -13.280  0.419E-04  0.638E-05  0.178E-04  0.178E-04
 -13.270  0.428E-04  0.657E-05  0.181E-04  0.181E-04
 -13.260  0.444E-04  0.667E-05  0.188E-04  0.188E-04
 -13.250  0.467E-04  0.666E-05  0.200E-04  0.200E-04
 -13.240  0.499E-04  0.657E-05  0.217E-04  0.217E-04
 -13.230  0.539E-04  0.643E-05  0.238E-04  0.238E-04
 -13.220  0.587E-04  0.630E-05  0.262E-04  0.262E-04
 -13.210  0.639E-04  0.623E-05  0.289E-04  0.289E-04
 -13.200  0.691E-04  0.623E-05  0.314E-04  0.314E-04
 -13.190  0.735E-04  0.632E-05  0.336E-04  0.336E-04
 -13.180  0.766E-04  0.645E-05  0.351E-04  0.351E-04
 -13.170  0.781E-04  0.660E-05  0.357E-04  0.357E-04
 -13.160  0.777E-04  0.672E-05  0.355E-04  0.355E-04
 -13.150  0.757E-04  0.677E-05  0.344E-04  0.344E-04
 -13.140  0.725E-04  0.674E-05  0.329E-04  0.329E-04
 -13.130  0.690E-04  0.663E-05  0.312E-04  0.312E-04
 -13.120  0.659E-04  0.646E-05  0.297E-04  0.297E-04
 -13.110  0.637E-04  0.625E-05  0.287E-04  0.287E-04
 -13.100  0.630E-04  0.603E-05  0.285E-04  0.285E-04
 -13.090  0.638E-04  0.583E-05  0.290E-04  0.290E-04
 -13.080  0.660E-04  0.565E-05  0.302E-04  0.302E-04
 -13.070  0.692E-04  0.551E-05  0.318E-04  0.318E-04
 -13.060  0.729E-04  0.540E-05  0.338E-04  0.338E-04
 -13.050  0.767E-04  0.531E-05  0.357E-04  0.357E-04
 -13.040  0.799E-04  0.523E-05  0.373E-04  0.373E-04
 -13.030  0.823E-04  0.517E-05  0.386E-04  0.386E-04
 -13.020  0.836E-04  0.512E-05  0.392E-04  0.392E-04
 -13.010  0.837E-04  0.506E-05  0.393E-04  0.393E-04
 -13.000  0.828E-04  0.501E-05  0.389E-04  0.389E-04
 -12.990  0.808E-04  0.495E-05  0.379E-04  0.379E-04
 -12.980  0.780E-04  0.486E-05  0.365E-04  0.365E-04
 -12.970  0.746E-04  0.475E-05  0.349E-04  0.349E-04
 -12.960  0.709E-04  0.460E-05  0.331E-04  0.331E-04
 -12.950  0.671E-04  0.442E-05  0.313E-04  0.313E-04
 -12.940  0.636E-04  0.420E-05  0.297E-04  0.297E-04
 -12.930  0.606E-04  0.396E-05  0.283E-04  0.283E-04
 -12.920  0.586E-04  0.374E-05  0.274E-04  0.274E-04
 -12.910  0.580E-04  0.356E-05  0.272E-04  0.272E-04
 -12.900  0.590E-04  0.345E-05  0.278E-04  0.278E-04
 -12.890  0.619E-04  0.344E-05  0.292E-04  0.292E-04
 -12.880  0.666E-04  0.352E-05  0.315E-04  0.315E-04
 -12.870  0.725E-04  0.368E-05  0.344E-04  0.344E-04
 -12.860  0.790E-04  0.389E-05  0.376E-04  0.376E-04
 -12.850  0.852E-04  0.409E-05  0.405E-04  0.405E-04
 -12.840  0.899E-04  0.426E-05  0.428E-04  0.428E-04
 -12.830  0.923E-04  0.434E-05  0.440E-04  0.440E-04
 -12.820  0.922E-04  0.432E-05  0.439E-04  0.439E-04
 -12.810  0.894E-04  0.419E-05  0.426E-04  0.426E-04
 -12.800  0.846E-04  0.398E-05  0.403E-04  0.403E-04
 -12.790  0.785E-04  0.373E-05  0.374E-04  0.374E-04
 -12.780  0.724E-04  0.348E-05  0.344E-04  0.344E-04
 -12.770  0.670E-04  0.326E-05  0.319E-04  0.319E-04
 -12.760  0.632E-04  0.310E-05  0.300E-04  0.300E-04
 -12.750  0.612E-04  0.300E-05  0.291E-04  0.291E-04
 -12.740  0.610E-04  0.297E-05  0.290E-04  0.290E-04
 -12.730  0.623E-04  0.298E-05  0.297E-04  0.297E-04
 -12.720  0.645E-04  0.299E-05  0.308E-04  0.308E-04
 -12.710  0.674E-04  0.300E-05  0.322E-04  0.322E-04
 -12.700  0.705E-04  0.300E-05  0.337E-04  0.337E-04
 -12.690  0.737E-04  0.299E-05  0.354E-04  0.354E-04
 -12.680  0.773E-04  0.298E-05  0.371E-04  0.371E-04
 -12.670  0.811E-04  0.301E-05  0.391E-04  0.391E-04
 -12.660  0.852E-04  0.308E-05  0.410E-04  0.410E-04
 -12.650  0.891E-04  0.318E-05  0.430E-04  0.430E-04
 -12.640  0.925E-04  0.331E-05  0.446E-04  0.446E-04
 -12.630  0.945E-04  0.341E-05  0.455E-04  0.455E-04
 -12.620  0.946E-04  0.347E-05  0.455E-04  0.455E-04
 -12.610  0.924E-04  0.345E-05  0.445E-04  0.445E-04
 -12.600  0.880E-04  0.333E-05  0.423E-04  0.423E-04
 -12.590  0.819E-04  0.313E-05  0.394E-04  0.394E-04
 -12.580  0.750E-04  0.287E-05  0.361E-04  0.361E-04
 -12.570  0.683E-04  0.260E-05  0.329E-04  0.329E-04
 -12.560  0.629E-04  0.237E-05  0.303E-04  0.303E-04
 -12.550  0.596E-04  0.220E-05  0.287E-04  0.287E-04
 -12.540  0.587E-04  0.212E-05  0.283E-04  0.283E-04
 -12.530  0.603E-04  0.214E-05  0.291E-04  0.291E-04
 -12.520  0.641E-04  0.222E-05  0.309E-04  0.309E-04
 -12.510  0.694E-04  0.236E-05  0.335E-04  0.335E-04
 -12.500  0.756E-04  0.250E-05  0.366E-04  0.366E-04
 -12.490  0.819E-04  0.263E-05  0.396E-04  0.396E-04
 -12.480  0.875E-04  0.272E-05  0.424E-04  0.424E-04
 -12.470  0.922E-04  0.277E-05  0.447E-04  0.447E-04
 -12.460  0.956E-04  0.278E-05  0.464E-04  0.464E-04
 -12.450  0.976E-04  0.276E-05  0.474E-04  0.474E-04
 -12.440  0.981E-04  0.273E-05  0.477E-04  0.477E-04
 -12.430  0.973E-04  0.270E-05  0.473E-04  0.473E-04
 -12.420  0.952E-04  0.266E-05  0.463E-04  0.463E-04
 -12.410  0.919E-04  0.262E-05  0.447E-04  0.447E-04
 -12.400  0.875E-04  0.256E-05  0.425E-04  0.425E-04
 -12.390  0.822E-04  0.247E-05  0.398E-04  0.398E-04
 -12.380  0.762E-04  0.235E-05  0.369E-04  0.369E-04
 -12.370  0.702E-04  0.219E-05  0.340E-04  0.340E-04
 -12.360  0.647E-04  0.202E-05  0.314E-04  0.314E-04
 -12.350  0.606E-04  0.186E-05  0.294E-04  0.294E-04
 -12.340  0.586E-04  0.174E-05  0.284E-04  0.284E-04
 -12.330  0.592E-04  0.168E-05  0.288E-04  0.288E-04
 -12.320  0.627E-04  0.170E-05  0.305E-04  0.305E-04
 -12.310  0.688E-04  0.179E-05  0.335E-04  0.335E-04
 -12.300  0.770E-04  0.194E-05  0.375E-04  0.375E-04
 -12.290  0.863E-04  0.212E-05  0.421E-04  0.421E-04
 -12.280  0.953E-04  0.230E-05  0.465E-04  0.465E-04
 -12.270  0.103E-03  0.245E-05  0.502E-04  0.502E-04
 -12.260  0.108E-03  0.253E-05  0.525E-04  0.525E-04
 -12.250  0.109E-03  0.254E-05  0.533E-04  0.533E-04
 -12.240  0.107E-03  0.247E-05  0.524E-04  0.524E-04
 -12.230  0.102E-03  0.234E-05  0.501E-04  0.501E-04
 -12.220  0.957E-04  0.218E-05  0.468E-04  0.468E-04
 -12.210  0.882E-04  0.201E-05  0.431E-04  0.431E-04
 -12.200  0.810E-04  0.187E-05  0.396E-04  0.396E-04
 -12.190  0.752E-04  0.176E-05  0.367E-04  0.367E-04
 -12.180  0.710E-04  0.169E-05  0.347E-04  0.347E-04
 -12.170  0.685E-04  0.166E-05  0.334E-04  0.334E-04
 -12.160  0.675E-04  0.165E-05  0.329E-04  0.329E-04
 -12.150  0.676E-04  0.165E-05  0.330E-04  0.330E-04
 -12.140  0.684E-04  0.164E-05  0.334E-04  0.334E-04
 -12.130  0.697E-04  0.163E-05  0.340E-04  0.340E-04
 -12.120  0.716E-04  0.162E-05  0.350E-04  0.350E-04
 -12.110  0.743E-04  0.161E-05  0.364E-04  0.364E-04
 -12.100  0.781E-04  0.162E-05  0.382E-04  0.382E-04
 -12.090  0.829E-04  0.166E-05  0.406E-04  0.406E-04
 -12.080  0.887E-04  0.172E-05  0.435E-04  0.435E-04
 -12.070  0.951E-04  0.180E-05  0.466E-04  0.466E-04
 -12.060  0.101E-03  0.189E-05  0.497E-04  0.497E-04
 -12.050  0.106E-03  0.198E-05  0.522E-04  0.522E-04
 -12.040  0.110E-03  0.203E-05  0.538E-04  0.538E-04
 -12.030  0.110E-03  0.204E-05  0.541E-04  0.541E-04
 -12.020  0.108E-03  0.201E-05  0.530E-04  0.530E-04
 -12.010  0.103E-03  0.192E-05  0.506E-04  0.506E-04
 -12.000  0.959E-04  0.180E-05  0.470E-04  0.470E-04
 -11.990  0.873E-04  0.165E-05  0.428E-04  0.428E-04
 -11.980  0.785E-04  0.149E-05  0.385E-04  0.385E-04
 -11.970  0.704E-04  0.135E-05  0.345E-04  0.345E-04
 -11.960  0.640E-04  0.124E-05  0.314E-04  0.314E-04
 -11.950  0.598E-04  0.116E-05  0.293E-04  0.293E-04
 -11.940  0.582E-04  0.113E-05  0.285E-04  0.285E-04
 -11.930  0.593E-04  0.113E-05  0.291E-04  0.291E-04
 -11.920  0.631E-04  0.118E-05  0.309E-04  0.309E-04
 -11.910  0.692E-04  0.125E-05  0.340E-04  0.340E-04
 -11.900  0.772E-04  0.135E-05  0.379E-04  0.379E-04
 -11.890  0.864E-04  0.146E-05  0.425E-04  0.425E-04
 -11.880  0.959E-04  0.157E-05  0.472E-04  0.472E-04
 -11.870  0.105E-03  0.167E-05  0.515E-04  0.515E-04
 -11.860  0.112E-03  0.175E-05  0.550E-04  0.550E-04
 -11.850  0.116E-03  0.178E-05  0.571E-04  0.571E-04
 -11.840  0.117E-03  0.178E-05  0.577E-04  0.577E-04
 -11.830  0.115E-03  0.173E-05  0.567E-04  0.567E-04
 -11.820  0.110E-03  0.165E-05  0.543E-04  0.543E-04
 -11.810  0.103E-03  0.154E-05  0.507E-04  0.507E-04
 -11.800  0.944E-04  0.142E-05  0.465E-04  0.465E-04
 -11.790  0.854E-04  0.129E-05  0.420E-04  0.420E-04
 -11.780  0.769E-04  0.117E-05  0.379E-04  0.379E-04
 -11.770  0.696E-04  0.107E-05  0.343E-04  0.343E-04
 -11.760  0.642E-04  0.100E-05  0.316E-04  0.316E-04
 -11.750  0.610E-04  0.955E-06  0.300E-04  0.300E-04
 -11.740  0.602E-04  0.941E-06  0.297E-04  0.297E-04
 -11.730  0.620E-04  0.957E-06  0.305E-04  0.305E-04
 -11.720  0.662E-04  0.100E-05  0.326E-04  0.326E-04
 -11.710  0.725E-04  0.107E-05  0.357E-04  0.357E-04
 -11.700  0.803E-04  0.115E-05  0.396E-04  0.396E-04
 -11.690  0.888E-04  0.124E-05  0.438E-04  0.438E-04
 -11.680  0.972E-04  0.133E-05  0.479E-04  0.479E-04
 -11.670  0.105E-03  0.140E-05  0.516E-04  0.516E-04
 -11.660  0.110E-03  0.145E-05  0.544E-04  0.544E-04
 -11.650  0.114E-03  0.147E-05  0.561E-04  0.561E-04
 -11.640  0.114E-03  0.145E-05  0.564E-04  0.564E-04
 -11.630  0.112E-03  0.141E-05  0.553E-04  0.553E-04
 -11.620  0.108E-03  0.134E-05  0.532E-04  0.532E-04
 -11.610  0.102E-03  0.125E-05  0.502E-04  0.502E-04
 -11.600  0.950E-04  0.116E-05  0.469E-04  0.469E-04
 -11.590  0.883E-04  0.108E-05  0.436E-04  0.436E-04
 -11.580  0.824E-04  0.100E-05  0.407E-04  0.407E-04
 -11.570  0.777E-04  0.948E-06  0.384E-04  0.384E-04
 -11.560  0.741E-04  0.910E-06  0.366E-04  0.366E-04
 -11.550  0.717E-04  0.887E-06  0.354E-04  0.354E-04
 -11.540  0.704E-04  0.875E-06  0.348E-04  0.348E-04
 -11.530  0.701E-04  0.872E-06  0.346E-04  0.346E-04
 -11.520  0.708E-04  0.876E-06  0.350E-04  0.350E-04
 -11.510  0.728E-04  0.887E-06  0.359E-04  0.359E-04
 -11.500  0.760E-04  0.908E-06  0.376E-04  0.376E-04
 -11.490  0.806E-04  0.939E-06  0.398E-04  0.398E-04
 -11.480  0.863E-04  0.978E-06  0.426E-04  0.426E-04
 -11.470  0.926E-04  0.102E-05  0.458E-04  0.458E-04
 -11.460  0.989E-04  0.107E-05  0.489E-04  0.489E-04
 -11.450  0.104E-03  0.111E-05  0.517E-04  0.517E-04
 -11.440  0.109E-03  0.115E-05  0.538E-04  0.538E-04
 -11.430  0.111E-03  0.116E-05  0.551E-04  0.551E-04
 -11.420  0.112E-03  0.117E-05  0.554E-04  0.554E-04
 -11.410  0.110E-03  0.115E-05  0.547E-04  0.547E-04
 -11.400  0.107E-03  0.112E-05  0.530E-04  0.530E-04
 -11.390  0.102E-03  0.107E-05  0.507E-04  0.507E-04
 -11.380  0.968E-04  0.100E-05  0.479E-04  0.479E-04
 -11.370  0.909E-04  0.932E-06  0.450E-04  0.450E-04
 -11.360  0.859E-04  0.858E-06  0.425E-04  0.425E-04
 -11.350  0.838E-04  0.786E-06  0.415E-04  0.415E-04
 -11.340  0.888E-04  0.722E-06  0.440E-04  0.440E-04
 -11.330  0.109E-03  0.671E-06  0.543E-04  0.543E-04
 -11.320  0.163E-03  0.639E-06  0.809E-04  0.809E-04
 -11.310  0.282E-03  0.634E-06  0.141E-03  0.141E-03
 -11.300  0.532E-03  0.661E-06  0.266E-03  0.266E-03
 -11.290  0.102E-02  0.729E-06  0.512E-03  0.512E-03
 -11.280  0.195E-02  0.844E-06  0.974E-03  0.974E-03
 -11.270  0.360E-02  0.101E-05  0.180E-02  0.180E-02
 -11.260  0.644E-02  0.123E-05  0.322E-02  0.322E-02
 -11.250  0.111E-01  0.151E-05  0.553E-02  0.553E-02
 -11.240  0.183E-01  0.183E-05  0.915E-02  0.915E-02
 -11.230  0.291E-01  0.221E-05  0.145E-01  0.145E-01
 -11.220  0.444E-01  0.262E-05  0.222E-01  0.222E-01
 -11.210  0.652E-01  0.306E-05  0.326E-01  0.326E-01
 -11.200  0.921E-01  0.350E-05  0.460E-01  0.460E-01
 -11.190  0.125E+00  0.391E-05  0.625E-01  0.625E-01
 -11.180  0.164E+00  0.427E-05  0.818E-01  0.818E-01
 -11.170  0.206E+00  0.454E-05  0.103E+00  0.103E+00
 -11.160  0.251E+00  0.471E-05  0.125E+00  0.125E+00
 -11.150  0.295E+00  0.479E-05  0.148E+00  0.148E+00
 -11.140  0.336E+00  0.478E-05  0.168E+00  0.168E+00
 -11.130  0.372E+00  0.474E-05  0.186E+00  0.186E+00
 -11.120  0.400E+00  0.471E-05  0.200E+00  0.200E+00
 -11.110  0.421E+00  0.473E-05  0.210E+00  0.210E+00
 -11.100  0.434E+00  0.482E-05  0.217E+00  0.217E+00
 -11.090  0.440E+00  0.499E-05  0.220E+00  0.220E+00
 -11.080  0.441E+00  0.522E-05  0.220E+00  0.220E+00
 -11.070  0.439E+00  0.544E-05  0.219E+00  0.219E+00
 -11.060  0.434E+00  0.562E-05  0.217E+00  0.217E+00
 -11.050  0.430E+00  0.571E-05  0.215E+00  0.215E+00
 -11.040  0.425E+00  0.566E-05  0.213E+00  0.213E+00
 -11.030  0.421E+00  0.549E-05  0.211E+00  0.211E+00
 -11.020  0.418E+00  0.521E-05  0.209E+00  0.209E+00
 -11.010  0.416E+00  0.488E-05  0.208E+00  0.208E+00
 -11.000  0.415E+00  0.455E-05  0.208E+00  0.208E+00
 -10.990  0.415E+00  0.427E-05  0.207E+00  0.207E+00
 -10.980  0.415E+00  0.407E-05  0.207E+00  0.207E+00
 -10.970  0.416E+00  0.397E-05  0.208E+00  0.208E+00
 -10.960  0.417E+00  0.397E-05  0.209E+00  0.209E+00
 -10.950  0.418E+00  0.405E-05  0.209E+00  0.209E+00
 -10.940  0.419E+00  0.420E-05  0.209E+00  0.209E+00
 -10.930  0.419E+00  0.441E-05  0.209E+00  0.209E+00
 -10.920  0.418E+00  0.467E-05  0.209E+00  0.209E+00
 -10.910  0.418E+00  0.496E-05  0.209E+00  0.209E+00
 -10.900  0.418E+00  0.525E-05  0.209E+00  0.209E+00
 -10.890  0.419E+00  0.553E-05  0.210E+00  0.210E+00
 -10.880  0.422E+00  0.576E-05  0.211E+00  0.211E+00
 -10.870  0.426E+00  0.590E-05  0.213E+00  0.213E+00
 -10.860  0.429E+00  0.592E-05  0.214E+00  0.214E+00
 -10.850  0.431E+00  0.582E-05  0.215E+00  0.215E+00
 -10.840  0.431E+00  0.560E-05  0.215E+00  0.215E+00
 -10.830  0.428E+00  0.528E-05  0.214E+00  0.214E+00
 -10.820  0.425E+00  0.490E-05  0.212E+00  0.212E+00
 -10.810  0.422E+00  0.449E-05  0.211E+00  0.211E+00
 -10.800  0.422E+00  0.408E-05  0.211E+00  0.211E+00
 -10.790  0.425E+00  0.371E-05  0.212E+00  0.212E+00
 -10.780  0.431E+00  0.338E-05  0.215E+00  0.215E+00
 -10.770  0.438E+00  0.311E-05  0.219E+00  0.219E+00
 -10.760  0.445E+00  0.293E-05  0.222E+00  0.222E+00
 -10.750  0.449E+00  0.287E-05  0.224E+00  0.224E+00
 -10.740  0.448E+00  0.296E-05  0.224E+00  0.224E+00
 -10.730  0.444E+00  0.322E-05  0.222E+00  0.222E+00
 -10.720  0.438E+00  0.367E-05  0.219E+00  0.219E+00
 -10.710  0.432E+00  0.428E-05  0.216E+00  0.216E+00
 -10.700  0.429E+00  0.500E-05  0.214E+00  0.214E+00
 -10.690  0.430E+00  0.575E-05  0.215E+00  0.215E+00
 -10.680  0.437E+00  0.644E-05  0.219E+00  0.219E+00
 -10.670  0.447E+00  0.694E-05  0.224E+00  0.224E+00
 -10.660  0.459E+00  0.720E-05  0.229E+00  0.229E+00
 -10.650  0.468E+00  0.715E-05  0.234E+00  0.234E+00
 -10.640  0.473E+00  0.682E-05  0.236E+00  0.236E+00
 -10.630  0.472E+00  0.625E-05  0.236E+00  0.236E+00
 -10.620  0.466E+00  0.552E-05  0.233E+00  0.233E+00
 -10.610  0.458E+00  0.475E-05  0.229E+00  0.229E+00
 -10.600  0.450E+00  0.402E-05  0.225E+00  0.225E+00
 -10.590  0.446E+00  0.342E-05  0.223E+00  0.223E+00
 -10.580  0.448E+00  0.299E-05  0.224E+00  0.224E+00
 -10.570  0.456E+00  0.274E-05  0.228E+00  0.228E+00
 -10.560  0.469E+00  0.263E-05  0.235E+00  0.235E+00
 -10.550  0.483E+00  0.264E-05  0.242E+00  0.242E+00
 -10.540  0.496E+00  0.273E-05  0.248E+00  0.248E+00
 -10.530  0.503E+00  0.285E-05  0.252E+00  0.252E+00
 -10.520  0.505E+00  0.301E-05  0.253E+00  0.253E+00
 -10.510  0.502E+00  0.320E-05  0.251E+00  0.251E+00
 -10.500  0.496E+00  0.345E-05  0.248E+00  0.248E+00
 -10.490  0.489E+00  0.377E-05  0.245E+00  0.245E+00
 -10.480  0.486E+00  0.417E-05  0.243E+00  0.243E+00
 -10.470  0.488E+00  0.463E-05  0.244E+00  0.244E+00
 -10.460  0.497E+00  0.514E-05  0.248E+00  0.248E+00
 -10.450  0.511E+00  0.562E-05  0.256E+00  0.256E+00
 -10.440  0.528E+00  0.602E-05  0.264E+00  0.264E+00
 -10.430  0.546E+00  0.628E-05  0.273E+00  0.273E+00
 -10.420  0.560E+00  0.636E-05  0.280E+00  0.280E+00
 -10.410  0.571E+00  0.624E-05  0.285E+00  0.285E+00
 -10.400  0.577E+00  0.596E-05  0.289E+00  0.289E+00
 -10.390  0.582E+00  0.554E-05  0.291E+00  0.291E+00
 -10.380  0.587E+00  0.507E-05  0.293E+00  0.293E+00
 -10.370  0.596E+00  0.460E-05  0.298E+00  0.298E+00
 -10.360  0.612E+00  0.421E-05  0.306E+00  0.306E+00
 -10.350  0.634E+00  0.392E-05  0.317E+00  0.317E+00
 -10.340  0.662E+00  0.376E-05  0.331E+00  0.331E+00
 -10.330  0.693E+00  0.372E-05  0.346E+00  0.346E+00
 -10.320  0.720E+00  0.375E-05  0.360E+00  0.360E+00
 -10.310  0.740E+00  0.383E-05  0.370E+00  0.370E+00
 -10.300  0.748E+00  0.388E-05  0.374E+00  0.374E+00
 -10.290  0.743E+00  0.387E-05  0.371E+00  0.371E+00
 -10.280  0.722E+00  0.377E-05  0.361E+00  0.361E+00
 -10.270  0.689E+00  0.357E-05  0.344E+00  0.344E+00
 -10.260  0.645E+00  0.329E-05  0.323E+00  0.323E+00
 -10.250  0.596E+00  0.300E-05  0.298E+00  0.298E+00
 -10.240  0.547E+00  0.277E-05  0.273E+00  0.273E+00
 -10.230  0.500E+00  0.266E-05  0.250E+00  0.250E+00
 -10.220  0.460E+00  0.273E-05  0.230E+00  0.230E+00
 -10.210  0.427E+00  0.301E-05  0.214E+00  0.214E+00
 -10.200  0.403E+00  0.349E-05  0.201E+00  0.201E+00
 -10.190  0.385E+00  0.411E-05  0.193E+00  0.193E+00
 -10.180  0.373E+00  0.479E-05  0.186E+00  0.186E+00
 -10.170  0.362E+00  0.543E-05  0.181E+00  0.181E+00
 -10.160  0.352E+00  0.595E-05  0.176E+00  0.176E+00
 -10.150  0.341E+00  0.629E-05  0.171E+00  0.171E+00
 -10.140  0.329E+00  0.640E-05  0.165E+00  0.165E+00
 -10.130  0.317E+00  0.631E-05  0.159E+00  0.159E+00
 -10.120  0.306E+00  0.606E-05  0.153E+00  0.153E+00
 -10.110  0.299E+00  0.570E-05  0.149E+00  0.149E+00
 -10.100  0.295E+00  0.530E-05  0.148E+00  0.148E+00
 -10.090  0.296E+00  0.492E-05  0.148E+00  0.148E+00
 -10.080  0.302E+00  0.460E-05  0.151E+00  0.151E+00
 -10.070  0.311E+00  0.435E-05  0.155E+00  0.155E+00
 -10.060  0.320E+00  0.415E-05  0.160E+00  0.160E+00
 -10.050  0.328E+00  0.398E-05  0.164E+00  0.164E+00
 -10.040  0.332E+00  0.382E-05  0.166E+00  0.166E+00
 -10.030  0.332E+00  0.364E-05  0.166E+00  0.166E+00
 -10.020  0.326E+00  0.343E-05  0.163E+00  0.163E+00
 -10.010  0.315E+00  0.319E-05  0.157E+00  0.157E+00
 -10.000  0.300E+00  0.293E-05  0.150E+00  0.150E+00
  -9.990  0.285E+00  0.268E-05  0.142E+00  0.142E+00
  -9.980  0.270E+00  0.246E-05  0.135E+00  0.135E+00
  -9.970  0.259E+00  0.230E-05  0.130E+00  0.130E+00
  -9.960  0.253E+00  0.225E-05  0.127E+00  0.127E+00
  -9.950  0.254E+00  0.232E-05  0.127E+00  0.127E+00
  -9.940  0.261E+00  0.255E-05  0.130E+00  0.130E+00
  -9.930  0.273E+00  0.294E-05  0.136E+00  0.136E+00
  -9.920  0.287E+00  0.348E-05  0.143E+00  0.143E+00
  -9.910  0.300E+00  0.411E-05  0.150E+00  0.150E+00
  -9.900  0.308E+00  0.478E-05  0.154E+00  0.154E+00
  -9.890  0.310E+00  0.542E-05  0.155E+00  0.155E+00
  -9.880  0.304E+00  0.594E-05  0.152E+00  0.152E+00
  -9.870  0.290E+00  0.628E-05  0.145E+00  0.145E+00
  -9.860  0.271E+00  0.640E-05  0.136E+00  0.136E+00
  -9.850  0.251E+00  0.631E-05  0.125E+00  0.125E+00
  -9.840  0.232E+00  0.603E-05  0.116E+00  0.116E+00
  -9.830  0.220E+00  0.561E-05  0.110E+00  0.110E+00
  -9.820  0.215E+00  0.515E-05  0.108E+00  0.108E+00
  -9.810  0.220E+00  0.471E-05  0.110E+00  0.110E+00
  -9.800  0.231E+00  0.433E-05  0.116E+00  0.116E+00
  -9.790  0.247E+00  0.405E-05  0.124E+00  0.124E+00
  -9.780  0.264E+00  0.387E-05  0.132E+00  0.132E+00
  -9.770  0.279E+00  0.374E-05  0.139E+00  0.139E+00
  -9.760  0.287E+00  0.365E-05  0.144E+00  0.144E+00
  -9.750  0.289E+00  0.354E-05  0.144E+00  0.144E+00
  -9.740  0.283E+00  0.341E-05  0.142E+00  0.142E+00
  -9.730  0.272E+00  0.325E-05  0.136E+00  0.136E+00
  -9.720  0.257E+00  0.306E-05  0.128E+00  0.128E+00
  -9.710  0.240E+00  0.289E-05  0.120E+00  0.120E+00
  -9.700  0.225E+00  0.275E-05  0.112E+00  0.112E+00
  -9.690  0.213E+00  0.267E-05  0.106E+00  0.106E+00
  -9.680  0.204E+00  0.265E-05  0.102E+00  0.102E+00
  -9.670  0.201E+00  0.271E-05  0.100E+00  0.100E+00
  -9.660  0.202E+00  0.284E-05  0.101E+00  0.101E+00
  -9.650  0.206E+00  0.305E-05  0.103E+00  0.103E+00
  -9.640  0.214E+00  0.333E-05  0.107E+00  0.107E+00
  -9.630  0.225E+00  0.368E-05  0.112E+00  0.112E+00
  -9.620  0.237E+00  0.408E-05  0.119E+00  0.119E+00
  -9.610  0.249E+00  0.450E-05  0.125E+00  0.125E+00
  -9.600  0.260E+00  0.490E-05  0.130E+00  0.130E+00
  -9.590  0.269E+00  0.525E-05  0.134E+00  0.134E+00
  -9.580  0.272E+00  0.550E-05  0.136E+00  0.136E+00
  -9.570  0.269E+00  0.561E-05  0.135E+00  0.135E+00
  -9.560  0.260E+00  0.559E-05  0.130E+00  0.130E+00
  -9.550  0.244E+00  0.543E-05  0.122E+00  0.122E+00
  -9.540  0.224E+00  0.517E-05  0.112E+00  0.112E+00
  -9.530  0.202E+00  0.485E-05  0.101E+00  0.101E+00
  -9.520  0.181E+00  0.453E-05  0.903E-01  0.903E-01
  -9.510  0.164E+00  0.425E-05  0.820E-01  0.820E-01
  -9.500  0.155E+00  0.403E-05  0.774E-01  0.774E-01
  -9.490  0.155E+00  0.389E-05  0.777E-01  0.777E-01
  -9.480  0.166E+00  0.383E-05  0.832E-01  0.832E-01
  -9.470  0.187E+00  0.382E-05  0.935E-01  0.935E-01
  -9.460  0.215E+00  0.384E-05  0.107E+00  0.107E+00
  -9.450  0.246E+00  0.384E-05  0.123E+00  0.123E+00
  -9.440  0.275E+00  0.382E-05  0.138E+00  0.138E+00
  -9.430  0.300E+00  0.373E-05  0.150E+00  0.150E+00
  -9.420  0.314E+00  0.359E-05  0.157E+00  0.157E+00
  -9.410  0.318E+00  0.341E-05  0.159E+00  0.159E+00
  -9.400  0.310E+00  0.320E-05  0.155E+00  0.155E+00
  -9.390  0.293E+00  0.301E-05  0.146E+00  0.146E+00
  -9.380  0.269E+00  0.286E-05  0.135E+00  0.135E+00
  -9.370  0.244E+00  0.278E-05  0.122E+00  0.122E+00
  -9.360  0.221E+00  0.281E-05  0.110E+00  0.110E+00
  -9.350  0.206E+00  0.294E-05  0.103E+00  0.103E+00
  -9.340  0.202E+00  0.318E-05  0.101E+00  0.101E+00
  -9.330  0.211E+00  0.350E-05  0.105E+00  0.105E+00
  -9.320  0.232E+00  0.390E-05  0.116E+00  0.116E+00
  -9.310  0.262E+00  0.432E-05  0.131E+00  0.131E+00
  -9.300  0.297E+00  0.473E-05  0.149E+00  0.149E+00
  -9.290  0.332E+00  0.508E-05  0.166E+00  0.166E+00
  -9.280  0.359E+00  0.533E-05  0.179E+00  0.179E+00
  -9.270  0.374E+00  0.546E-05  0.187E+00  0.187E+00
  -9.260  0.376E+00  0.545E-05  0.188E+00  0.188E+00
  -9.250  0.363E+00  0.531E-05  0.181E+00  0.181E+00
  -9.240  0.339E+00  0.507E-05  0.169E+00  0.169E+00
  -9.230  0.307E+00  0.477E-05  0.154E+00  0.154E+00
  -9.220  0.275E+00  0.448E-05  0.137E+00  0.137E+00
  -9.210  0.246E+00  0.423E-05  0.123E+00  0.123E+00
  -9.200  0.227E+00  0.407E-05  0.113E+00  0.113E+00
  -9.190  0.219E+00  0.401E-05  0.109E+00  0.109E+00
  -9.180  0.223E+00  0.405E-05  0.112E+00  0.112E+00
  -9.170  0.239E+00  0.416E-05  0.120E+00  0.120E+00
  -9.160  0.264E+00  0.430E-05  0.132E+00  0.132E+00
  -9.150  0.293E+00  0.442E-05  0.147E+00  0.147E+00
  -9.140  0.322E+00  0.446E-05  0.161E+00  0.161E+00
  -9.130  0.346E+00  0.441E-05  0.173E+00  0.173E+00
  -9.120  0.360E+00  0.425E-05  0.180E+00  0.180E+00
  -9.110  0.362E+00  0.399E-05  0.181E+00  0.181E+00
  -9.100  0.352E+00  0.365E-05  0.176E+00  0.176E+00
  -9.090  0.330E+00  0.329E-05  0.165E+00  0.165E+00
  -9.080  0.301E+00  0.296E-05  0.151E+00  0.151E+00
  -9.070  0.269E+00  0.270E-05  0.135E+00  0.135E+00
  -9.060  0.241E+00  0.257E-05  0.120E+00  0.120E+00
  -9.050  0.220E+00  0.259E-05  0.110E+00  0.110E+00
  -9.040  0.210E+00  0.278E-05  0.105E+00  0.105E+00
  -9.030  0.214E+00  0.311E-05  0.107E+00  0.107E+00
  -9.020  0.230E+00  0.358E-05  0.115E+00  0.115E+00
  -9.010  0.258E+00  0.413E-05  0.129E+00  0.129E+00
  -9.000  0.292E+00  0.474E-05  0.146E+00  0.146E+00
  -8.990  0.330E+00  0.534E-05  0.165E+00  0.165E+00
  -8.980  0.365E+00  0.588E-05  0.182E+00  0.182E+00
  -8.970  0.392E+00  0.631E-05  0.196E+00  0.196E+00
  -8.960  0.406E+00  0.657E-05  0.203E+00  0.203E+00
  -8.950  0.406E+00  0.663E-05  0.203E+00  0.203E+00
  -8.940  0.389E+00  0.649E-05  0.194E+00  0.194E+00
  -8.930  0.357E+00  0.616E-05  0.179E+00  0.179E+00
  -8.920  0.315E+00  0.569E-05  0.158E+00  0.158E+00
  -8.910  0.268E+00  0.516E-05  0.134E+00  0.134E+00
  -8.900  0.223E+00  0.463E-05  0.112E+00  0.112E+00
  -8.890  0.187E+00  0.417E-05  0.936E-01  0.936E-01
  -8.880  0.165E+00  0.384E-05  0.823E-01  0.823E-01
  -8.870  0.159E+00  0.364E-05  0.794E-01  0.794E-01
  -8.860  0.170E+00  0.358E-05  0.851E-01  0.851E-01
  -8.850  0.198E+00  0.364E-05  0.988E-01  0.988E-01
  -8.840  0.238E+00  0.377E-05  0.119E+00  0.119E+00
  -8.830  0.287E+00  0.394E-05  0.143E+00  0.143E+00
  -8.820  0.339E+00  0.412E-05  0.169E+00  0.169E+00
  -8.810  0.388E+00  0.428E-05  0.194E+00  0.194E+00
  -8.800  0.428E+00  0.440E-05  0.214E+00  0.214E+00
  -8.790  0.453E+00  0.447E-05  0.227E+00  0.227E+00
  -8.780  0.460E+00  0.453E-05  0.230E+00  0.230E+00
  -8.770  0.447E+00  0.463E-05  0.224E+00  0.224E+00
  -8.760  0.415E+00  0.491E-05  0.207E+00  0.207E+00
  -8.750  0.367E+00  0.569E-05  0.184E+00  0.184E+00
  -8.740  0.311E+00  0.759E-05  0.155E+00  0.155E+00
  -8.730  0.253E+00  0.119E-04  0.127E+00  0.127E+00
  -8.720  0.203E+00  0.210E-04  0.101E+00  0.101E+00
  -8.710  0.166E+00  0.396E-04  0.830E-01  0.830E-01
  -8.700  0.147E+00  0.759E-04  0.734E-01  0.734E-01
  -8.690  0.147E+00  0.144E-03  0.735E-01  0.735E-01
  -8.680  0.166E+00  0.265E-03  0.827E-01  0.827E-01
  -8.670  0.199E+00  0.472E-03  0.993E-01  0.993E-01
  -8.660  0.243E+00  0.811E-03  0.121E+00  0.121E+00
  -8.650  0.292E+00  0.134E-02  0.145E+00  0.145E+00
  -8.640  0.340E+00  0.213E-02  0.169E+00  0.169E+00
  -8.630  0.383E+00  0.325E-02  0.190E+00  0.190E+00
  -8.620  0.416E+00  0.476E-02  0.205E+00  0.205E+00
  -8.610  0.436E+00  0.672E-02  0.214E+00  0.214E+00
  -8.600  0.441E+00  0.912E-02  0.216E+00  0.216E+00
  -8.590  0.432E+00  0.119E-01  0.210E+00  0.210E+00
  -8.580  0.412E+00  0.150E-01  0.198E+00  0.198E+00
  -8.570  0.382E+00  0.182E-01  0.182E+00  0.182E+00
  -8.560  0.348E+00  0.214E-01  0.163E+00  0.163E+00
  -8.550  0.314E+00  0.244E-01  0.145E+00  0.145E+00
  -8.540  0.284E+00  0.269E-01  0.129E+00  0.129E+00
  -8.530  0.263E+00  0.290E-01  0.117E+00  0.117E+00
  -8.520  0.251E+00  0.304E-01  0.110E+00  0.110E+00
  -8.510  0.251E+00  0.314E-01  0.110E+00  0.110E+00
  -8.500  0.260E+00  0.318E-01  0.114E+00  0.114E+00
  -8.490  0.278E+00  0.318E-01  0.123E+00  0.123E+00
  -8.480  0.301E+00  0.316E-01  0.135E+00  0.135E+00
  -8.470  0.327E+00  0.313E-01  0.148E+00  0.148E+00
  -8.460  0.352E+00  0.309E-01  0.161E+00  0.161E+00
  -8.450  0.372E+00  0.306E-01  0.171E+00  0.171E+00
  -8.440  0.386E+00  0.303E-01  0.178E+00  0.178E+00
  -8.430  0.391E+00  0.301E-01  0.180E+00  0.180E+00
  -8.420  0.388E+00  0.299E-01  0.179E+00  0.179E+00
  -8.410  0.377E+00  0.298E-01  0.174E+00  0.174E+00
  -8.400  0.362E+00  0.298E-01  0.166E+00  0.166E+00
  -8.390  0.345E+00  0.298E-01  0.158E+00  0.158E+00
  -8.380  0.329E+00  0.298E-01  0.150E+00  0.150E+00
  -8.370  0.317E+00  0.298E-01  0.144E+00  0.144E+00
  -8.360  0.311E+00  0.298E-01  0.141E+00  0.141E+00
  -8.350  0.311E+00  0.298E-01  0.140E+00  0.140E+00
  -8.340  0.317E+00  0.298E-01  0.143E+00  0.143E+00
  -8.330  0.328E+00  0.298E-01  0.149E+00  0.149E+00
  -8.320  0.344E+00  0.299E-01  0.157E+00  0.157E+00
  -8.310  0.361E+00  0.299E-01  0.166E+00  0.166E+00
  -8.300  0.377E+00  0.300E-01  0.174E+00  0.174E+00
  -8.290  0.390E+00  0.301E-01  0.180E+00  0.180E+00
  -8.280  0.397E+00  0.301E-01  0.183E+00  0.183E+00
  -8.270  0.396E+00  0.301E-01  0.183E+00  0.183E+00
  -8.260  0.387E+00  0.301E-01  0.178E+00  0.178E+00
  -8.250  0.370E+00  0.300E-01  0.170E+00  0.170E+00
  -8.240  0.349E+00  0.299E-01  0.160E+00  0.160E+00
  -8.230  0.326E+00  0.300E-01  0.148E+00  0.148E+00
  -8.220  0.305E+00  0.301E-01  0.137E+00  0.137E+00
  -8.210  0.289E+00  0.303E-01  0.129E+00  0.129E+00
  -8.200  0.279E+00  0.305E-01  0.124E+00  0.124E+00
  -8.190  0.279E+00  0.306E-01  0.124E+00  0.124E+00
  -8.180  0.286E+00  0.306E-01  0.128E+00  0.128E+00
  -8.170  0.301E+00  0.304E-01  0.135E+00  0.135E+00
  -8.160  0.322E+00  0.302E-01  0.146E+00  0.146E+00
  -8.150  0.346E+00  0.300E-01  0.158E+00  0.158E+00
  -8.140  0.372E+00  0.299E-01  0.171E+00  0.171E+00
  -8.130  0.395E+00  0.300E-01  0.183E+00  0.183E+00
  -8.120  0.415E+00  0.303E-01  0.193E+00  0.193E+00
  -8.110  0.429E+00  0.308E-01  0.199E+00  0.199E+00
  -8.100  0.435E+00  0.312E-01  0.202E+00  0.202E+00
  -8.090  0.432E+00  0.315E-01  0.200E+00  0.200E+00
  -8.080  0.420E+00  0.314E-01  0.194E+00  0.194E+00
  -8.070  0.400E+00  0.311E-01  0.184E+00  0.184E+00
  -8.060  0.374E+00  0.306E-01  0.172E+00  0.172E+00
  -8.050  0.346E+00  0.300E-01  0.158E+00  0.158E+00
  -8.040  0.319E+00  0.296E-01  0.145E+00  0.145E+00
  -8.030  0.297E+00  0.296E-01  0.134E+00  0.134E+00
  -8.020  0.283E+00  0.300E-01  0.126E+00  0.126E+00
  -8.010  0.277E+00  0.306E-01  0.123E+00  0.123E+00
  -8.000  0.282E+00  0.314E-01  0.125E+00  0.125E+00
  -7.990  0.295E+00  0.322E-01  0.132E+00  0.132E+00
  -7.980  0.315E+00  0.326E-01  0.141E+00  0.141E+00
  -7.970  0.340E+00  0.325E-01  0.154E+00  0.154E+00
  -7.960  0.367E+00  0.320E-01  0.167E+00  0.167E+00
  -7.950  0.393E+00  0.312E-01  0.181E+00  0.181E+00
  -7.940  0.415E+00  0.302E-01  0.192E+00  0.192E+00
  -7.930  0.432E+00  0.295E-01  0.201E+00  0.201E+00
  -7.920  0.442E+00  0.291E-01  0.207E+00  0.207E+00
  -7.910  0.444E+00  0.293E-01  0.208E+00  0.208E+00
  -7.900  0.437E+00  0.300E-01  0.204E+00  0.204E+00
  -7.890  0.422E+00  0.311E-01  0.195E+00  0.195E+00
  -7.880  0.398E+00  0.323E-01  0.183E+00  0.183E+00
  -7.870  0.368E+00  0.334E-01  0.167E+00  0.167E+00
  -7.860  0.336E+00  0.339E-01  0.151E+00  0.151E+00
  -7.850  0.305E+00  0.339E-01  0.136E+00  0.136E+00
  -7.840  0.281E+00  0.332E-01  0.124E+00  0.124E+00
  -7.830  0.267E+00  0.321E-01  0.118E+00  0.118E+00
  -7.820  0.266E+00  0.308E-01  0.118E+00  0.118E+00
  -7.810  0.279E+00  0.296E-01  0.125E+00  0.125E+00
  -7.800  0.304E+00  0.288E-01  0.138E+00  0.138E+00
  -7.790  0.339E+00  0.286E-01  0.155E+00  0.155E+00
  -7.780  0.379E+00  0.291E-01  0.175E+00  0.175E+00
  -7.770  0.418E+00  0.302E-01  0.194E+00  0.194E+00
  -7.760  0.453E+00  0.317E-01  0.210E+00  0.210E+00
  -7.750  0.478E+00  0.333E-01  0.222E+00  0.222E+00
  -7.740  0.491E+00  0.347E-01  0.228E+00  0.228E+00
  -7.730  0.491E+00  0.354E-01  0.228E+00  0.228E+00
  -7.720  0.478E+00  0.355E-01  0.221E+00  0.221E+00
  -7.710  0.455E+00  0.348E-01  0.210E+00  0.210E+00
  -7.700  0.424E+00  0.335E-01  0.195E+00  0.195E+00
  -7.690  0.391E+00  0.318E-01  0.179E+00  0.179E+00
  -7.680  0.357E+00  0.301E-01  0.164E+00  0.164E+00
  -7.670  0.327E+00  0.288E-01  0.149E+00  0.149E+00
  -7.660  0.302E+00  0.281E-01  0.137E+00  0.137E+00
  -7.650  0.284E+00  0.282E-01  0.128E+00  0.128E+00
  -7.640  0.274E+00  0.291E-01  0.122E+00  0.122E+00
  -7.630  0.271E+00  0.306E-01  0.120E+00  0.120E+00
  -7.620  0.277E+00  0.325E-01  0.122E+00  0.122E+00
  -7.610  0.291E+00  0.344E-01  0.128E+00  0.128E+00
  -7.600  0.315E+00  0.360E-01  0.139E+00  0.139E+00
  -7.590  0.346E+00  0.369E-01  0.155E+00  0.155E+00
  -7.580  0.384E+00  0.371E-01  0.174E+00  0.174E+00
  -7.570  0.425E+00  0.365E-01  0.194E+00  0.194E+00
  -7.560  0.465E+00  0.352E-01  0.215E+00  0.215E+00
  -7.550  0.498E+00  0.334E-01  0.232E+00  0.232E+00
  -7.540  0.520E+00  0.314E-01  0.244E+00  0.244E+00
  -7.530  0.528E+00  0.295E-01  0.249E+00  0.249E+00
  -7.520  0.522E+00  0.282E-01  0.247E+00  0.247E+00
  -7.510  0.501E+00  0.276E-01  0.237E+00  0.237E+00
  -7.500  0.469E+00  0.280E-01  0.220E+00  0.220E+00
  -7.490  0.430E+00  0.292E-01  0.201E+00  0.201E+00
  -7.480  0.390E+00  0.311E-01  0.180E+00  0.180E+00
  -7.470  0.354E+00  0.334E-01  0.160E+00  0.160E+00
  -7.460  0.326E+00  0.357E-01  0.145E+00  0.145E+00
  -7.450  0.308E+00  0.376E-01  0.135E+00  0.135E+00
  -7.440  0.301E+00  0.387E-01  0.131E+00  0.131E+00
  -7.430  0.305E+00  0.390E-01  0.133E+00  0.133E+00
  -7.420  0.316E+00  0.385E-01  0.139E+00  0.139E+00
  -7.410  0.334E+00  0.372E-01  0.148E+00  0.148E+00
  -7.400  0.355E+00  0.355E-01  0.160E+00  0.160E+00
  -7.390  0.377E+00  0.339E-01  0.171E+00  0.171E+00
  -7.380  0.398E+00  0.326E-01  0.183E+00  0.183E+00
  -7.370  0.419E+00  0.322E-01  0.193E+00  0.193E+00
  -7.360  0.437E+00  0.331E-01  0.202E+00  0.202E+00
  -7.350  0.455E+00  0.357E-01  0.209E+00  0.209E+00
  -7.340  0.470E+00  0.406E-01  0.215E+00  0.215E+00
  -7.330  0.484E+00  0.478E-01  0.218E+00  0.218E+00
  -7.320  0.496E+00  0.575E-01  0.219E+00  0.219E+00
  -7.310  0.506E+00  0.695E-01  0.218E+00  0.218E+00
  -7.300  0.514E+00  0.833E-01  0.216E+00  0.216E+00
  -7.290  0.521E+00  0.983E-01  0.211E+00  0.211E+00
  -7.280  0.525E+00  0.113E+00  0.206E+00  0.206E+00
  -7.270  0.528E+00  0.128E+00  0.200E+00  0.200E+00
  -7.260  0.529E+00  0.140E+00  0.195E+00  0.195E+00
  -7.250  0.529E+00  0.150E+00  0.190E+00  0.190E+00
  -7.240  0.529E+00  0.158E+00  0.186E+00  0.186E+00
  -7.230  0.530E+00  0.162E+00  0.184E+00  0.184E+00
  -7.220  0.532E+00  0.165E+00  0.183E+00  0.183E+00
  -7.210  0.536E+00  0.166E+00  0.185E+00  0.185E+00
  -7.200  0.544E+00  0.166E+00  0.189E+00  0.189E+00
  -7.190  0.554E+00  0.165E+00  0.194E+00  0.194E+00
  -7.180  0.565E+00  0.165E+00  0.200E+00  0.200E+00
  -7.170  0.578E+00  0.165E+00  0.206E+00  0.206E+00
  -7.160  0.589E+00  0.166E+00  0.212E+00  0.212E+00
  -7.150  0.598E+00  0.167E+00  0.216E+00  0.216E+00
  -7.140  0.603E+00  0.168E+00  0.218E+00  0.218E+00
  -7.130  0.605E+00  0.169E+00  0.218E+00  0.218E+00
  -7.120  0.602E+00  0.169E+00  0.216E+00  0.216E+00
  -7.110  0.594E+00  0.168E+00  0.213E+00  0.213E+00
  -7.100  0.582E+00  0.166E+00  0.208E+00  0.208E+00
  -7.090  0.567E+00  0.163E+00  0.202E+00  0.202E+00
  -7.080  0.549E+00  0.158E+00  0.196E+00  0.196E+00
  -7.070  0.530E+00  0.153E+00  0.189E+00  0.189E+00
  -7.060  0.510E+00  0.147E+00  0.181E+00  0.181E+00
  -7.050  0.490E+00  0.142E+00  0.174E+00  0.174E+00
  -7.040  0.473E+00  0.137E+00  0.168E+00  0.168E+00
  -7.030  0.458E+00  0.134E+00  0.162E+00  0.162E+00
  -7.020  0.449E+00  0.132E+00  0.159E+00  0.159E+00
  -7.010  0.446E+00  0.131E+00  0.157E+00  0.157E+00
  -7.000  0.450E+00  0.131E+00  0.160E+00  0.160E+00
  -6.990  0.465E+00  0.133E+00  0.166E+00  0.166E+00
  -6.980  0.488E+00  0.136E+00  0.176E+00  0.176E+00
  -6.970  0.519E+00  0.139E+00  0.190E+00  0.190E+00
  -6.960  0.554E+00  0.144E+00  0.205E+00  0.205E+00
  -6.950  0.590E+00  0.149E+00  0.221E+00  0.221E+00
  -6.940  0.622E+00  0.154E+00  0.234E+00  0.234E+00
  -6.930  0.644E+00  0.160E+00  0.242E+00  0.242E+00
  -6.920  0.655E+00  0.165E+00  0.245E+00  0.245E+00
  -6.910  0.653E+00  0.169E+00  0.242E+00  0.242E+00
  -6.900  0.640E+00  0.172E+00  0.234E+00  0.234E+00
  -6.890  0.620E+00  0.174E+00  0.223E+00  0.223E+00
  -6.880  0.599E+00  0.176E+00  0.211E+00  0.211E+00
  -6.870  0.581E+00  0.178E+00  0.201E+00  0.201E+00
  -6.860  0.571E+00  0.179E+00  0.196E+00  0.196E+00
  -6.850  0.571E+00  0.180E+00  0.196E+00  0.196E+00
  -6.840  0.583E+00  0.180E+00  0.202E+00  0.202E+00
  -6.830  0.604E+00  0.178E+00  0.213E+00  0.213E+00
  -6.820  0.631E+00  0.175E+00  0.228E+00  0.228E+00
  -6.810  0.660E+00  0.171E+00  0.244E+00  0.244E+00
  -6.800  0.687E+00  0.166E+00  0.260E+00  0.260E+00
  -6.790  0.708E+00  0.163E+00  0.273E+00  0.273E+00
  -6.780  0.721E+00  0.160E+00  0.280E+00  0.280E+00
  -6.770  0.725E+00  0.161E+00  0.282E+00  0.282E+00
  -6.760  0.720E+00  0.163E+00  0.278E+00  0.278E+00
  -6.750  0.709E+00  0.168E+00  0.270E+00  0.270E+00
  -6.740  0.693E+00  0.173E+00  0.260E+00  0.260E+00
  -6.730  0.678E+00  0.177E+00  0.250E+00  0.250E+00
  -6.720  0.665E+00  0.180E+00  0.242E+00  0.242E+00
  -6.710  0.658E+00  0.181E+00  0.238E+00  0.238E+00
  -6.700  0.657E+00  0.180E+00  0.239E+00  0.239E+00
  -6.690  0.662E+00  0.176E+00  0.243E+00  0.243E+00
  -6.680  0.671E+00  0.172E+00  0.249E+00  0.249E+00
  -6.670  0.683E+00  0.169E+00  0.257E+00  0.257E+00
  -6.660  0.694E+00  0.167E+00  0.264E+00  0.264E+00
  -6.650  0.704E+00  0.167E+00  0.269E+00  0.269E+00
  -6.640  0.711E+00  0.167E+00  0.272E+00  0.272E+00
  -6.630  0.715E+00  0.169E+00  0.273E+00  0.273E+00
  -6.620  0.717E+00  0.170E+00  0.273E+00  0.273E+00
  -6.610  0.719E+00  0.170E+00  0.274E+00  0.274E+00
  -6.600  0.722E+00  0.169E+00  0.277E+00  0.277E+00
  -6.590  0.726E+00  0.166E+00  0.280E+00  0.280E+00
  -6.580  0.732E+00  0.163E+00  0.285E+00  0.285E+00
  -6.570  0.740E+00  0.160E+00  0.290E+00  0.290E+00
  -6.560  0.747E+00  0.160E+00  0.294E+00  0.294E+00
  -6.550  0.754E+00  0.162E+00  0.296E+00  0.296E+00
  -6.540  0.761E+00  0.167E+00  0.297E+00  0.297E+00
  -6.530  0.768E+00  0.174E+00  0.297E+00  0.297E+00
  -6.520  0.777E+00  0.182E+00  0.298E+00  0.298E+00
  -6.510  0.790E+00  0.189E+00  0.300E+00  0.300E+00
  -6.500  0.808E+00  0.194E+00  0.307E+00  0.307E+00
  -6.490  0.832E+00  0.196E+00  0.318E+00  0.318E+00
  -6.480  0.861E+00  0.193E+00  0.334E+00  0.334E+00
  -6.470  0.893E+00  0.188E+00  0.353E+00  0.353E+00
  -6.460  0.926E+00  0.180E+00  0.373E+00  0.373E+00
  -6.450  0.956E+00  0.171E+00  0.392E+00  0.392E+00
  -6.440  0.982E+00  0.163E+00  0.409E+00  0.409E+00
  -6.430  0.100E+01  0.159E+00  0.421E+00  0.421E+00
  -6.420  0.101E+01  0.158E+00  0.428E+00  0.428E+00
  -6.410  0.102E+01  0.160E+00  0.429E+00  0.429E+00
  -6.400  0.102E+01  0.166E+00  0.425E+00  0.425E+00
  -6.390  0.101E+01  0.174E+00  0.417E+00  0.417E+00
  -6.380  0.991E+00  0.182E+00  0.404E+00  0.404E+00
  -6.370  0.968E+00  0.190E+00  0.389E+00  0.389E+00
  -6.360  0.940E+00  0.195E+00  0.372E+00  0.372E+00
  -6.350  0.907E+00  0.198E+00  0.354E+00  0.354E+00
  -6.340  0.870E+00  0.199E+00  0.336E+00  0.336E+00
  -6.330  0.833E+00  0.197E+00  0.318E+00  0.318E+00
  -6.320  0.797E+00  0.193E+00  0.302E+00  0.302E+00
  -6.310  0.764E+00  0.188E+00  0.288E+00  0.288E+00
  -6.300  0.736E+00  0.182E+00  0.277E+00  0.277E+00
  -6.290  0.711E+00  0.176E+00  0.267E+00  0.267E+00
  -6.280  0.690E+00  0.170E+00  0.260E+00  0.260E+00
  -6.270  0.672E+00  0.164E+00  0.254E+00  0.254E+00
  -6.260  0.656E+00  0.158E+00  0.249E+00  0.249E+00
  -6.250  0.642E+00  0.152E+00  0.245E+00  0.245E+00
  -6.240  0.630E+00  0.147E+00  0.242E+00  0.242E+00
  -6.230  0.620E+00  0.141E+00  0.239E+00  0.239E+00
  -6.220  0.615E+00  0.137E+00  0.239E+00  0.239E+00
  -6.210  0.615E+00  0.135E+00  0.240E+00  0.240E+00
  -6.200  0.620E+00  0.135E+00  0.243E+00  0.243E+00
  -6.190  0.629E+00  0.137E+00  0.246E+00  0.246E+00
  -6.180  0.642E+00  0.141E+00  0.251E+00  0.251E+00
  -6.170  0.658E+00  0.147E+00  0.256E+00  0.256E+00
  -6.160  0.674E+00  0.153E+00  0.260E+00  0.260E+00
  -6.150  0.689E+00  0.161E+00  0.264E+00  0.264E+00
  -6.140  0.702E+00  0.169E+00  0.266E+00  0.266E+00
  -6.130  0.712E+00  0.177E+00  0.268E+00  0.268E+00
  -6.120  0.720E+00  0.185E+00  0.268E+00  0.268E+00
  -6.110  0.723E+00  0.193E+00  0.265E+00  0.265E+00
  -6.100  0.722E+00  0.201E+00  0.261E+00  0.261E+00
  -6.090  0.716E+00  0.208E+00  0.254E+00  0.254E+00
  -6.080  0.704E+00  0.214E+00  0.245E+00  0.245E+00
  -6.070  0.688E+00  0.217E+00  0.235E+00  0.235E+00
  -6.060  0.667E+00  0.217E+00  0.225E+00  0.225E+00
  -6.050  0.644E+00  0.213E+00  0.216E+00  0.216E+00
  -6.040  0.621E+00  0.205E+00  0.208E+00  0.208E+00
  -6.030  0.598E+00  0.195E+00  0.202E+00  0.202E+00
  -6.020  0.579E+00  0.184E+00  0.198E+00  0.198E+00
  -6.010  0.564E+00  0.172E+00  0.196E+00  0.196E+00
  -6.000  0.555E+00  0.163E+00  0.196E+00  0.196E+00
  -5.990  0.553E+00  0.156E+00  0.198E+00  0.198E+00
  -5.980  0.557E+00  0.153E+00  0.202E+00  0.202E+00
  -5.970  0.567E+00  0.154E+00  0.207E+00  0.207E+00
  -5.960  0.583E+00  0.158E+00  0.213E+00  0.213E+00
  -5.950  0.602E+00  0.164E+00  0.219E+00  0.219E+00
  -5.940  0.623E+00  0.173E+00  0.225E+00  0.225E+00
  -5.930  0.643E+00  0.183E+00  0.230E+00  0.230E+00
  -5.920  0.660E+00  0.193E+00  0.233E+00  0.233E+00
  -5.910  0.671E+00  0.202E+00  0.234E+00  0.234E+00
  -5.900  0.674E+00  0.208E+00  0.233E+00  0.233E+00
  -5.890  0.669E+00  0.210E+00  0.229E+00  0.229E+00
  -5.880  0.656E+00  0.209E+00  0.223E+00  0.223E+00
  -5.870  0.637E+00  0.205E+00  0.216E+00  0.216E+00
  -5.860  0.614E+00  0.198E+00  0.208E+00  0.208E+00
  -5.850  0.592E+00  0.189E+00  0.201E+00  0.201E+00
  -5.840  0.572E+00  0.181E+00  0.195E+00  0.195E+00
  -5.830  0.557E+00  0.175E+00  0.191E+00  0.191E+00
  -5.820  0.549E+00  0.171E+00  0.189E+00  0.189E+00
  -5.810  0.547E+00  0.171E+00  0.188E+00  0.188E+00
  -5.800  0.551E+00  0.174E+00  0.188E+00  0.188E+00
  -5.790  0.558E+00  0.180E+00  0.189E+00  0.189E+00
  -5.780  0.568E+00  0.187E+00  0.190E+00  0.190E+00
  -5.770  0.578E+00  0.195E+00  0.191E+00  0.191E+00
  -5.760  0.586E+00  0.202E+00  0.192E+00  0.192E+00
  -5.750  0.593E+00  0.207E+00  0.193E+00  0.193E+00
  -5.740  0.597E+00  0.209E+00  0.194E+00  0.194E+00
  -5.730  0.598E+00  0.208E+00  0.195E+00  0.195E+00
  -5.720  0.595E+00  0.203E+00  0.196E+00  0.196E+00
  -5.710  0.588E+00  0.196E+00  0.196E+00  0.196E+00
  -5.700  0.576E+00  0.187E+00  0.195E+00  0.195E+00
  -5.690  0.560E+00  0.178E+00  0.191E+00  0.191E+00
  -5.680  0.541E+00  0.169E+00  0.186E+00  0.186E+00
  -5.670  0.520E+00  0.162E+00  0.179E+00  0.179E+00
  -5.660  0.501E+00  0.159E+00  0.171E+00  0.171E+00
  -5.650  0.487E+00  0.161E+00  0.163E+00  0.163E+00
  -5.640  0.482E+00  0.167E+00  0.158E+00  0.158E+00
  -5.630  0.489E+00  0.177E+00  0.156E+00  0.156E+00
  -5.620  0.509E+00  0.190E+00  0.160E+00  0.160E+00
  -5.610  0.542E+00  0.205E+00  0.168E+00  0.168E+00
  -5.600  0.582E+00  0.218E+00  0.182E+00  0.182E+00
  -5.590  0.624E+00  0.229E+00  0.198E+00  0.198E+00
  -5.580  0.662E+00  0.235E+00  0.213E+00  0.213E+00
  -5.570  0.688E+00  0.236E+00  0.226E+00  0.226E+00
  -5.560  0.697E+00  0.232E+00  0.232E+00  0.232E+00
  -5.550  0.686E+00  0.225E+00  0.231E+00  0.231E+00
  -5.540  0.657E+00  0.214E+00  0.221E+00  0.221E+00
  -5.530  0.612E+00  0.202E+00  0.205E+00  0.205E+00
  -5.520  0.558E+00  0.190E+00  0.184E+00  0.184E+00
  -5.510  0.503E+00  0.179E+00  0.162E+00  0.162E+00
  -5.500  0.454E+00  0.170E+00  0.142E+00  0.142E+00
  -5.490  0.418E+00  0.163E+00  0.127E+00  0.127E+00
  -5.480  0.398E+00  0.159E+00  0.119E+00  0.119E+00
  -5.470  0.395E+00  0.158E+00  0.119E+00  0.119E+00
  -5.460  0.407E+00  0.159E+00  0.124E+00  0.124E+00
  -5.450  0.433E+00  0.164E+00  0.134E+00  0.134E+00
  -5.440  0.467E+00  0.173E+00  0.147E+00  0.147E+00
  -5.430  0.505E+00  0.184E+00  0.160E+00  0.160E+00
  -5.420  0.542E+00  0.198E+00  0.172E+00  0.172E+00
  -5.410  0.575E+00  0.214E+00  0.181E+00  0.181E+00
  -5.400  0.602E+00  0.228E+00  0.187E+00  0.187E+00
  -5.390  0.619E+00  0.240E+00  0.190E+00  0.190E+00
  -5.380  0.628E+00  0.249E+00  0.190E+00  0.190E+00
  -5.370  0.628E+00  0.251E+00  0.188E+00  0.188E+00
  -5.360  0.620E+00  0.249E+00  0.186E+00  0.186E+00
  -5.350  0.607E+00  0.241E+00  0.183E+00  0.183E+00
  -5.340  0.590E+00  0.229E+00  0.180E+00  0.180E+00
  -5.330  0.572E+00  0.215E+00  0.178E+00  0.178E+00
  -5.320  0.554E+00  0.201E+00  0.176E+00  0.176E+00
  -5.310  0.537E+00  0.188E+00  0.174E+00  0.174E+00
  -5.300  0.523E+00  0.178E+00  0.172E+00  0.172E+00
  -5.290  0.510E+00  0.171E+00  0.170E+00  0.170E+00
  -5.280  0.498E+00  0.167E+00  0.165E+00  0.165E+00
  -5.270  0.486E+00  0.167E+00  0.160E+00  0.160E+00
  -5.260  0.475E+00  0.170E+00  0.152E+00  0.152E+00
  -5.250  0.465E+00  0.177E+00  0.144E+00  0.144E+00
  -5.240  0.458E+00  0.186E+00  0.136E+00  0.136E+00
  -5.230  0.456E+00  0.197E+00  0.130E+00  0.130E+00
  -5.220  0.460E+00  0.209E+00  0.126E+00  0.126E+00
  -5.210  0.472E+00  0.220E+00  0.126E+00  0.126E+00
  -5.200  0.490E+00  0.231E+00  0.129E+00  0.129E+00
  -5.190  0.512E+00  0.239E+00  0.137E+00  0.137E+00
  -5.180  0.536E+00  0.243E+00  0.147E+00  0.147E+00
  -5.170  0.559E+00  0.243E+00  0.158E+00  0.158E+00
  -5.160  0.577E+00  0.239E+00  0.169E+00  0.169E+00
  -5.150  0.587E+00  0.231E+00  0.178E+00  0.178E+00
  -5.140  0.588E+00  0.222E+00  0.183E+00  0.183E+00
  -5.130  0.579E+00  0.211E+00  0.184E+00  0.184E+00
  -5.120  0.562E+00  0.202E+00  0.180E+00  0.180E+00
  -5.110  0.539E+00  0.194E+00  0.173E+00  0.173E+00
  -5.100  0.515E+00  0.190E+00  0.163E+00  0.163E+00
  -5.090  0.492E+00  0.189E+00  0.152E+00  0.152E+00
  -5.080  0.475E+00  0.192E+00  0.141E+00  0.141E+00
  -5.070  0.465E+00  0.198E+00  0.134E+00  0.134E+00
  -5.060  0.464E+00  0.205E+00  0.129E+00  0.129E+00
  -5.050  0.472E+00  0.214E+00  0.129E+00  0.129E+00
  -5.040  0.487E+00  0.223E+00  0.132E+00  0.132E+00
  -5.030  0.507E+00  0.230E+00  0.138E+00  0.138E+00
  -5.020  0.530E+00  0.236E+00  0.147E+00  0.147E+00
  -5.010  0.552E+00  0.240E+00  0.156E+00  0.156E+00
  -5.000  0.571E+00  0.241E+00  0.165E+00  0.165E+00
  -4.990  0.582E+00  0.240E+00  0.171E+00  0.171E+00
  -4.980  0.584E+00  0.236E+00  0.174E+00  0.174E+00
  -4.970  0.575E+00  0.231E+00  0.172E+00  0.172E+00
  -4.960  0.554E+00  0.224E+00  0.165E+00  0.165E+00
  -4.950  0.524E+00  0.216E+00  0.154E+00  0.154E+00
  -4.940  0.487E+00  0.208E+00  0.140E+00  0.140E+00
  -4.930  0.449E+00  0.200E+00  0.124E+00  0.124E+00
  -4.920  0.415E+00  0.194E+00  0.111E+00  0.111E+00
  -4.910  0.391E+00  0.190E+00  0.100E+00  0.100E+00
  -4.900  0.380E+00  0.189E+00  0.955E-01  0.955E-01
  -4.890  0.386E+00  0.191E+00  0.971E-01  0.971E-01
  -4.880  0.408E+00  0.197E+00  0.106E+00  0.106E+00
  -4.870  0.446E+00  0.206E+00  0.120E+00  0.120E+00
  -4.860  0.495E+00  0.218E+00  0.139E+00  0.139E+00
  -4.850  0.549E+00  0.231E+00  0.159E+00  0.159E+00
  -4.840  0.601E+00  0.245E+00  0.178E+00  0.178E+00
  -4.830  0.643E+00  0.258E+00  0.193E+00  0.193E+00
  -4.820  0.670E+00  0.268E+00  0.201E+00  0.201E+00
  -4.810  0.678E+00  0.274E+00  0.202E+00  0.202E+00
  -4.800  0.664E+00  0.277E+00  0.194E+00  0.194E+00
  -4.790  0.632E+00  0.275E+00  0.178E+00  0.178E+00
  -4.780  0.585E+00  0.269E+00  0.158E+00  0.158E+00
  -4.770  0.529E+00  0.260E+00  0.135E+00  0.135E+00
  -4.760  0.473E+00  0.249E+00  0.112E+00  0.112E+00
  -4.750  0.423E+00  0.236E+00  0.935E-01  0.935E-01
  -4.740  0.385E+00  0.223E+00  0.809E-01  0.809E-01
  -4.730  0.363E+00  0.211E+00  0.760E-01  0.760E-01
  -4.720  0.357E+00  0.199E+00  0.790E-01  0.790E-01
  -4.710  0.368E+00  0.190E+00  0.892E-01  0.892E-01
  -4.700  0.393E+00  0.183E+00  0.105E+00  0.105E+00
  -4.690  0.427E+00  0.179E+00  0.124E+00  0.124E+00
  -4.680  0.466E+00  0.178E+00  0.144E+00  0.144E+00
  -4.670  0.504E+00  0.182E+00  0.161E+00  0.161E+00
  -4.660  0.538E+00  0.191E+00  0.173E+00  0.173E+00
  -4.650  0.563E+00  0.205E+00  0.179E+00  0.179E+00
  -4.640  0.579E+00  0.223E+00  0.178E+00  0.178E+00
  -4.630  0.585E+00  0.246E+00  0.170E+00  0.170E+00
  -4.620  0.584E+00  0.269E+00  0.157E+00  0.157E+00
  -4.610  0.575E+00  0.291E+00  0.142E+00  0.142E+00
  -4.600  0.563E+00  0.308E+00  0.127E+00  0.127E+00
  -4.590  0.548E+00  0.318E+00  0.115E+00  0.115E+00
  -4.580  0.534E+00  0.320E+00  0.107E+00  0.107E+00
  -4.570  0.521E+00  0.313E+00  0.104E+00  0.104E+00
  -4.560  0.511E+00  0.299E+00  0.106E+00  0.106E+00
  -4.550  0.505E+00  0.280E+00  0.112E+00  0.112E+00
  -4.540  0.504E+00  0.260E+00  0.122E+00  0.122E+00
  -4.530  0.506E+00  0.242E+00  0.132E+00  0.132E+00
  -4.520  0.509E+00  0.226E+00  0.141E+00  0.141E+00
  -4.510  0.511E+00  0.215E+00  0.148E+00  0.148E+00
  -4.500  0.508E+00  0.208E+00  0.150E+00  0.150E+00
  -4.490  0.499E+00  0.204E+00  0.147E+00  0.147E+00
  -4.480  0.483E+00  0.203E+00  0.140E+00  0.140E+00
  -4.470  0.461E+00  0.203E+00  0.129E+00  0.129E+00
  -4.460  0.438E+00  0.204E+00  0.117E+00  0.117E+00
  -4.450  0.419E+00  0.207E+00  0.106E+00  0.106E+00
  -4.440  0.409E+00  0.212E+00  0.984E-01  0.984E-01
  -4.430  0.412E+00  0.220E+00  0.959E-01  0.959E-01
  -4.420  0.431E+00  0.232E+00  0.994E-01  0.994E-01
  -4.410  0.463E+00  0.247E+00  0.108E+00  0.108E+00
  -4.400  0.506E+00  0.264E+00  0.121E+00  0.121E+00
  -4.390  0.553E+00  0.282E+00  0.135E+00  0.135E+00
  -4.380  0.596E+00  0.299E+00  0.149E+00  0.149E+00
  -4.370  0.628E+00  0.311E+00  0.158E+00  0.158E+00
  -4.360  0.645E+00  0.319E+00  0.163E+00  0.163E+00
  -4.350  0.642E+00  0.321E+00  0.161E+00  0.161E+00
  -4.340  0.622E+00  0.316E+00  0.153E+00  0.153E+00
  -4.330  0.587E+00  0.307E+00  0.140E+00  0.140E+00
  -4.320  0.543E+00  0.294E+00  0.124E+00  0.124E+00
  -4.310  0.497E+00  0.280E+00  0.109E+00  0.109E+00
  -4.300  0.457E+00  0.265E+00  0.960E-01  0.960E-01
  -4.290  0.428E+00  0.252E+00  0.879E-01  0.879E-01
  -4.280  0.412E+00  0.241E+00  0.857E-01  0.857E-01
  -4.270  0.411E+00  0.232E+00  0.894E-01  0.894E-01
  -4.260  0.423E+00  0.228E+00  0.979E-01  0.979E-01
  -4.250  0.445E+00  0.227E+00  0.109E+00  0.109E+00
  -4.240  0.472E+00  0.229E+00  0.121E+00  0.121E+00
  -4.230  0.500E+00  0.236E+00  0.132E+00  0.132E+00
  -4.220  0.525E+00  0.245E+00  0.140E+00  0.140E+00
  -4.210  0.544E+00  0.257E+00  0.144E+00  0.144E+00
  -4.200  0.557E+00  0.270E+00  0.144E+00  0.144E+00
  -4.190  0.562E+00  0.283E+00  0.140E+00  0.140E+00
  -4.180  0.562E+00  0.294E+00  0.134E+00  0.134E+00
  -4.170  0.556E+00  0.304E+00  0.126E+00  0.126E+00
  -4.160  0.548E+00  0.310E+00  0.119E+00  0.119E+00
  -4.150  0.538E+00  0.312E+00  0.113E+00  0.113E+00
  -4.140  0.529E+00  0.310E+00  0.109E+00  0.109E+00
  -4.130  0.520E+00  0.304E+00  0.108E+00  0.108E+00
  -4.120  0.512E+00  0.297E+00  0.108E+00  0.108E+00
  -4.110  0.506E+00  0.288E+00  0.109E+00  0.109E+00
  -4.100  0.502E+00  0.280E+00  0.111E+00  0.111E+00
  -4.090  0.500E+00  0.275E+00  0.113E+00  0.113E+00
  -4.080  0.499E+00  0.272E+00  0.114E+00  0.114E+00
  -4.070  0.500E+00  0.272E+00  0.114E+00  0.114E+00
  -4.060  0.503E+00  0.274E+00  0.114E+00  0.114E+00
  -4.050  0.506E+00  0.278E+00  0.114E+00  0.114E+00
  -4.040  0.511E+00  0.283E+00  0.114E+00  0.114E+00
  -4.030  0.518E+00  0.287E+00  0.115E+00  0.115E+00
  -4.020  0.526E+00  0.292E+00  0.117E+00  0.117E+00
  -4.010  0.535E+00  0.296E+00  0.120E+00  0.120E+00
  -4.000  0.545E+00  0.301E+00  0.122E+00  0.122E+00
  -3.990  0.554E+00  0.307E+00  0.123E+00  0.123E+00
  -3.980  0.561E+00  0.315E+00  0.123E+00  0.123E+00
  -3.970  0.566E+00  0.324E+00  0.121E+00  0.121E+00
  -3.960  0.568E+00  0.332E+00  0.118E+00  0.118E+00
  -3.950  0.565E+00  0.340E+00  0.113E+00  0.113E+00
  -3.940  0.560E+00  0.344E+00  0.108E+00  0.108E+00
  -3.930  0.551E+00  0.344E+00  0.104E+00  0.104E+00
  -3.920  0.541E+00  0.338E+00  0.101E+00  0.101E+00
  -3.910  0.530E+00  0.328E+00  0.101E+00  0.101E+00
  -3.900  0.521E+00  0.313E+00  0.104E+00  0.104E+00
  -3.890  0.512E+00  0.297E+00  0.108E+00  0.108E+00
  -3.880  0.505E+00  0.281E+00  0.112E+00  0.112E+00
  -3.870  0.501E+00  0.267E+00  0.117E+00  0.117E+00
  -3.860  0.498E+00  0.259E+00  0.119E+00  0.119E+00
  -3.850  0.497E+00  0.257E+00  0.120E+00  0.120E+00
  -3.840  0.499E+00  0.262E+00  0.119E+00  0.119E+00
  -3.830  0.503E+00  0.273E+00  0.115E+00  0.115E+00
  -3.820  0.512E+00  0.289E+00  0.111E+00  0.111E+00
  -3.810  0.524E+00  0.308E+00  0.108E+00  0.108E+00
  -3.800  0.540E+00  0.330E+00  0.105E+00  0.105E+00
  -3.790  0.559E+00  0.351E+00  0.104E+00  0.104E+00
  -3.780  0.579E+00  0.371E+00  0.104E+00  0.104E+00
  -3.770  0.598E+00  0.388E+00  0.105E+00  0.105E+00
  -3.760  0.615E+00  0.401E+00  0.107E+00  0.107E+00
  -3.750  0.628E+00  0.410E+00  0.109E+00  0.109E+00
  -3.740  0.636E+00  0.415E+00  0.110E+00  0.110E+00
  -3.730  0.637E+00  0.416E+00  0.111E+00  0.111E+00
  -3.720  0.633E+00  0.412E+00  0.110E+00  0.110E+00
  -3.710  0.623E+00  0.403E+00  0.110E+00  0.110E+00
  -3.700  0.608E+00  0.391E+00  0.108E+00  0.108E+00
  -3.690  0.589E+00  0.375E+00  0.107E+00  0.107E+00
  -3.680  0.568E+00  0.356E+00  0.106E+00  0.106E+00
  -3.670  0.546E+00  0.337E+00  0.104E+00  0.104E+00
  -3.660  0.524E+00  0.318E+00  0.103E+00  0.103E+00
  -3.650  0.505E+00  0.302E+00  0.102E+00  0.102E+00
  -3.640  0.488E+00  0.289E+00  0.995E-01  0.995E-01
  -3.630  0.475E+00  0.282E+00  0.965E-01  0.965E-01
  -3.620  0.464E+00  0.281E+00  0.920E-01  0.920E-01
  -3.610  0.457E+00  0.285E+00  0.858E-01  0.858E-01
  -3.600  0.452E+00  0.297E+00  0.779E-01  0.779E-01
  -3.590  0.450E+00  0.314E+00  0.684E-01  0.684E-01
  -3.580  0.451E+00  0.336E+00  0.576E-01  0.576E-01
  -3.570  0.455E+00  0.363E+00  0.460E-01  0.460E-01
  -3.560  0.463E+00  0.394E+00  0.343E-01  0.343E-01
  -3.550  0.473E+00  0.427E+00  0.231E-01  0.231E-01
  -3.540  0.486E+00  0.460E+00  0.132E-01  0.132E-01
  -3.530  0.499E+00  0.489E+00  0.491E-02  0.491E-02
  -3.520  0.509E+00  0.512E+00 -0.134E-02 -0.134E-02
  -3.510  0.515E+00  0.526E+00 -0.554E-02 -0.554E-02
  -3.500  0.514E+00  0.529E+00 -0.785E-02 -0.785E-02
  -3.490  0.505E+00  0.523E+00 -0.860E-02 -0.860E-02
  -3.480  0.490E+00  0.507E+00 -0.821E-02 -0.821E-02
  -3.470  0.470E+00  0.484E+00 -0.713E-02 -0.713E-02
  -3.460  0.446E+00  0.458E+00 -0.574E-02 -0.574E-02
  -3.450  0.423E+00  0.431E+00 -0.431E-02 -0.431E-02
  -3.440  0.401E+00  0.407E+00 -0.305E-02 -0.305E-02
  -3.430  0.384E+00  0.388E+00 -0.203E-02 -0.203E-02
  -3.420  0.371E+00  0.373E+00 -0.126E-02 -0.126E-02
  -3.410  0.364E+00  0.365E+00 -0.729E-03 -0.729E-03
  -3.400  0.362E+00  0.363E+00 -0.378E-03 -0.378E-03
  -3.390  0.366E+00  0.367E+00 -0.159E-03 -0.159E-03
  -3.380  0.376E+00  0.376E+00 -0.290E-04 -0.290E-04
  -3.370  0.392E+00  0.392E+00  0.459E-04  0.459E-04
  -3.360  0.415E+00  0.415E+00  0.890E-04  0.890E-04
  -3.350  0.444E+00  0.444E+00  0.115E-03  0.115E-03
  -3.340  0.479E+00  0.479E+00  0.133E-03  0.133E-03
  -3.330  0.518E+00  0.518E+00  0.148E-03  0.148E-03
  -3.320  0.559E+00  0.559E+00  0.161E-03  0.161E-03
  -3.310  0.600E+00  0.600E+00  0.174E-03  0.174E-03
  -3.300  0.637E+00  0.637E+00  0.186E-03  0.186E-03
  -3.290  0.668E+00  0.667E+00  0.196E-03  0.196E-03
  -3.280  0.690E+00  0.689E+00  0.204E-03  0.204E-03
  -3.270  0.701E+00  0.701E+00  0.209E-03  0.209E-03
  -3.260  0.701E+00  0.701E+00  0.209E-03  0.209E-03
  -3.250  0.691E+00  0.690E+00  0.206E-03  0.206E-03
  -3.240  0.672E+00  0.672E+00  0.200E-03  0.200E-03
  -3.230  0.647E+00  0.647E+00  0.190E-03  0.190E-03
  -3.220  0.620E+00  0.620E+00  0.179E-03  0.179E-03
  -3.210  0.594E+00  0.594E+00  0.168E-03  0.168E-03
  -3.200  0.572E+00  0.572E+00  0.157E-03  0.157E-03
  -3.190  0.557E+00  0.557E+00  0.149E-03  0.149E-03
  -3.180  0.550E+00  0.549E+00  0.143E-03  0.143E-03
  -3.170  0.551E+00  0.551E+00  0.141E-03  0.141E-03
  -3.160  0.561E+00  0.561E+00  0.141E-03  0.141E-03
  -3.150  0.578E+00  0.578E+00  0.144E-03  0.144E-03
  -3.140  0.603E+00  0.602E+00  0.150E-03  0.150E-03
  -3.130  0.633E+00  0.632E+00  0.158E-03  0.158E-03
  -3.120  0.667E+00  0.667E+00  0.167E-03  0.167E-03
  -3.110  0.703E+00  0.703E+00  0.177E-03  0.177E-03
  -3.100  0.739E+00  0.739E+00  0.187E-03  0.187E-03
  -3.090  0.772E+00  0.772E+00  0.195E-03  0.195E-03
  -3.080  0.798E+00  0.798E+00  0.202E-03  0.202E-03
  -3.070  0.815E+00  0.815E+00  0.206E-03  0.206E-03
  -3.060  0.820E+00  0.819E+00  0.207E-03  0.207E-03
  -3.050  0.811E+00  0.810E+00  0.204E-03  0.204E-03
  -3.040  0.787E+00  0.786E+00  0.198E-03  0.198E-03
  -3.030  0.748E+00  0.748E+00  0.188E-03  0.188E-03
  -3.020  0.697E+00  0.697E+00  0.176E-03  0.176E-03
  -3.010  0.637E+00  0.637E+00  0.162E-03  0.162E-03
  -3.000  0.571E+00  0.571E+00  0.147E-03  0.147E-03
  -2.990  0.506E+00  0.506E+00  0.133E-03  0.133E-03
  -2.980  0.449E+00  0.448E+00  0.121E-03  0.121E-03
  -2.970  0.403E+00  0.403E+00  0.113E-03  0.113E-03
  -2.960  0.375E+00  0.375E+00  0.108E-03  0.108E-03
  -2.950  0.365E+00  0.365E+00  0.107E-03  0.107E-03
  -2.940  0.373E+00  0.373E+00  0.110E-03  0.110E-03
  -2.930  0.394E+00  0.394E+00  0.116E-03  0.116E-03
  -2.920  0.423E+00  0.423E+00  0.122E-03  0.122E-03
  -2.910  0.453E+00  0.453E+00  0.127E-03  0.127E-03
  -2.900  0.479E+00  0.478E+00  0.129E-03  0.129E-03
  -2.890  0.496E+00  0.496E+00  0.129E-03  0.129E-03
  -2.880  0.505E+00  0.505E+00  0.126E-03  0.126E-03
  -2.870  0.506E+00  0.505E+00  0.121E-03  0.121E-03
  -2.860  0.500E+00  0.500E+00  0.114E-03  0.114E-03
  -2.850  0.492E+00  0.492E+00  0.107E-03  0.107E-03
  -2.840  0.483E+00  0.483E+00  0.101E-03  0.101E-03
  -2.830  0.473E+00  0.473E+00  0.971E-04  0.971E-04
  -2.820  0.462E+00  0.462E+00  0.945E-04  0.945E-04
  -2.810  0.449E+00  0.448E+00  0.934E-04  0.934E-04
  -2.800  0.432E+00  0.432E+00  0.934E-04  0.934E-04
  -2.790  0.412E+00  0.412E+00  0.940E-04  0.940E-04
  -2.780  0.391E+00  0.391E+00  0.950E-04  0.950E-04
  -2.770  0.371E+00  0.371E+00  0.962E-04  0.962E-04
  -2.760  0.354E+00  0.354E+00  0.976E-04  0.976E-04
  -2.750  0.344E+00  0.344E+00  0.994E-04  0.994E-04
  -2.740  0.341E+00  0.341E+00  0.102E-03  0.102E-03
  -2.730  0.347E+00  0.347E+00  0.104E-03  0.104E-03
  -2.720  0.358E+00  0.358E+00  0.105E-03  0.105E-03
  -2.710  0.373E+00  0.373E+00  0.106E-03  0.106E-03
  -2.700  0.389E+00  0.388E+00  0.105E-03  0.105E-03
  -2.690  0.402E+00  0.402E+00  0.102E-03  0.102E-03
  -2.680  0.412E+00  0.411E+00  0.966E-04  0.966E-04
  -2.670  0.416E+00  0.416E+00  0.902E-04  0.902E-04
  -2.660  0.416E+00  0.416E+00  0.833E-04  0.833E-04
  -2.650  0.411E+00  0.410E+00  0.768E-04  0.768E-04
  -2.640  0.401E+00  0.401E+00  0.715E-04  0.715E-04
  -2.630  0.387E+00  0.387E+00  0.680E-04  0.680E-04
  -2.620  0.370E+00  0.370E+00  0.663E-04  0.663E-04
  -2.610  0.351E+00  0.351E+00  0.663E-04  0.663E-04
  -2.600  0.332E+00  0.331E+00  0.675E-04  0.675E-04
  -2.590  0.313E+00  0.313E+00  0.695E-04  0.695E-04
  -2.580  0.299E+00  0.299E+00  0.719E-04  0.719E-04
  -2.570  0.292E+00  0.292E+00  0.745E-04  0.745E-04
  -2.560  0.292E+00  0.292E+00  0.773E-04  0.773E-04
  -2.550  0.301E+00  0.301E+00  0.803E-04  0.803E-04
  -2.540  0.317E+00  0.317E+00  0.833E-04  0.833E-04
  -2.530  0.338E+00  0.338E+00  0.863E-04  0.863E-04
  -2.520  0.360E+00  0.360E+00  0.887E-04  0.887E-04
  -2.510  0.378E+00  0.378E+00  0.900E-04  0.900E-04
  -2.500  0.390E+00  0.390E+00  0.897E-04  0.897E-04
  -2.490  0.393E+00  0.393E+00  0.874E-04  0.874E-04
  -2.480  0.386E+00  0.385E+00  0.829E-04  0.829E-04
  -2.470  0.370E+00  0.369E+00  0.765E-04  0.765E-04
  -2.460  0.347E+00  0.347E+00  0.689E-04  0.689E-04
  -2.450  0.322E+00  0.322E+00  0.610E-04  0.610E-04
  -2.440  0.299E+00  0.298E+00  0.537E-04  0.537E-04
  -2.430  0.280E+00  0.280E+00  0.479E-04  0.479E-04
  -2.420  0.268E+00  0.268E+00  0.444E-04  0.444E-04
  -2.410  0.265E+00  0.265E+00  0.435E-04  0.435E-04
  -2.400  0.268E+00  0.268E+00  0.452E-04  0.452E-04
  -2.390  0.277E+00  0.277E+00  0.489E-04  0.489E-04
  -2.380  0.288E+00  0.288E+00  0.542E-04  0.542E-04
  -2.370  0.299E+00  0.299E+00  0.600E-04  0.600E-04
  -2.360  0.308E+00  0.308E+00  0.656E-04  0.656E-04
  -2.350  0.313E+00  0.313E+00  0.703E-04  0.703E-04
  -2.340  0.315E+00  0.315E+00  0.737E-04  0.737E-04
  -2.330  0.313E+00  0.313E+00  0.756E-04  0.756E-04
  -2.320  0.308E+00  0.308E+00  0.759E-04  0.759E-04
  -2.310  0.300E+00  0.300E+00  0.747E-04  0.747E-04
  -2.300  0.288E+00  0.288E+00  0.722E-04  0.722E-04
  -2.290  0.272E+00  0.272E+00  0.685E-04  0.685E-04
  -2.280  0.252E+00  0.251E+00  0.641E-04  0.641E-04
  -2.270  0.226E+00  0.225E+00  0.592E-04  0.592E-04
  -2.260  0.195E+00  0.195E+00  0.542E-04  0.542E-04
  -2.250  0.161E+00  0.161E+00  0.496E-04  0.496E-04
  -2.240  0.126E+00  0.126E+00  0.457E-04  0.457E-04
  -2.230  0.916E-01  0.915E-01  0.430E-04  0.430E-04
  -2.220  0.605E-01  0.604E-01  0.413E-04  0.413E-04
  -2.210  0.344E-01  0.343E-01  0.406E-04  0.406E-04
  -2.200  0.144E-01  0.144E-01  0.405E-04  0.405E-04
  -2.190  0.916E-03  0.835E-03  0.408E-04  0.408E-04
  -2.180 -0.659E-02 -0.667E-02  0.412E-04  0.412E-04
  -2.170 -0.900E-02 -0.908E-02  0.417E-04  0.417E-04
  -2.160 -0.755E-02 -0.764E-02  0.425E-04  0.425E-04
  -2.150 -0.353E-02 -0.361E-02  0.438E-04  0.438E-04
  -2.140  0.190E-02  0.181E-02  0.461E-04  0.461E-04
  -2.130  0.777E-02  0.767E-02  0.493E-04  0.493E-04
  -2.120  0.133E-01  0.132E-01  0.533E-04  0.533E-04
  -2.110  0.181E-01  0.180E-01  0.578E-04  0.578E-04
  -2.100  0.217E-01  0.215E-01  0.619E-04  0.619E-04
  -2.090  0.238E-01  0.237E-01  0.649E-04  0.649E-04
  -2.080  0.245E-01  0.244E-01  0.660E-04  0.660E-04
  -2.070  0.238E-01  0.237E-01  0.648E-04  0.648E-04
  -2.060  0.218E-01  0.217E-01  0.612E-04  0.612E-04
  -2.050  0.189E-01  0.188E-01  0.556E-04  0.556E-04
  -2.040  0.154E-01  0.153E-01  0.487E-04  0.487E-04
  -2.030  0.118E-01  0.117E-01  0.412E-04  0.412E-04
  -2.020  0.841E-02  0.834E-02  0.342E-04  0.342E-04
  -2.010  0.564E-02  0.559E-02  0.284E-04  0.284E-04
  -2.000  0.364E-02  0.359E-02  0.242E-04  0.242E-04
  -1.990  0.243E-02  0.239E-02  0.218E-04  0.218E-04
  -1.980  0.194E-02  0.190E-02  0.211E-04  0.211E-04
  -1.970  0.203E-02  0.198E-02  0.219E-04  0.219E-04
  -1.960  0.251E-02  0.247E-02  0.239E-04  0.239E-04
  -1.950  0.325E-02  0.320E-02  0.269E-04  0.269E-04
  -1.940  0.414E-02  0.407E-02  0.308E-04  0.308E-04
  -1.930  0.510E-02  0.503E-02  0.354E-04  0.354E-04
  -1.920  0.609E-02  0.601E-02  0.403E-04  0.403E-04
  -1.910  0.708E-02  0.699E-02  0.452E-04  0.452E-04
  -1.900  0.801E-02  0.791E-02  0.496E-04  0.496E-04
  -1.890  0.882E-02  0.871E-02  0.529E-04  0.529E-04
  -1.880  0.944E-02  0.933E-02  0.547E-04  0.547E-04
  -1.870  0.979E-02  0.968E-02  0.546E-04  0.546E-04
  -1.860  0.981E-02  0.971E-02  0.526E-04  0.526E-04
  -1.850  0.948E-02  0.939E-02  0.487E-04  0.487E-04
  -1.840  0.881E-02  0.872E-02  0.436E-04  0.436E-04
  -1.830  0.784E-02  0.776E-02  0.379E-04  0.379E-04
  -1.820  0.665E-02  0.659E-02  0.321E-04  0.321E-04
  -1.810  0.536E-02  0.531E-02  0.271E-04  0.271E-04
  -1.800  0.408E-02  0.403E-02  0.232E-04  0.232E-04
  -1.790  0.292E-02  0.288E-02  0.206E-04  0.206E-04
  -1.780  0.196E-02  0.192E-02  0.195E-04  0.195E-04
  -1.770  0.125E-02  0.121E-02  0.195E-04  0.195E-04
  -1.760  0.782E-03  0.741E-03  0.203E-04  0.203E-04
  -1.750  0.541E-03  0.498E-03  0.216E-04  0.216E-04
  -1.740  0.477E-03  0.431E-03  0.230E-04  0.230E-04
  -1.730  0.541E-03  0.492E-03  0.242E-04  0.242E-04
  -1.720  0.690E-03  0.639E-03  0.252E-04  0.252E-04
  -1.710  0.896E-03  0.844E-03  0.261E-04  0.261E-04
  -1.700  0.114E-02  0.109E-02  0.269E-04  0.269E-04
  -1.690  0.142E-02  0.137E-02  0.278E-04  0.278E-04
  -1.680  0.173E-02  0.167E-02  0.287E-04  0.287E-04
  -1.670  0.204E-02  0.198E-02  0.297E-04  0.297E-04
  -1.660  0.233E-02  0.227E-02  0.307E-04  0.307E-04
  -1.650  0.259E-02  0.253E-02  0.314E-04  0.314E-04
  -1.640  0.278E-02  0.272E-02  0.318E-04  0.318E-04
  -1.630  0.289E-02  0.283E-02  0.317E-04  0.317E-04
  -1.620  0.290E-02  0.284E-02  0.312E-04  0.312E-04
  -1.610  0.281E-02  0.275E-02  0.303E-04  0.303E-04
  -1.600  0.262E-02  0.256E-02  0.291E-04  0.291E-04
  -1.590  0.235E-02  0.229E-02  0.278E-04  0.278E-04
  -1.580  0.201E-02  0.196E-02  0.264E-04  0.264E-04
  -1.570  0.164E-02  0.159E-02  0.251E-04  0.251E-04
  -1.560  0.126E-02  0.122E-02  0.238E-04  0.238E-04
  -1.550  0.910E-03  0.864E-03  0.226E-04  0.226E-04
  -1.540  0.600E-03  0.558E-03  0.214E-04  0.214E-04
  -1.530  0.351E-03  0.311E-03  0.199E-04  0.199E-04
  -1.520  0.167E-03  0.131E-03  0.181E-04  0.181E-04
  -1.510  0.474E-04  0.153E-04  0.161E-04  0.161E-04
  -1.500 -0.169E-04 -0.445E-04  0.138E-04  0.138E-04
  -1.490 -0.353E-04 -0.585E-04  0.116E-04  0.116E-04
  -1.480 -0.172E-04 -0.367E-04  0.977E-05  0.977E-05
  -1.470  0.301E-04  0.128E-04  0.867E-05  0.867E-05
  -1.460  0.101E-03  0.841E-04  0.857E-05  0.857E-05
  -1.450  0.192E-03  0.172E-03  0.961E-05  0.961E-05
  -1.440  0.296E-03  0.272E-03  0.117E-04  0.117E-04
  -1.430  0.407E-03  0.378E-03  0.146E-04  0.146E-04
  -1.420  0.516E-03  0.480E-03  0.179E-04  0.179E-04
  -1.410  0.612E-03  0.570E-03  0.211E-04  0.211E-04
  -1.400  0.686E-03  0.638E-03  0.239E-04  0.239E-04
  -1.390  0.730E-03  0.679E-03  0.258E-04  0.258E-04
  -1.380  0.740E-03  0.687E-03  0.267E-04  0.267E-04
  -1.370  0.715E-03  0.662E-03  0.266E-04  0.266E-04
  -1.360  0.660E-03  0.609E-03  0.256E-04  0.256E-04
  -1.350  0.580E-03  0.532E-03  0.239E-04  0.239E-04
  -1.340  0.485E-03  0.442E-03  0.217E-04  0.217E-04
  -1.330  0.383E-03  0.345E-03  0.192E-04  0.192E-04
  -1.320  0.283E-03  0.250E-03  0.166E-04  0.166E-04
  -1.310  0.190E-03  0.163E-03  0.139E-04  0.139E-04
  -1.300  0.111E-03  0.884E-04  0.111E-04  0.111E-04
  -1.290  0.467E-04  0.298E-04  0.849E-05  0.849E-05
  -1.280 -0.528E-06 -0.125E-04  0.599E-05  0.599E-05
  -1.270 -0.316E-04 -0.392E-04  0.380E-05  0.380E-05
  -1.260 -0.480E-04 -0.521E-04  0.204E-05  0.204E-05
  -1.250 -0.524E-04 -0.541E-04  0.865E-06  0.865E-06
  -1.240 -0.472E-04 -0.479E-04  0.378E-06  0.378E-06
  -1.230 -0.349E-04 -0.362E-04  0.648E-06  0.648E-06
  -1.220 -0.177E-04 -0.210E-04  0.169E-05  0.169E-05
  -1.210  0.293E-05 -0.401E-05  0.347E-05  0.347E-05
  -1.200  0.256E-04  0.139E-04  0.588E-05  0.588E-05
  -1.190  0.492E-04  0.318E-04  0.874E-05  0.874E-05
  -1.180  0.724E-04  0.488E-04  0.118E-04  0.118E-04
  -1.170  0.936E-04  0.641E-04  0.147E-04  0.147E-04
  -1.160  0.111E-03  0.763E-04  0.172E-04  0.172E-04
  -1.150  0.122E-03  0.844E-04  0.189E-04  0.189E-04
  -1.140  0.126E-03  0.873E-04  0.195E-04  0.195E-04
  -1.130  0.122E-03  0.845E-04  0.189E-04  0.189E-04
  -1.120  0.111E-03  0.765E-04  0.171E-04  0.171E-04
  -1.110  0.927E-04  0.641E-04  0.143E-04  0.143E-04
  -1.100  0.710E-04  0.491E-04  0.109E-04  0.109E-04
  -1.090  0.482E-04  0.333E-04  0.743E-05  0.743E-05
  -1.080  0.270E-04  0.187E-04  0.416E-05  0.416E-05
  -1.070  0.933E-05  0.645E-05  0.144E-05  0.144E-05
  -1.060 -0.360E-05 -0.250E-05 -0.551E-06 -0.551E-06
  -1.050 -0.116E-04 -0.805E-05 -0.178E-05 -0.178E-05
  -1.040 -0.153E-04 -0.106E-04 -0.234E-05 -0.234E-05
  -1.030 -0.157E-04 -0.109E-04 -0.239E-05 -0.239E-05
  -1.020 -0.140E-04 -0.980E-05 -0.209E-05 -0.209E-05
  -1.010 -0.111E-04 -0.796E-05 -0.159E-05 -0.159E-05
  -1.000 -0.801E-05 -0.597E-05 -0.102E-05 -0.102E-05
  -0.990 -0.502E-05 -0.418E-05 -0.421E-06 -0.421E-06
  -0.980 -0.237E-05 -0.275E-05  0.193E-06  0.193E-06
  -0.970 -0.467E-07 -0.171E-05  0.833E-06  0.833E-06
  -0.960  0.203E-05 -0.101E-05  0.152E-05  0.152E-05
  -0.950  0.398E-05 -0.562E-06  0.227E-05  0.227E-05
  -0.940  0.584E-05 -0.298E-06  0.307E-05  0.307E-05
  -0.930  0.761E-05 -0.150E-06  0.388E-05  0.388E-05
  -0.920  0.921E-05 -0.723E-07  0.464E-05  0.464E-05
  -0.910  0.105E-04 -0.331E-07  0.527E-05  0.527E-05
  -0.900  0.113E-04 -0.145E-07  0.568E-05  0.568E-05
  -0.890  0.116E-04 -0.603E-08  0.581E-05  0.581E-05
  -0.880  0.113E-04 -0.240E-08  0.563E-05  0.563E-05
  -0.870  0.103E-04 -0.904E-09  0.515E-05  0.515E-05
  -0.860  0.882E-05 -0.308E-09  0.441E-05  0.441E-05
  -0.850  0.702E-05 -0.456E-10  0.351E-05  0.351E-05
  -0.840  0.510E-05  0.164E-09  0.255E-05  0.255E-05
  -0.830  0.326E-05  0.556E-09  0.163E-05  0.163E-05
  -0.820  0.167E-05  0.152E-08  0.834E-06  0.834E-06
  -0.810  0.421E-06  0.393E-08  0.209E-06  0.209E-06
  -0.800 -0.441E-06  0.966E-08 -0.225E-06 -0.225E-06
  -0.790 -0.933E-06  0.227E-07 -0.478E-06 -0.478E-06
  -0.780 -0.110E-05  0.511E-07 -0.575E-06 -0.575E-06
  -0.770 -0.993E-06  0.110E-06 -0.551E-06 -0.551E-06
  -0.760 -0.645E-06  0.226E-06 -0.435E-06 -0.435E-06
  -0.750 -0.398E-07  0.443E-06 -0.241E-06 -0.241E-06
  -0.740  0.901E-06  0.831E-06  0.351E-07  0.351E-07
  -0.730  0.234E-05  0.149E-05  0.423E-06  0.423E-06
  -0.720  0.450E-05  0.255E-05  0.973E-06  0.973E-06
  -0.710  0.767E-05  0.417E-05  0.175E-05  0.175E-05
  -0.700  0.122E-04  0.650E-05  0.283E-05  0.283E-05
  -0.690  0.182E-04  0.968E-05  0.428E-05  0.428E-05
  -0.680  0.259E-04  0.137E-04  0.610E-05  0.610E-05
  -0.670  0.351E-04  0.186E-04  0.827E-05  0.827E-05
  -0.660  0.452E-04  0.239E-04  0.106E-04  0.106E-04
  -0.650  0.553E-04  0.293E-04  0.130E-04  0.130E-04
  -0.640  0.644E-04  0.340E-04  0.152E-04  0.152E-04
  -0.630  0.710E-04  0.375E-04  0.167E-04  0.167E-04
  -0.620  0.740E-04  0.392E-04  0.174E-04  0.174E-04
  -0.610  0.729E-04  0.386E-04  0.171E-04  0.171E-04
  -0.600  0.675E-04  0.358E-04  0.158E-04  0.158E-04
  -0.590  0.584E-04  0.311E-04  0.136E-04  0.136E-04
  -0.580  0.470E-04  0.253E-04  0.108E-04  0.108E-04
  -0.570  0.351E-04  0.195E-04  0.784E-05  0.784E-05
  -0.560  0.246E-04  0.145E-04  0.502E-05  0.502E-05
  -0.550  0.171E-04  0.116E-04  0.273E-05  0.273E-05
  -0.540  0.139E-04  0.115E-04  0.121E-05  0.121E-05
  -0.530  0.159E-04  0.147E-04  0.567E-06  0.567E-06
  -0.520  0.231E-04  0.215E-04  0.808E-06  0.808E-06
  -0.510  0.351E-04  0.314E-04  0.183E-05  0.183E-05
  -0.500  0.510E-04  0.440E-04  0.349E-05  0.349E-05
  -0.490  0.695E-04  0.582E-04  0.561E-05  0.561E-05
  -0.480  0.888E-04  0.728E-04  0.800E-05  0.800E-05
  -0.470  0.107E-03  0.864E-04  0.105E-04  0.105E-04
  -0.460  0.124E-03  0.978E-04  0.130E-04  0.130E-04
  -0.450  0.137E-03  0.106E-03  0.153E-04  0.153E-04
  -0.440  0.146E-03  0.111E-03  0.174E-04  0.174E-04
  -0.430  0.152E-03  0.113E-03  0.192E-04  0.192E-04
  -0.420  0.155E-03  0.113E-03  0.207E-04  0.207E-04
  -0.410  0.157E-03  0.113E-03  0.219E-04  0.219E-04
  -0.400  0.158E-03  0.113E-03  0.227E-04  0.227E-04
  -0.390  0.159E-03  0.113E-03  0.231E-04  0.231E-04
  -0.380  0.160E-03  0.114E-03  0.230E-04  0.230E-04
  -0.370  0.160E-03  0.115E-03  0.224E-04  0.224E-04
  -0.360  0.158E-03  0.116E-03  0.211E-04  0.211E-04
  -0.350  0.153E-03  0.115E-03  0.193E-04  0.193E-04
  -0.340  0.147E-03  0.113E-03  0.170E-04  0.170E-04
  -0.330  0.140E-03  0.111E-03  0.145E-04  0.145E-04
  -0.320  0.137E-03  0.113E-03  0.123E-04  0.123E-04
  -0.310  0.141E-03  0.120E-03  0.105E-04  0.105E-04
  -0.300  0.153E-03  0.134E-03  0.947E-05  0.947E-05
  -0.290  0.175E-03  0.157E-03  0.939E-05  0.939E-05
  -0.280  0.206E-03  0.186E-03  0.102E-04  0.102E-04
  -0.270  0.241E-03  0.217E-03  0.117E-04  0.117E-04
  -0.260  0.275E-03  0.247E-03  0.135E-04  0.135E-04
  -0.250  0.301E-03  0.270E-03  0.154E-04  0.154E-04
  -0.240  0.315E-03  0.281E-03  0.168E-04  0.168E-04
  -0.230  0.313E-03  0.278E-03  0.178E-04  0.178E-04
  -0.220  0.298E-03  0.261E-03  0.183E-04  0.183E-04
  -0.210  0.271E-03  0.234E-03  0.185E-04  0.185E-04
  -0.200  0.241E-03  0.204E-03  0.187E-04  0.187E-04
  -0.190  0.215E-03  0.176E-03  0.193E-04  0.193E-04
  -0.180  0.200E-03  0.159E-03  0.205E-04  0.205E-04
  -0.170  0.201E-03  0.156E-03  0.224E-04  0.224E-04
  -0.160  0.221E-03  0.171E-03  0.249E-04  0.249E-04
  -0.150  0.259E-03  0.203E-03  0.278E-04  0.278E-04
  -0.140  0.311E-03  0.249E-03  0.306E-04  0.306E-04
  -0.130  0.370E-03  0.304E-03  0.330E-04  0.330E-04
  -0.120  0.429E-03  0.360E-03  0.345E-04  0.345E-04
  -0.110  0.482E-03  0.412E-03  0.351E-04  0.351E-04
  -0.100  0.523E-03  0.454E-03  0.345E-04  0.345E-04
  -0.090  0.550E-03  0.484E-03  0.330E-04  0.330E-04
  -0.080  0.560E-03  0.499E-03  0.307E-04  0.307E-04
  -0.070  0.557E-03  0.501E-03  0.281E-04  0.281E-04
  -0.060  0.542E-03  0.491E-03  0.253E-04  0.253E-04
  -0.050  0.519E-03  0.474E-03  0.226E-04  0.226E-04
  -0.040  0.491E-03  0.450E-03  0.203E-04  0.203E-04
  -0.030  0.460E-03  0.424E-03  0.182E-04  0.182E-04
  -0.020  0.428E-03  0.395E-03  0.165E-04  0.165E-04
  -0.010  0.397E-03  0.367E-03  0.151E-04  0.151E-04
   0.000  0.370E-03  0.342E-03  0.141E-04  0.141E-04
   0.010  0.352E-03  0.325E-03  0.135E-04  0.135E-04
   0.020  0.347E-03  0.320E-03  0.136E-04  0.136E-04
   0.030  0.362E-03  0.332E-03  0.147E-04  0.147E-04
   0.040  0.398E-03  0.364E-03  0.170E-04  0.170E-04
   0.050  0.456E-03  0.415E-03  0.205E-04  0.205E-04
   0.060  0.530E-03  0.479E-03  0.252E-04  0.252E-04
   0.070  0.612E-03  0.550E-03  0.307E-04  0.307E-04
   0.080  0.691E-03  0.618E-03  0.366E-04  0.366E-04
   0.090  0.757E-03  0.673E-03  0.421E-04  0.421E-04
   0.100  0.804E-03  0.711E-03  0.467E-04  0.467E-04
   0.110  0.829E-03  0.729E-03  0.500E-04  0.500E-04
   0.120  0.836E-03  0.732E-03  0.517E-04  0.517E-04
   0.130  0.830E-03  0.726E-03  0.516E-04  0.516E-04
   0.140  0.821E-03  0.720E-03  0.502E-04  0.502E-04
   0.150  0.817E-03  0.721E-03  0.477E-04  0.477E-04
   0.160  0.824E-03  0.735E-03  0.445E-04  0.445E-04
   0.170  0.843E-03  0.761E-03  0.412E-04  0.412E-04
   0.180  0.872E-03  0.796E-03  0.379E-04  0.379E-04
   0.190  0.904E-03  0.834E-03  0.350E-04  0.350E-04
   0.200  0.931E-03  0.866E-03  0.325E-04  0.325E-04
   0.210  0.948E-03  0.888E-03  0.302E-04  0.302E-04
   0.220  0.949E-03  0.892E-03  0.282E-04  0.282E-04
   0.230  0.933E-03  0.880E-03  0.263E-04  0.263E-04
   0.240  0.901E-03  0.853E-03  0.245E-04  0.245E-04
   0.250  0.860E-03  0.815E-03  0.228E-04  0.228E-04
   0.260  0.816E-03  0.773E-03  0.214E-04  0.214E-04
   0.270  0.775E-03  0.734E-03  0.204E-04  0.204E-04
   0.280  0.746E-03  0.706E-03  0.202E-04  0.202E-04
   0.290  0.735E-03  0.694E-03  0.208E-04  0.208E-04
   0.300  0.748E-03  0.703E-03  0.226E-04  0.226E-04
   0.310  0.787E-03  0.735E-03  0.258E-04  0.258E-04
   0.320  0.852E-03  0.791E-03  0.305E-04  0.305E-04
   0.330  0.940E-03  0.867E-03  0.367E-04  0.367E-04
   0.340  0.105E-02  0.959E-03  0.440E-04  0.440E-04
   0.350  0.117E-02  0.106E-02  0.521E-04  0.521E-04
   0.360  0.129E-02  0.117E-02  0.603E-04  0.603E-04
   0.370  0.141E-02  0.128E-02  0.678E-04  0.678E-04
   0.380  0.153E-02  0.138E-02  0.739E-04  0.739E-04
   0.390  0.164E-02  0.148E-02  0.780E-04  0.780E-04
   0.400  0.173E-02  0.157E-02  0.795E-04  0.795E-04
   0.410  0.180E-02  0.164E-02  0.783E-04  0.783E-04
   0.420  0.184E-02  0.169E-02  0.747E-04  0.747E-04
   0.430  0.185E-02  0.171E-02  0.690E-04  0.690E-04
   0.440  0.183E-02  0.171E-02  0.618E-04  0.618E-04
   0.450  0.178E-02  0.167E-02  0.539E-04  0.539E-04
   0.460  0.170E-02  0.161E-02  0.461E-04  0.461E-04
   0.470  0.160E-02  0.152E-02  0.388E-04  0.388E-04
   0.480  0.149E-02  0.142E-02  0.325E-04  0.325E-04
   0.490  0.138E-02  0.132E-02  0.274E-04  0.274E-04
   0.500  0.128E-02  0.123E-02  0.236E-04  0.236E-04
   0.510  0.119E-02  0.115E-02  0.211E-04  0.211E-04
   0.520  0.113E-02  0.109E-02  0.199E-04  0.199E-04
   0.530  0.110E-02  0.106E-02  0.200E-04  0.200E-04
   0.540  0.111E-02  0.106E-02  0.215E-04  0.215E-04
   0.550  0.116E-02  0.111E-02  0.247E-04  0.247E-04
   0.560  0.127E-02  0.121E-02  0.299E-04  0.299E-04
   0.570  0.146E-02  0.138E-02  0.376E-04  0.376E-04
   0.580  0.171E-02  0.162E-02  0.478E-04  0.478E-04
   0.590  0.204E-02  0.192E-02  0.603E-04  0.603E-04
   0.600  0.241E-02  0.226E-02  0.745E-04  0.745E-04
   0.610  0.279E-02  0.262E-02  0.893E-04  0.893E-04
   0.620  0.315E-02  0.295E-02  0.103E-03  0.103E-03
   0.630  0.344E-02  0.321E-02  0.114E-03  0.114E-03
   0.640  0.361E-02  0.337E-02  0.121E-03  0.121E-03
   0.650  0.365E-02  0.340E-02  0.122E-03  0.122E-03
   0.660  0.354E-02  0.331E-02  0.117E-03  0.117E-03
   0.670  0.332E-02  0.311E-02  0.107E-03  0.107E-03
   0.680  0.304E-02  0.285E-02  0.933E-04  0.933E-04
   0.690  0.275E-02  0.260E-02  0.778E-04  0.778E-04
   0.700  0.253E-02  0.240E-02  0.629E-04  0.629E-04
   0.710  0.242E-02  0.232E-02  0.507E-04  0.507E-04
   0.720  0.245E-02  0.236E-02  0.424E-04  0.424E-04
   0.730  0.262E-02  0.255E-02  0.387E-04  0.387E-04
   0.740  0.293E-02  0.285E-02  0.392E-04  0.392E-04
   0.750  0.333E-02  0.325E-02  0.430E-04  0.430E-04
   0.760  0.379E-02  0.369E-02  0.490E-04  0.490E-04
   0.770  0.426E-02  0.415E-02  0.558E-04  0.558E-04
   0.780  0.471E-02  0.458E-02  0.624E-04  0.624E-04
   0.790  0.511E-02  0.497E-02  0.682E-04  0.682E-04
   0.800  0.545E-02  0.531E-02  0.727E-04  0.727E-04
   0.810  0.573E-02  0.557E-02  0.761E-04  0.761E-04
   0.820  0.591E-02  0.576E-02  0.785E-04  0.785E-04
   0.830  0.601E-02  0.585E-02  0.802E-04  0.802E-04
   0.840  0.601E-02  0.585E-02  0.815E-04  0.815E-04
   0.850  0.591E-02  0.574E-02  0.826E-04  0.826E-04
   0.860  0.571E-02  0.555E-02  0.837E-04  0.837E-04
   0.870  0.544E-02  0.527E-02  0.849E-04  0.849E-04
   0.880  0.511E-02  0.493E-02  0.862E-04  0.862E-04
   0.890  0.474E-02  0.457E-02  0.874E-04  0.874E-04
   0.900  0.438E-02  0.420E-02  0.883E-04  0.883E-04
   0.910  0.403E-02  0.385E-02  0.886E-04  0.886E-04
   0.920  0.370E-02  0.353E-02  0.879E-04  0.879E-04
   0.930  0.341E-02  0.324E-02  0.859E-04  0.859E-04
   0.940  0.316E-02  0.299E-02  0.825E-04  0.825E-04
   0.950  0.293E-02  0.278E-02  0.775E-04  0.775E-04
   0.960  0.274E-02  0.259E-02  0.713E-04  0.713E-04
   0.970  0.256E-02  0.243E-02  0.643E-04  0.643E-04
   0.980  0.241E-02  0.229E-02  0.571E-04  0.571E-04
   0.990  0.228E-02  0.218E-02  0.503E-04  0.503E-04
   1.000  0.217E-02  0.208E-02  0.445E-04  0.445E-04
   1.010  0.208E-02  0.200E-02  0.400E-04  0.400E-04
   1.020  0.200E-02  0.193E-02  0.371E-04  0.371E-04
   1.030  0.194E-02  0.187E-02  0.356E-04  0.356E-04
   1.040  0.188E-02  0.181E-02  0.354E-04  0.354E-04
   1.050  0.184E-02  0.177E-02  0.362E-04  0.362E-04
   1.060  0.181E-02  0.173E-02  0.377E-04  0.377E-04
   1.070  0.179E-02  0.171E-02  0.396E-04  0.396E-04
   1.080  0.179E-02  0.171E-02  0.417E-04  0.417E-04
   1.090  0.180E-02  0.171E-02  0.438E-04  0.438E-04
   1.100  0.181E-02  0.172E-02  0.458E-04  0.458E-04
   1.110  0.181E-02  0.172E-02  0.475E-04  0.475E-04
   1.120  0.180E-02  0.170E-02  0.491E-04  0.491E-04
   1.130  0.177E-02  0.167E-02  0.507E-04  0.507E-04
   1.140  0.174E-02  0.163E-02  0.524E-04  0.524E-04
   1.150  0.170E-02  0.159E-02  0.544E-04  0.544E-04
   1.160  0.167E-02  0.155E-02  0.568E-04  0.568E-04
   1.170  0.166E-02  0.154E-02  0.596E-04  0.596E-04
   1.180  0.167E-02  0.154E-02  0.625E-04  0.625E-04
   1.190  0.169E-02  0.156E-02  0.654E-04  0.654E-04
   1.200  0.173E-02  0.159E-02  0.678E-04  0.678E-04
   1.210  0.176E-02  0.162E-02  0.692E-04  0.692E-04
   1.220  0.177E-02  0.163E-02  0.695E-04  0.695E-04
   1.230  0.174E-02  0.161E-02  0.683E-04  0.683E-04
   1.240  0.169E-02  0.156E-02  0.657E-04  0.657E-04
   1.250  0.160E-02  0.147E-02  0.617E-04  0.617E-04
   1.260  0.148E-02  0.137E-02  0.567E-04  0.567E-04
   1.270  0.135E-02  0.125E-02  0.511E-04  0.511E-04
   1.280  0.123E-02  0.113E-02  0.454E-04  0.454E-04
   1.290  0.112E-02  0.104E-02  0.401E-04  0.401E-04
   1.300  0.103E-02  0.963E-03  0.356E-04  0.356E-04
   1.310  0.988E-03  0.924E-03  0.322E-04  0.322E-04
   1.320  0.981E-03  0.920E-03  0.303E-04  0.303E-04
   1.330  0.100E-02  0.945E-03  0.297E-04  0.297E-04
   1.340  0.105E-02  0.989E-03  0.303E-04  0.303E-04
   1.350  0.110E-02  0.104E-02  0.316E-04  0.316E-04
   1.360  0.114E-02  0.107E-02  0.333E-04  0.333E-04
   1.370  0.116E-02  0.109E-02  0.350E-04  0.350E-04
   1.380  0.115E-02  0.108E-02  0.363E-04  0.363E-04
   1.390  0.112E-02  0.105E-02  0.371E-04  0.371E-04
   1.400  0.107E-02  0.994E-03  0.377E-04  0.377E-04
   1.410  0.101E-02  0.937E-03  0.382E-04  0.382E-04
   1.420  0.969E-03  0.891E-03  0.390E-04  0.390E-04
   1.430  0.949E-03  0.869E-03  0.403E-04  0.403E-04
   1.440  0.962E-03  0.878E-03  0.424E-04  0.424E-04
   1.450  0.101E-02  0.919E-03  0.451E-04  0.451E-04
   1.460  0.108E-02  0.988E-03  0.484E-04  0.484E-04
   1.470  0.118E-02  0.107E-02  0.519E-04  0.519E-04
   1.480  0.127E-02  0.116E-02  0.553E-04  0.553E-04
   1.490  0.135E-02  0.123E-02  0.582E-04  0.582E-04
   1.500  0.140E-02  0.128E-02  0.603E-04  0.603E-04
   1.510  0.142E-02  0.130E-02  0.614E-04  0.614E-04
   1.520  0.140E-02  0.128E-02  0.613E-04  0.613E-04
   1.530  0.135E-02  0.123E-02  0.600E-04  0.600E-04
   1.540  0.127E-02  0.115E-02  0.577E-04  0.577E-04
   1.550  0.117E-02  0.106E-02  0.546E-04  0.546E-04
   1.560  0.107E-02  0.964E-03  0.509E-04  0.509E-04
   1.570  0.968E-03  0.874E-03  0.469E-04  0.469E-04
   1.580  0.882E-03  0.797E-03  0.427E-04  0.427E-04
   1.590  0.816E-03  0.739E-03  0.385E-04  0.385E-04
   1.600  0.772E-03  0.702E-03  0.347E-04  0.347E-04
   1.610  0.750E-03  0.687E-03  0.315E-04  0.315E-04
   1.620  0.751E-03  0.693E-03  0.290E-04  0.290E-04
   1.630  0.771E-03  0.716E-03  0.275E-04  0.275E-04
   1.640  0.805E-03  0.751E-03  0.270E-04  0.270E-04
   1.650  0.848E-03  0.793E-03  0.274E-04  0.274E-04
   1.660  0.890E-03  0.833E-03  0.286E-04  0.286E-04
   1.670  0.923E-03  0.862E-03  0.301E-04  0.301E-04
   1.680  0.938E-03  0.875E-03  0.317E-04  0.317E-04
   1.690  0.933E-03  0.867E-03  0.330E-04  0.330E-04
   1.700  0.906E-03  0.838E-03  0.339E-04  0.339E-04
   1.710  0.862E-03  0.794E-03  0.343E-04  0.343E-04
   1.720  0.812E-03  0.744E-03  0.343E-04  0.343E-04
   1.730  0.767E-03  0.699E-03  0.343E-04  0.343E-04
   1.740  0.740E-03  0.671E-03  0.347E-04  0.347E-04
   1.750  0.740E-03  0.669E-03  0.357E-04  0.357E-04
   1.760  0.773E-03  0.698E-03  0.376E-04  0.376E-04
   1.770  0.838E-03  0.758E-03  0.404E-04  0.404E-04
   1.780  0.930E-03  0.842E-03  0.439E-04  0.439E-04
   1.790  0.104E-02  0.943E-03  0.478E-04  0.478E-04
   1.800  0.115E-02  0.105E-02  0.518E-04  0.518E-04
   1.810  0.125E-02  0.114E-02  0.553E-04  0.553E-04
   1.820  0.133E-02  0.121E-02  0.579E-04  0.579E-04
   1.830  0.137E-02  0.125E-02  0.591E-04  0.591E-04
   1.840  0.137E-02  0.125E-02  0.588E-04  0.588E-04
   1.850  0.132E-02  0.121E-02  0.568E-04  0.568E-04
   1.860  0.123E-02  0.113E-02  0.533E-04  0.533E-04
   1.870  0.112E-02  0.102E-02  0.487E-04  0.487E-04
   1.880  0.989E-03  0.901E-03  0.436E-04  0.436E-04
   1.890  0.861E-03  0.783E-03  0.385E-04  0.385E-04
   1.900  0.749E-03  0.681E-03  0.340E-04  0.340E-04
   1.910  0.664E-03  0.603E-03  0.303E-04  0.303E-04
   1.920  0.611E-03  0.555E-03  0.277E-04  0.277E-04
   1.930  0.588E-03  0.536E-03  0.260E-04  0.260E-04
   1.940  0.592E-03  0.542E-03  0.251E-04  0.251E-04
   1.950  0.618E-03  0.568E-03  0.248E-04  0.248E-04
   1.960  0.659E-03  0.609E-03  0.249E-04  0.249E-04
   1.970  0.711E-03  0.660E-03  0.254E-04  0.254E-04
   1.980  0.770E-03  0.717E-03  0.262E-04  0.262E-04
   1.990  0.832E-03  0.777E-03  0.274E-04  0.274E-04
   2.000  0.892E-03  0.834E-03  0.289E-04  0.289E-04
   2.010  0.944E-03  0.883E-03  0.306E-04  0.306E-04
   2.020  0.982E-03  0.918E-03  0.323E-04  0.323E-04
   2.030  0.999E-03  0.932E-03  0.338E-04  0.338E-04
   2.040  0.992E-03  0.922E-03  0.349E-04  0.349E-04
   2.050  0.961E-03  0.890E-03  0.355E-04  0.355E-04
   2.060  0.913E-03  0.842E-03  0.356E-04  0.356E-04
   2.070  0.858E-03  0.787E-03  0.354E-04  0.354E-04
   2.080  0.807E-03  0.737E-03  0.352E-04  0.352E-04
   2.090  0.774E-03  0.703E-03  0.354E-04  0.354E-04
   2.100  0.769E-03  0.697E-03  0.363E-04  0.363E-04
   2.110  0.798E-03  0.722E-03  0.381E-04  0.381E-04
   2.120  0.861E-03  0.779E-03  0.408E-04  0.408E-04
   2.130  0.952E-03  0.864E-03  0.442E-04  0.442E-04
   2.140  0.106E-02  0.966E-03  0.480E-04  0.480E-04
   2.150  0.118E-02  0.107E-02  0.515E-04  0.515E-04
   2.160  0.128E-02  0.117E-02  0.543E-04  0.543E-04
   2.170  0.136E-02  0.125E-02  0.558E-04  0.558E-04
   2.180  0.140E-02  0.129E-02  0.555E-04  0.555E-04
   2.190  0.140E-02  0.129E-02  0.533E-04  0.533E-04
   2.200  0.134E-02  0.124E-02  0.492E-04  0.492E-04
   2.210  0.124E-02  0.115E-02  0.437E-04  0.437E-04
   2.220  0.111E-02  0.103E-02  0.374E-04  0.374E-04
   2.230  0.962E-03  0.900E-03  0.310E-04  0.310E-04
   2.240  0.824E-03  0.773E-03  0.255E-04  0.255E-04
   2.250  0.711E-03  0.668E-03  0.215E-04  0.215E-04
   2.260  0.639E-03  0.600E-03  0.193E-04  0.193E-04
   2.270  0.613E-03  0.575E-03  0.189E-04  0.189E-04
   2.280  0.634E-03  0.594E-03  0.201E-04  0.201E-04
   2.290  0.695E-03  0.651E-03  0.223E-04  0.223E-04
   2.300  0.786E-03  0.736E-03  0.251E-04  0.251E-04
   2.310  0.897E-03  0.841E-03  0.280E-04  0.280E-04
   2.320  0.102E-02  0.956E-03  0.308E-04  0.308E-04
   2.330  0.114E-02  0.108E-02  0.336E-04  0.336E-04
   2.340  0.127E-02  0.120E-02  0.365E-04  0.365E-04
   2.350  0.140E-02  0.132E-02  0.397E-04  0.397E-04
   2.360  0.153E-02  0.144E-02  0.434E-04  0.434E-04
   2.370  0.165E-02  0.155E-02  0.478E-04  0.478E-04
   2.380  0.176E-02  0.165E-02  0.525E-04  0.525E-04
   2.390  0.185E-02  0.173E-02  0.575E-04  0.575E-04
   2.400  0.191E-02  0.178E-02  0.624E-04  0.624E-04
   2.410  0.193E-02  0.180E-02  0.668E-04  0.668E-04
   2.420  0.192E-02  0.178E-02  0.708E-04  0.708E-04
   2.430  0.188E-02  0.173E-02  0.741E-04  0.741E-04
   2.440  0.182E-02  0.167E-02  0.769E-04  0.769E-04
   2.450  0.175E-02  0.159E-02  0.794E-04  0.794E-04
   2.460  0.168E-02  0.152E-02  0.819E-04  0.819E-04
   2.470  0.163E-02  0.146E-02  0.844E-04  0.844E-04
   2.480  0.160E-02  0.143E-02  0.871E-04  0.871E-04
   2.490  0.161E-02  0.143E-02  0.898E-04  0.898E-04
   2.500  0.164E-02  0.145E-02  0.926E-04  0.926E-04
   2.510  0.170E-02  0.151E-02  0.951E-04  0.951E-04
   2.520  0.180E-02  0.161E-02  0.972E-04  0.972E-04
   2.530  0.195E-02  0.175E-02  0.988E-04  0.988E-04
   2.540  0.218E-02  0.199E-02  0.996E-04  0.996E-04
   2.550  0.256E-02  0.236E-02  0.998E-04  0.998E-04
   2.560  0.316E-02  0.297E-02  0.992E-04  0.992E-04
   2.570  0.414E-02  0.394E-02  0.982E-04  0.982E-04
   2.580  0.567E-02  0.548E-02  0.968E-04  0.968E-04
   2.590  0.801E-02  0.782E-02  0.956E-04  0.956E-04
   2.600  0.115E-01  0.113E-01  0.947E-04  0.947E-04
   2.610  0.163E-01  0.161E-01  0.946E-04  0.946E-04
   2.620  0.229E-01  0.228E-01  0.957E-04  0.957E-04
   2.630  0.315E-01  0.313E-01  0.980E-04  0.980E-04
   2.640  0.422E-01  0.420E-01  0.101E-03  0.101E-03
   2.650  0.550E-01  0.548E-01  0.105E-03  0.105E-03
   2.660  0.694E-01  0.692E-01  0.110E-03  0.110E-03
   2.670  0.850E-01  0.847E-01  0.113E-03  0.113E-03
   2.680  0.101E+00  0.101E+00  0.116E-03  0.116E-03
   2.690  0.116E+00  0.116E+00  0.118E-03  0.118E-03
   2.700  0.130E+00  0.130E+00  0.120E-03  0.120E-03
   2.710  0.141E+00  0.141E+00  0.122E-03  0.122E-03
   2.720  0.149E+00  0.149E+00  0.125E-03  0.125E-03
   2.730  0.153E+00  0.153E+00  0.129E-03  0.129E-03
   2.740  0.154E+00  0.154E+00  0.135E-03  0.135E-03
   2.750  0.152E+00  0.151E+00  0.141E-03  0.141E-03
   2.760  0.147E+00  0.146E+00  0.147E-03  0.147E-03
   2.770  0.140E+00  0.139E+00  0.153E-03  0.153E-03
   2.780  0.132E+00  0.131E+00  0.157E-03  0.157E-03
   2.790  0.124E+00  0.123E+00  0.161E-03  0.161E-03
   2.800  0.116E+00  0.116E+00  0.163E-03  0.163E-03
   2.810  0.110E+00  0.110E+00  0.165E-03  0.165E-03
   2.820  0.105E+00  0.104E+00  0.167E-03  0.167E-03
   2.830  0.101E+00  0.100E+00  0.169E-03  0.169E-03
   2.840  0.975E-01  0.971E-01  0.172E-03  0.172E-03
   2.850  0.950E-01  0.947E-01  0.174E-03  0.174E-03
   2.860  0.931E-01  0.927E-01  0.176E-03  0.176E-03
   2.870  0.916E-01  0.913E-01  0.177E-03  0.177E-03
   2.880  0.905E-01  0.901E-01  0.176E-03  0.176E-03
   2.890  0.896E-01  0.892E-01  0.173E-03  0.173E-03
   2.900  0.890E-01  0.886E-01  0.169E-03  0.169E-03
   2.910  0.886E-01  0.883E-01  0.165E-03  0.165E-03
   2.920  0.885E-01  0.881E-01  0.162E-03  0.162E-03
   2.930  0.886E-01  0.882E-01  0.161E-03  0.161E-03
   2.940  0.888E-01  0.885E-01  0.163E-03  0.163E-03
   2.950  0.891E-01  0.887E-01  0.168E-03  0.168E-03
   2.960  0.891E-01  0.888E-01  0.175E-03  0.175E-03
   2.970  0.887E-01  0.883E-01  0.185E-03  0.185E-03
   2.980  0.876E-01  0.872E-01  0.195E-03  0.195E-03
   2.990  0.860E-01  0.856E-01  0.204E-03  0.204E-03
   3.000  0.839E-01  0.835E-01  0.211E-03  0.211E-03
   3.010  0.821E-01  0.816E-01  0.214E-03  0.214E-03
   3.020  0.809E-01  0.805E-01  0.214E-03  0.214E-03
   3.030  0.810E-01  0.805E-01  0.212E-03  0.212E-03
   3.040  0.823E-01  0.819E-01  0.207E-03  0.207E-03
   3.050  0.847E-01  0.843E-01  0.202E-03  0.202E-03
   3.060  0.875E-01  0.871E-01  0.198E-03  0.198E-03
   3.070  0.898E-01  0.894E-01  0.196E-03  0.196E-03
   3.080  0.907E-01  0.903E-01  0.199E-03  0.199E-03
   3.090  0.898E-01  0.894E-01  0.207E-03  0.207E-03
   3.100  0.873E-01  0.868E-01  0.218E-03  0.218E-03
   3.110  0.835E-01  0.831E-01  0.232E-03  0.232E-03
   3.120  0.796E-01  0.791E-01  0.247E-03  0.247E-03
   3.130  0.766E-01  0.761E-01  0.260E-03  0.260E-03
   3.140  0.753E-01  0.748E-01  0.270E-03  0.270E-03
   3.150  0.760E-01  0.755E-01  0.276E-03  0.276E-03
   3.160  0.785E-01  0.779E-01  0.276E-03  0.276E-03
   3.170  0.818E-01  0.813E-01  0.271E-03  0.271E-03
   3.180  0.851E-01  0.846E-01  0.263E-03  0.263E-03
   3.190  0.874E-01  0.869E-01  0.254E-03  0.254E-03
   3.200  0.881E-01  0.876E-01  0.244E-03  0.244E-03
   3.210  0.871E-01  0.867E-01  0.237E-03  0.237E-03
   3.220  0.850E-01  0.846E-01  0.233E-03  0.233E-03
   3.230  0.826E-01  0.821E-01  0.234E-03  0.234E-03
   3.240  0.807E-01  0.802E-01  0.239E-03  0.239E-03
   3.250  0.799E-01  0.794E-01  0.248E-03  0.248E-03
   3.260  0.805E-01  0.800E-01  0.260E-03  0.260E-03
   3.270  0.823E-01  0.817E-01  0.273E-03  0.273E-03
   3.280  0.844E-01  0.838E-01  0.286E-03  0.286E-03
   3.290  0.861E-01  0.855E-01  0.296E-03  0.296E-03
   3.300  0.865E-01  0.859E-01  0.301E-03  0.301E-03
   3.310  0.852E-01  0.846E-01  0.302E-03  0.302E-03
   3.320  0.821E-01  0.815E-01  0.296E-03  0.296E-03
   3.330  0.778E-01  0.773E-01  0.286E-03  0.286E-03
   3.340  0.733E-01  0.728E-01  0.272E-03  0.272E-03
   3.350  0.698E-01  0.692E-01  0.259E-03  0.259E-03
   3.360  0.682E-01  0.677E-01  0.248E-03  0.248E-03
   3.370  0.694E-01  0.689E-01  0.242E-03  0.242E-03
   3.380  0.734E-01  0.729E-01  0.243E-03  0.243E-03
   3.390  0.797E-01  0.792E-01  0.251E-03  0.251E-03
   3.400  0.872E-01  0.866E-01  0.266E-03  0.266E-03
   3.410  0.943E-01  0.937E-01  0.287E-03  0.287E-03
   3.420  0.997E-01  0.990E-01  0.311E-03  0.311E-03
   3.430  0.102E+00  0.101E+00  0.336E-03  0.336E-03
   3.440  0.101E+00  0.999E-01  0.359E-03  0.359E-03
   3.450  0.957E-01  0.950E-01  0.376E-03  0.376E-03
   3.460  0.880E-01  0.873E-01  0.387E-03  0.387E-03
   3.470  0.790E-01  0.782E-01  0.388E-03  0.388E-03
   3.480  0.703E-01  0.695E-01  0.382E-03  0.382E-03
   3.490  0.635E-01  0.628E-01  0.367E-03  0.367E-03
   3.500  0.600E-01  0.593E-01  0.347E-03  0.347E-03
   3.510  0.602E-01  0.595E-01  0.324E-03  0.324E-03
   3.520  0.640E-01  0.634E-01  0.302E-03  0.302E-03
   3.530  0.706E-01  0.700E-01  0.284E-03  0.284E-03
   3.540  0.786E-01  0.781E-01  0.274E-03  0.274E-03
   3.550  0.867E-01  0.861E-01  0.272E-03  0.272E-03
   3.560  0.933E-01  0.927E-01  0.280E-03  0.280E-03
   3.570  0.975E-01  0.969E-01  0.297E-03  0.297E-03
   3.580  0.988E-01  0.981E-01  0.321E-03  0.321E-03
   3.590  0.972E-01  0.965E-01  0.350E-03  0.350E-03
   3.600  0.934E-01  0.926E-01  0.379E-03  0.379E-03
   3.610  0.882E-01  0.874E-01  0.404E-03  0.404E-03
   3.620  0.827E-01  0.818E-01  0.422E-03  0.422E-03
   3.630  0.779E-01  0.770E-01  0.431E-03  0.431E-03
   3.640  0.746E-01  0.737E-01  0.430E-03  0.430E-03
   3.650  0.732E-01  0.723E-01  0.421E-03  0.421E-03
   3.660  0.738E-01  0.730E-01  0.405E-03  0.405E-03
   3.670  0.761E-01  0.753E-01  0.385E-03  0.385E-03
   3.680  0.794E-01  0.786E-01  0.363E-03  0.363E-03
   3.690  0.827E-01  0.821E-01  0.342E-03  0.342E-03
   3.700  0.854E-01  0.847E-01  0.325E-03  0.325E-03
   3.710  0.865E-01  0.858E-01  0.311E-03  0.311E-03
   3.720  0.857E-01  0.851E-01  0.304E-03  0.304E-03
   3.730  0.831E-01  0.825E-01  0.303E-03  0.303E-03
   3.740  0.792E-01  0.786E-01  0.308E-03  0.308E-03
   3.750  0.750E-01  0.744E-01  0.322E-03  0.322E-03
   3.760  0.715E-01  0.708E-01  0.343E-03  0.343E-03
   3.770  0.695E-01  0.688E-01  0.371E-03  0.371E-03
   3.780  0.700E-01  0.692E-01  0.403E-03  0.403E-03
   3.790  0.729E-01  0.721E-01  0.437E-03  0.437E-03
   3.800  0.782E-01  0.773E-01  0.469E-03  0.469E-03
   3.810  0.851E-01  0.841E-01  0.495E-03  0.495E-03
   3.820  0.926E-01  0.916E-01  0.512E-03  0.512E-03
   3.830  0.995E-01  0.984E-01  0.517E-03  0.517E-03
   3.840  0.105E+00  0.103E+00  0.511E-03  0.511E-03
   3.850  0.107E+00  0.106E+00  0.495E-03  0.495E-03
   3.860  0.106E+00  0.105E+00  0.472E-03  0.472E-03
   3.870  0.101E+00  0.100E+00  0.447E-03  0.447E-03
   3.880  0.934E-01  0.926E-01  0.421E-03  0.421E-03
   3.890  0.839E-01  0.831E-01  0.399E-03  0.399E-03
   3.900  0.740E-01  0.732E-01  0.381E-03  0.381E-03
   3.910  0.650E-01  0.643E-01  0.367E-03  0.367E-03
   3.920  0.584E-01  0.577E-01  0.357E-03  0.357E-03
   3.930  0.551E-01  0.544E-01  0.351E-03  0.351E-03
   3.940  0.555E-01  0.548E-01  0.351E-03  0.351E-03
   3.950  0.594E-01  0.587E-01  0.357E-03  0.357E-03
   3.960  0.661E-01  0.653E-01  0.372E-03  0.372E-03
   3.970  0.745E-01  0.738E-01  0.396E-03  0.396E-03
   3.980  0.837E-01  0.828E-01  0.429E-03  0.429E-03
   3.990  0.924E-01  0.915E-01  0.469E-03  0.469E-03
   4.000  0.998E-01  0.987E-01  0.512E-03  0.512E-03
   4.010  0.105E+00  0.104E+00  0.552E-03  0.552E-03
   4.020  0.108E+00  0.106E+00  0.585E-03  0.585E-03
   4.030  0.107E+00  0.106E+00  0.605E-03  0.605E-03
   4.040  0.104E+00  0.103E+00  0.610E-03  0.610E-03
   4.050  0.993E-01  0.982E-01  0.598E-03  0.598E-03
   4.060  0.928E-01  0.916E-01  0.571E-03  0.571E-03
   4.070  0.856E-01  0.846E-01  0.533E-03  0.533E-03
   4.080  0.790E-01  0.780E-01  0.490E-03  0.490E-03
   4.090  0.736E-01  0.728E-01  0.448E-03  0.448E-03
   4.100  0.704E-01  0.696E-01  0.412E-03  0.412E-03
   4.110  0.695E-01  0.688E-01  0.386E-03  0.386E-03
   4.120  0.710E-01  0.702E-01  0.372E-03  0.372E-03
   4.130  0.742E-01  0.735E-01  0.371E-03  0.371E-03
   4.140  0.784E-01  0.776E-01  0.381E-03  0.381E-03
   4.150  0.825E-01  0.817E-01  0.401E-03  0.401E-03
   4.160  0.858E-01  0.849E-01  0.429E-03  0.429E-03
   4.170  0.875E-01  0.866E-01  0.463E-03  0.463E-03
   4.180  0.875E-01  0.865E-01  0.503E-03  0.503E-03
   4.190  0.860E-01  0.849E-01  0.547E-03  0.547E-03
   4.200  0.837E-01  0.825E-01  0.592E-03  0.592E-03
   4.210  0.812E-01  0.800E-01  0.635E-03  0.635E-03
   4.220  0.795E-01  0.782E-01  0.673E-03  0.673E-03
   4.230  0.791E-01  0.777E-01  0.701E-03  0.701E-03
   4.240  0.804E-01  0.790E-01  0.717E-03  0.717E-03
   4.250  0.835E-01  0.820E-01  0.719E-03  0.719E-03
   4.260  0.879E-01  0.865E-01  0.705E-03  0.705E-03
   4.270  0.933E-01  0.920E-01  0.679E-03  0.679E-03
   4.280  0.989E-01  0.976E-01  0.642E-03  0.642E-03
   4.290  0.104E+00  0.103E+00  0.598E-03  0.598E-03
   4.300  0.107E+00  0.106E+00  0.550E-03  0.550E-03
   4.310  0.108E+00  0.107E+00  0.503E-03  0.503E-03
   4.320  0.106E+00  0.105E+00  0.460E-03  0.460E-03
   4.330  0.102E+00  0.101E+00  0.425E-03  0.425E-03
   4.340  0.946E-01  0.938E-01  0.401E-03  0.401E-03
   4.350  0.858E-01  0.850E-01  0.391E-03  0.391E-03
   4.360  0.765E-01  0.757E-01  0.395E-03  0.395E-03
   4.370  0.680E-01  0.671E-01  0.416E-03  0.416E-03
   4.380  0.616E-01  0.607E-01  0.451E-03  0.451E-03
   4.390  0.582E-01  0.572E-01  0.499E-03  0.499E-03
   4.400  0.584E-01  0.573E-01  0.557E-03  0.557E-03
   4.410  0.621E-01  0.608E-01  0.619E-03  0.619E-03
   4.420  0.686E-01  0.672E-01  0.680E-03  0.680E-03
   4.430  0.770E-01  0.756E-01  0.736E-03  0.736E-03
   4.440  0.864E-01  0.848E-01  0.780E-03  0.780E-03
   4.450  0.956E-01  0.940E-01  0.809E-03  0.809E-03
   4.460  0.104E+00  0.102E+00  0.820E-03  0.820E-03
   4.470  0.110E+00  0.109E+00  0.813E-03  0.813E-03
   4.480  0.115E+00  0.113E+00  0.789E-03  0.789E-03
   4.490  0.116E+00  0.115E+00  0.753E-03  0.753E-03
   4.500  0.115E+00  0.114E+00  0.711E-03  0.711E-03
   4.510  0.112E+00  0.110E+00  0.667E-03  0.667E-03
   4.520  0.106E+00  0.105E+00  0.627E-03  0.627E-03
   4.530  0.992E-01  0.980E-01  0.594E-03  0.594E-03
   4.540  0.916E-01  0.905E-01  0.567E-03  0.567E-03
   4.550  0.845E-01  0.834E-01  0.547E-03  0.547E-03
   4.560  0.788E-01  0.778E-01  0.532E-03  0.532E-03
   4.570  0.753E-01  0.743E-01  0.520E-03  0.520E-03
   4.580  0.744E-01  0.734E-01  0.512E-03  0.512E-03
   4.590  0.760E-01  0.750E-01  0.511E-03  0.511E-03
   4.600  0.796E-01  0.785E-01  0.517E-03  0.517E-03
   4.610  0.843E-01  0.832E-01  0.536E-03  0.536E-03
   4.620  0.891E-01  0.880E-01  0.568E-03  0.568E-03
   4.630  0.931E-01  0.919E-01  0.613E-03  0.613E-03
   4.640  0.956E-01  0.943E-01  0.669E-03  0.669E-03
   4.650  0.963E-01  0.949E-01  0.732E-03  0.732E-03
   4.660  0.956E-01  0.940E-01  0.795E-03  0.795E-03
   4.670  0.939E-01  0.922E-01  0.851E-03  0.851E-03
   4.680  0.921E-01  0.904E-01  0.894E-03  0.894E-03
   4.690  0.911E-01  0.892E-01  0.920E-03  0.920E-03
   4.700  0.913E-01  0.894E-01  0.925E-03  0.925E-03
   4.710  0.931E-01  0.913E-01  0.911E-03  0.911E-03
   4.720  0.966E-01  0.949E-01  0.879E-03  0.879E-03
   4.730  0.101E+00  0.997E-01  0.835E-03  0.835E-03
   4.740  0.107E+00  0.105E+00  0.784E-03  0.784E-03
   4.750  0.112E+00  0.111E+00  0.733E-03  0.733E-03
   4.760  0.116E+00  0.115E+00  0.687E-03  0.687E-03
   4.770  0.119E+00  0.117E+00  0.651E-03  0.651E-03
   4.780  0.118E+00  0.117E+00  0.626E-03  0.626E-03
   4.790  0.116E+00  0.114E+00  0.612E-03  0.612E-03
   4.800  0.110E+00  0.109E+00  0.607E-03  0.607E-03
   4.810  0.103E+00  0.102E+00  0.609E-03  0.609E-03
   4.820  0.959E-01  0.947E-01  0.614E-03  0.614E-03
   4.830  0.889E-01  0.877E-01  0.620E-03  0.620E-03
   4.840  0.838E-01  0.825E-01  0.627E-03  0.627E-03
   4.850  0.815E-01  0.802E-01  0.637E-03  0.637E-03
   4.860  0.824E-01  0.811E-01  0.653E-03  0.653E-03
   4.870  0.866E-01  0.853E-01  0.681E-03  0.681E-03
   4.880  0.935E-01  0.920E-01  0.721E-03  0.721E-03
   4.890  0.102E+00  0.101E+00  0.776E-03  0.776E-03
   4.900  0.111E+00  0.110E+00  0.841E-03  0.841E-03
   4.910  0.120E+00  0.118E+00  0.910E-03  0.910E-03
   4.920  0.127E+00  0.125E+00  0.974E-03  0.974E-03
   4.930  0.133E+00  0.131E+00  0.102E-02  0.102E-02
   4.940  0.136E+00  0.134E+00  0.105E-02  0.105E-02
   4.950  0.138E+00  0.136E+00  0.106E-02  0.106E-02
   4.960  0.137E+00  0.135E+00  0.104E-02  0.104E-02
   4.970  0.136E+00  0.134E+00  0.100E-02  0.100E-02
   4.980  0.134E+00  0.132E+00  0.952E-03  0.952E-03
   4.990  0.131E+00  0.129E+00  0.892E-03  0.892E-03
   5.000  0.129E+00  0.127E+00  0.831E-03  0.831E-03
   5.010  0.127E+00  0.126E+00  0.775E-03  0.775E-03
   5.020  0.126E+00  0.124E+00  0.728E-03  0.728E-03
   5.030  0.125E+00  0.123E+00  0.693E-03  0.693E-03
   5.040  0.124E+00  0.122E+00  0.671E-03  0.671E-03
   5.050  0.122E+00  0.121E+00  0.662E-03  0.662E-03
   5.060  0.121E+00  0.120E+00  0.666E-03  0.666E-03
   5.070  0.120E+00  0.118E+00  0.682E-03  0.682E-03
   5.080  0.119E+00  0.117E+00  0.708E-03  0.708E-03
   5.090  0.119E+00  0.118E+00  0.743E-03  0.743E-03
   5.100  0.121E+00  0.120E+00  0.787E-03  0.787E-03
   5.110  0.126E+00  0.124E+00  0.839E-03  0.839E-03
   5.120  0.133E+00  0.131E+00  0.900E-03  0.900E-03
   5.130  0.141E+00  0.139E+00  0.970E-03  0.970E-03
   5.140  0.150E+00  0.148E+00  0.105E-02  0.105E-02
   5.150  0.158E+00  0.156E+00  0.113E-02  0.113E-02
   5.160  0.164E+00  0.161E+00  0.121E-02  0.121E-02
   5.170  0.167E+00  0.164E+00  0.128E-02  0.128E-02
   5.180  0.165E+00  0.163E+00  0.133E-02  0.133E-02
   5.190  0.160E+00  0.158E+00  0.134E-02  0.134E-02
   5.200  0.152E+00  0.150E+00  0.132E-02  0.132E-02
   5.210  0.142E+00  0.139E+00  0.126E-02  0.126E-02
   5.220  0.131E+00  0.129E+00  0.116E-02  0.116E-02
   5.230  0.120E+00  0.118E+00  0.104E-02  0.104E-02
   5.240  0.112E+00  0.110E+00  0.908E-03  0.908E-03
   5.250  0.106E+00  0.104E+00  0.773E-03  0.773E-03
   5.260  0.102E+00  0.101E+00  0.648E-03  0.648E-03
   5.270  0.102E+00  0.101E+00  0.542E-03  0.542E-03
   5.280  0.103E+00  0.102E+00  0.462E-03  0.462E-03
   5.290  0.106E+00  0.105E+00  0.408E-03  0.408E-03
   5.300  0.109E+00  0.108E+00  0.380E-03  0.380E-03
   5.310  0.111E+00  0.110E+00  0.375E-03  0.375E-03
   5.320  0.110E+00  0.109E+00  0.387E-03  0.387E-03
   5.330  0.107E+00  0.106E+00  0.412E-03  0.412E-03
   5.340  0.101E+00  0.100E+00  0.444E-03  0.444E-03
   5.350  0.916E-01  0.907E-01  0.478E-03  0.478E-03
   5.360  0.800E-01  0.790E-01  0.513E-03  0.513E-03
   5.370  0.670E-01  0.659E-01  0.546E-03  0.546E-03
   5.380  0.536E-01  0.524E-01  0.578E-03  0.578E-03
   5.390  0.410E-01  0.397E-01  0.611E-03  0.611E-03
   5.400  0.300E-01  0.287E-01  0.647E-03  0.647E-03
   5.410  0.213E-01  0.199E-01  0.687E-03  0.687E-03
   5.420  0.150E-01  0.136E-01  0.733E-03  0.733E-03
   5.430  0.111E-01  0.954E-02  0.784E-03  0.784E-03
   5.440  0.920E-02  0.753E-02  0.838E-03  0.838E-03
   5.450  0.885E-02  0.706E-02  0.894E-03  0.894E-03
   5.460  0.955E-02  0.765E-02  0.949E-03  0.949E-03
   5.470  0.108E-01  0.883E-02  0.100E-02  0.100E-02
   5.480  0.123E-01  0.102E-01  0.105E-02  0.105E-02
   5.490  0.138E-01  0.116E-01  0.108E-02  0.108E-02
   5.500  0.150E-01  0.128E-01  0.112E-02  0.112E-02
   5.510  0.159E-01  0.136E-01  0.114E-02  0.114E-02
   5.520  0.165E-01  0.142E-01  0.116E-02  0.116E-02
   5.530  0.168E-01  0.145E-01  0.116E-02  0.116E-02
   5.540  0.168E-01  0.145E-01  0.116E-02  0.116E-02
   5.550  0.167E-01  0.144E-01  0.114E-02  0.114E-02
   5.560  0.163E-01  0.141E-01  0.112E-02  0.112E-02
   5.570  0.159E-01  0.137E-01  0.109E-02  0.109E-02
   5.580  0.155E-01  0.134E-01  0.106E-02  0.106E-02
   5.590  0.151E-01  0.130E-01  0.103E-02  0.103E-02
   5.600  0.147E-01  0.127E-01  0.998E-03  0.998E-03
   5.610  0.145E-01  0.126E-01  0.975E-03  0.975E-03
   5.620  0.144E-01  0.125E-01  0.959E-03  0.959E-03
   5.630  0.145E-01  0.126E-01  0.950E-03  0.950E-03
   5.640  0.147E-01  0.128E-01  0.946E-03  0.946E-03
   5.650  0.150E-01  0.131E-01  0.945E-03  0.945E-03
   5.660  0.153E-01  0.134E-01  0.946E-03  0.946E-03
   5.670  0.156E-01  0.137E-01  0.949E-03  0.949E-03
   5.680  0.158E-01  0.139E-01  0.957E-03  0.957E-03
   5.690  0.159E-01  0.139E-01  0.973E-03  0.973E-03
   5.700  0.159E-01  0.139E-01  0.100E-02  0.100E-02
   5.710  0.159E-01  0.138E-01  0.105E-02  0.105E-02
   5.720  0.160E-01  0.138E-01  0.112E-02  0.112E-02
   5.730  0.162E-01  0.138E-01  0.120E-02  0.120E-02
   5.740  0.165E-01  0.139E-01  0.129E-02  0.129E-02
   5.750  0.169E-01  0.141E-01  0.139E-02  0.139E-02
   5.760  0.173E-01  0.143E-01  0.147E-02  0.147E-02
   5.770  0.176E-01  0.146E-01  0.153E-02  0.153E-02
   5.780  0.179E-01  0.147E-01  0.156E-02  0.156E-02
   5.790  0.180E-01  0.149E-01  0.156E-02  0.156E-02
   5.800  0.180E-01  0.149E-01  0.154E-02  0.154E-02
   5.810  0.180E-01  0.150E-01  0.151E-02  0.151E-02
   5.820  0.180E-01  0.151E-01  0.147E-02  0.147E-02
   5.830  0.182E-01  0.153E-01  0.143E-02  0.143E-02
   5.840  0.185E-01  0.157E-01  0.141E-02  0.141E-02
   5.850  0.190E-01  0.162E-01  0.139E-02  0.139E-02
   5.860  0.196E-01  0.168E-01  0.139E-02  0.139E-02
   5.870  0.202E-01  0.174E-01  0.138E-02  0.138E-02
   5.880  0.207E-01  0.180E-01  0.137E-02  0.137E-02
   5.890  0.211E-01  0.184E-01  0.136E-02  0.136E-02
   5.900  0.214E-01  0.187E-01  0.133E-02  0.133E-02
   5.910  0.215E-01  0.189E-01  0.130E-02  0.130E-02
   5.920  0.216E-01  0.191E-01  0.127E-02  0.127E-02
   5.930  0.217E-01  0.192E-01  0.123E-02  0.123E-02
   5.940  0.219E-01  0.195E-01  0.121E-02  0.121E-02
   5.950  0.222E-01  0.199E-01  0.119E-02  0.119E-02
   5.960  0.227E-01  0.204E-01  0.118E-02  0.118E-02
   5.970  0.232E-01  0.209E-01  0.118E-02  0.118E-02
   5.980  0.238E-01  0.214E-01  0.120E-02  0.120E-02
   5.990  0.242E-01  0.217E-01  0.122E-02  0.122E-02
   6.000  0.244E-01  0.219E-01  0.127E-02  0.127E-02
   6.010  0.245E-01  0.218E-01  0.133E-02  0.133E-02
   6.020  0.245E-01  0.217E-01  0.142E-02  0.142E-02
   6.030  0.246E-01  0.216E-01  0.152E-02  0.152E-02
   6.040  0.250E-01  0.218E-01  0.163E-02  0.163E-02
   6.050  0.262E-01  0.226E-01  0.176E-02  0.176E-02
   6.060  0.283E-01  0.245E-01  0.188E-02  0.188E-02
   6.070  0.317E-01  0.277E-01  0.200E-02  0.200E-02
   6.080  0.367E-01  0.325E-01  0.209E-02  0.209E-02
   6.090  0.436E-01  0.393E-01  0.215E-02  0.215E-02
   6.100  0.524E-01  0.481E-01  0.218E-02  0.218E-02
   6.110  0.634E-01  0.589E-01  0.220E-02  0.220E-02
   6.120  0.762E-01  0.718E-01  0.221E-02  0.221E-02
   6.130  0.908E-01  0.864E-01  0.222E-02  0.222E-02
   6.140  0.107E+00  0.102E+00  0.225E-02  0.225E-02
   6.150  0.123E+00  0.119E+00  0.230E-02  0.230E-02
   6.160  0.141E+00  0.136E+00  0.237E-02  0.237E-02
   6.170  0.157E+00  0.152E+00  0.246E-02  0.246E-02
   6.180  0.173E+00  0.168E+00  0.257E-02  0.257E-02
   6.190  0.188E+00  0.182E+00  0.268E-02  0.268E-02
   6.200  0.201E+00  0.195E+00  0.279E-02  0.279E-02
   6.210  0.211E+00  0.206E+00  0.290E-02  0.290E-02
   6.220  0.220E+00  0.214E+00  0.299E-02  0.299E-02
   6.230  0.226E+00  0.219E+00  0.307E-02  0.307E-02
   6.240  0.228E+00  0.222E+00  0.313E-02  0.313E-02
   6.250  0.227E+00  0.220E+00  0.316E-02  0.316E-02
   6.260  0.222E+00  0.216E+00  0.316E-02  0.316E-02
   6.270  0.213E+00  0.207E+00  0.313E-02  0.313E-02
   6.280  0.201E+00  0.194E+00  0.306E-02  0.306E-02
   6.290  0.185E+00  0.179E+00  0.297E-02  0.297E-02
   6.300  0.167E+00  0.161E+00  0.287E-02  0.287E-02
   6.310  0.148E+00  0.143E+00  0.276E-02  0.276E-02
   6.320  0.129E+00  0.124E+00  0.267E-02  0.267E-02
   6.330  0.112E+00  0.107E+00  0.261E-02  0.261E-02
   6.340  0.979E-01  0.927E-01  0.258E-02  0.258E-02
   6.350  0.881E-01  0.829E-01  0.259E-02  0.259E-02
   6.360  0.837E-01  0.784E-01  0.264E-02  0.264E-02
   6.370  0.850E-01  0.796E-01  0.271E-02  0.271E-02
   6.380  0.923E-01  0.867E-01  0.279E-02  0.279E-02
   6.390  0.105E+00  0.992E-01  0.286E-02  0.286E-02
   6.400  0.122E+00  0.116E+00  0.292E-02  0.292E-02
   6.410  0.143E+00  0.137E+00  0.294E-02  0.294E-02
   6.420  0.166E+00  0.160E+00  0.292E-02  0.292E-02
   6.430  0.190E+00  0.184E+00  0.288E-02  0.288E-02
   6.440  0.213E+00  0.207E+00  0.282E-02  0.282E-02
   6.450  0.234E+00  0.228E+00  0.274E-02  0.274E-02
   6.460  0.251E+00  0.246E+00  0.267E-02  0.267E-02
   6.470  0.264E+00  0.259E+00  0.260E-02  0.260E-02
   6.480  0.270E+00  0.265E+00  0.253E-02  0.253E-02
   6.490  0.271E+00  0.266E+00  0.247E-02  0.247E-02
   6.500  0.264E+00  0.259E+00  0.241E-02  0.241E-02
   6.510  0.251E+00  0.246E+00  0.234E-02  0.234E-02
   6.520  0.231E+00  0.227E+00  0.228E-02  0.228E-02
   6.530  0.207E+00  0.202E+00  0.221E-02  0.221E-02
   6.540  0.179E+00  0.175E+00  0.214E-02  0.214E-02
   6.550  0.149E+00  0.145E+00  0.207E-02  0.207E-02
   6.560  0.119E+00  0.115E+00  0.200E-02  0.200E-02
   6.570  0.905E-01  0.867E-01  0.192E-02  0.192E-02
   6.580  0.647E-01  0.610E-01  0.184E-02  0.184E-02
   6.590  0.426E-01  0.391E-01  0.175E-02  0.175E-02
   6.600  0.248E-01  0.215E-01  0.167E-02  0.167E-02
   6.610  0.116E-01  0.838E-02  0.160E-02  0.160E-02
   6.620  0.270E-02 -0.406E-03  0.156E-02  0.156E-02
   6.630 -0.232E-02 -0.541E-02  0.155E-02  0.155E-02
   6.640 -0.421E-02 -0.738E-02  0.158E-02  0.158E-02
   6.650 -0.379E-02 -0.712E-02  0.167E-02  0.167E-02
   6.660 -0.188E-02 -0.548E-02  0.180E-02  0.180E-02
   6.670  0.780E-03 -0.315E-02  0.196E-02  0.196E-02
   6.680  0.360E-02 -0.688E-03  0.215E-02  0.215E-02
   6.690  0.619E-02  0.154E-02  0.233E-02  0.233E-02
   6.700  0.830E-02  0.334E-02  0.248E-02  0.248E-02
   6.710  0.985E-02  0.465E-02  0.260E-02  0.260E-02
   6.720  0.108E-01  0.550E-02  0.267E-02  0.267E-02
   6.730  0.114E-01  0.598E-02  0.269E-02  0.269E-02
   6.740  0.115E-01  0.616E-02  0.266E-02  0.266E-02
   6.750  0.113E-01  0.616E-02  0.259E-02  0.259E-02
   6.760  0.110E-01  0.605E-02  0.250E-02  0.250E-02
   6.770  0.107E-01  0.589E-02  0.239E-02  0.239E-02
   6.780  0.103E-01  0.572E-02  0.229E-02  0.229E-02
   6.790  0.996E-02  0.558E-02  0.219E-02  0.219E-02
   6.800  0.966E-02  0.545E-02  0.211E-02  0.211E-02
   6.810  0.939E-02  0.533E-02  0.203E-02  0.203E-02
   6.820  0.912E-02  0.520E-02  0.196E-02  0.196E-02
   6.830  0.883E-02  0.505E-02  0.189E-02  0.189E-02
   6.840  0.853E-02  0.487E-02  0.183E-02  0.183E-02
   6.850  0.821E-02  0.468E-02  0.177E-02  0.177E-02
   6.860  0.792E-02  0.448E-02  0.172E-02  0.172E-02
   6.870  0.769E-02  0.432E-02  0.169E-02  0.169E-02
   6.880  0.756E-02  0.420E-02  0.168E-02  0.168E-02
   6.890  0.754E-02  0.416E-02  0.169E-02  0.169E-02
   6.900  0.765E-02  0.420E-02  0.173E-02  0.173E-02
   6.910  0.789E-02  0.432E-02  0.179E-02  0.179E-02
   6.920  0.825E-02  0.452E-02  0.186E-02  0.186E-02
   6.930  0.872E-02  0.480E-02  0.196E-02  0.196E-02
   6.940  0.929E-02  0.515E-02  0.207E-02  0.207E-02
   6.950  0.999E-02  0.557E-02  0.221E-02  0.221E-02
   6.960  0.108E-01  0.608E-02  0.236E-02  0.236E-02
   6.970  0.118E-01  0.668E-02  0.254E-02  0.254E-02
   6.980  0.129E-01  0.741E-02  0.274E-02  0.274E-02
   6.990  0.142E-01  0.830E-02  0.294E-02  0.294E-02
   7.000  0.156E-01  0.937E-02  0.313E-02  0.313E-02
   7.010  0.172E-01  0.106E-01  0.330E-02  0.330E-02
   7.020  0.190E-01  0.121E-01  0.341E-02  0.341E-02
   7.030  0.207E-01  0.138E-01  0.345E-02  0.345E-02
   7.040  0.225E-01  0.156E-01  0.343E-02  0.343E-02
   7.050  0.242E-01  0.175E-01  0.333E-02  0.333E-02
   7.060  0.257E-01  0.193E-01  0.316E-02  0.316E-02
   7.070  0.269E-01  0.210E-01  0.296E-02  0.296E-02
   7.080  0.279E-01  0.224E-01  0.273E-02  0.273E-02
   7.090  0.286E-01  0.236E-01  0.250E-02  0.250E-02
   7.100  0.290E-01  0.244E-01  0.230E-02  0.230E-02
   7.110  0.292E-01  0.249E-01  0.213E-02  0.213E-02
   7.120  0.293E-01  0.253E-01  0.203E-02  0.203E-02
   7.130  0.294E-01  0.255E-01  0.197E-02  0.197E-02
   7.140  0.295E-01  0.256E-01  0.198E-02  0.198E-02
   7.150  0.297E-01  0.256E-01  0.204E-02  0.204E-02
   7.160  0.300E-01  0.257E-01  0.213E-02  0.213E-02
   7.170  0.303E-01  0.258E-01  0.226E-02  0.226E-02
   7.180  0.307E-01  0.259E-01  0.239E-02  0.239E-02
   7.190  0.310E-01  0.260E-01  0.253E-02  0.253E-02
   7.200  0.314E-01  0.261E-01  0.265E-02  0.265E-02
   7.210  0.318E-01  0.263E-01  0.275E-02  0.275E-02
   7.220  0.321E-01  0.264E-01  0.284E-02  0.284E-02
   7.230  0.325E-01  0.267E-01  0.291E-02  0.291E-02
   7.240  0.329E-01  0.270E-01  0.297E-02  0.297E-02
   7.250  0.334E-01  0.273E-01  0.303E-02  0.303E-02
   7.260  0.339E-01  0.278E-01  0.308E-02  0.308E-02
   7.270  0.345E-01  0.282E-01  0.312E-02  0.312E-02
   7.280  0.351E-01  0.288E-01  0.315E-02  0.315E-02
   7.290  0.356E-01  0.293E-01  0.316E-02  0.316E-02
   7.300  0.362E-01  0.299E-01  0.315E-02  0.315E-02
   7.310  0.367E-01  0.304E-01  0.311E-02  0.311E-02
   7.320  0.372E-01  0.310E-01  0.307E-02  0.307E-02
   7.330  0.377E-01  0.316E-01  0.304E-02  0.304E-02
   7.340  0.383E-01  0.322E-01  0.303E-02  0.303E-02
   7.350  0.390E-01  0.329E-01  0.305E-02  0.305E-02
   7.360  0.396E-01  0.334E-01  0.311E-02  0.311E-02
   7.370  0.402E-01  0.339E-01  0.318E-02  0.318E-02
   7.380  0.408E-01  0.342E-01  0.327E-02  0.327E-02
   7.390  0.411E-01  0.344E-01  0.336E-02  0.336E-02
   7.400  0.413E-01  0.345E-01  0.343E-02  0.343E-02
   7.410  0.414E-01  0.344E-01  0.348E-02  0.348E-02
   7.420  0.414E-01  0.344E-01  0.352E-02  0.352E-02
   7.430  0.414E-01  0.343E-01  0.354E-02  0.354E-02
   7.440  0.416E-01  0.345E-01  0.356E-02  0.356E-02
   7.450  0.420E-01  0.348E-01  0.359E-02  0.359E-02
   7.460  0.428E-01  0.356E-01  0.362E-02  0.362E-02
   7.470  0.440E-01  0.367E-01  0.366E-02  0.366E-02
   7.480  0.457E-01  0.382E-01  0.372E-02  0.372E-02
   7.490  0.477E-01  0.401E-01  0.379E-02  0.379E-02
   7.500  0.501E-01  0.424E-01  0.386E-02  0.386E-02
   7.510  0.528E-01  0.449E-01  0.395E-02  0.395E-02
   7.520  0.556E-01  0.476E-01  0.402E-02  0.402E-02
   7.530  0.587E-01  0.505E-01  0.409E-02  0.409E-02
   7.540  0.620E-01  0.538E-01  0.414E-02  0.414E-02
   7.550  0.657E-01  0.573E-01  0.417E-02  0.417E-02
   7.560  0.697E-01  0.614E-01  0.416E-02  0.416E-02
   7.570  0.743E-01  0.660E-01  0.411E-02  0.411E-02
   7.580  0.794E-01  0.714E-01  0.402E-02  0.402E-02
   7.590  0.853E-01  0.775E-01  0.389E-02  0.389E-02
   7.600  0.920E-01  0.845E-01  0.374E-02  0.374E-02
   7.610  0.997E-01  0.925E-01  0.357E-02  0.357E-02
   7.620  0.108E+00  0.102E+00  0.341E-02  0.341E-02
   7.630  0.119E+00  0.112E+00  0.328E-02  0.328E-02
   7.640  0.131E+00  0.124E+00  0.321E-02  0.321E-02
   7.650  0.146E+00  0.139E+00  0.323E-02  0.323E-02
   7.660  0.163E+00  0.157E+00  0.337E-02  0.337E-02
   7.670  0.184E+00  0.177E+00  0.365E-02  0.365E-02
   7.680  0.208E+00  0.200E+00  0.408E-02  0.408E-02
   7.690  0.234E+00  0.224E+00  0.466E-02  0.466E-02
   7.700  0.258E+00  0.248E+00  0.537E-02  0.537E-02
   7.710  0.280E+00  0.267E+00  0.616E-02  0.616E-02
   7.720  0.294E+00  0.280E+00  0.698E-02  0.698E-02
   7.730  0.298E+00  0.283E+00  0.774E-02  0.774E-02
   7.740  0.291E+00  0.274E+00  0.839E-02  0.839E-02
   7.750  0.272E+00  0.254E+00  0.885E-02  0.885E-02
   7.760  0.243E+00  0.225E+00  0.908E-02  0.908E-02
   7.770  0.207E+00  0.189E+00  0.908E-02  0.908E-02
   7.780  0.168E+00  0.150E+00  0.888E-02  0.888E-02
   7.790  0.129E+00  0.112E+00  0.851E-02  0.851E-02
   7.800  0.959E-01  0.798E-01  0.805E-02  0.805E-02
   7.810  0.690E-01  0.539E-01  0.757E-02  0.757E-02
   7.820  0.497E-01  0.355E-01  0.713E-02  0.713E-02
   7.830  0.376E-01  0.241E-01  0.676E-02  0.676E-02
   7.840  0.313E-01  0.183E-01  0.649E-02  0.649E-02
   7.850  0.292E-01  0.165E-01  0.633E-02  0.633E-02
   7.860  0.294E-01  0.169E-01  0.626E-02  0.626E-02
   7.870  0.306E-01  0.181E-01  0.625E-02  0.625E-02
   7.880  0.319E-01  0.193E-01  0.629E-02  0.629E-02
   7.890  0.328E-01  0.201E-01  0.633E-02  0.633E-02
   7.900  0.331E-01  0.204E-01  0.635E-02  0.635E-02
   7.910  0.330E-01  0.203E-01  0.634E-02  0.634E-02
   7.920  0.327E-01  0.201E-01  0.631E-02  0.631E-02
   7.930  0.323E-01  0.197E-01  0.627E-02  0.627E-02
   7.940  0.319E-01  0.194E-01  0.625E-02  0.625E-02
   7.950  0.316E-01  0.190E-01  0.628E-02  0.628E-02
   7.960  0.314E-01  0.186E-01  0.637E-02  0.637E-02
   7.970  0.311E-01  0.181E-01  0.654E-02  0.654E-02
   7.980  0.309E-01  0.173E-01  0.676E-02  0.676E-02
   7.990  0.305E-01  0.165E-01  0.700E-02  0.700E-02
   8.000  0.300E-01  0.156E-01  0.723E-02  0.723E-02
   8.010  0.295E-01  0.147E-01  0.741E-02  0.741E-02
   8.020  0.289E-01  0.139E-01  0.751E-02  0.751E-02
   8.030  0.284E-01  0.134E-01  0.751E-02  0.751E-02
   8.040  0.280E-01  0.132E-01  0.743E-02  0.743E-02
   8.050  0.278E-01  0.133E-01  0.729E-02  0.729E-02
   8.060  0.278E-01  0.136E-01  0.713E-02  0.713E-02
   8.070  0.280E-01  0.140E-01  0.699E-02  0.699E-02
   8.080  0.284E-01  0.146E-01  0.690E-02  0.690E-02
   8.090  0.289E-01  0.151E-01  0.689E-02  0.689E-02
   8.100  0.294E-01  0.155E-01  0.694E-02  0.694E-02
   8.110  0.297E-01  0.156E-01  0.706E-02  0.706E-02
   8.120  0.299E-01  0.154E-01  0.722E-02  0.722E-02
   8.130  0.298E-01  0.150E-01  0.740E-02  0.740E-02
   8.140  0.293E-01  0.142E-01  0.756E-02  0.756E-02
   8.150  0.286E-01  0.132E-01  0.768E-02  0.768E-02
   8.160  0.276E-01  0.121E-01  0.775E-02  0.775E-02
   8.170  0.266E-01  0.111E-01  0.777E-02  0.777E-02
   8.180  0.257E-01  0.102E-01  0.773E-02  0.773E-02
   8.190  0.249E-01  0.957E-02  0.766E-02  0.766E-02
   8.200  0.243E-01  0.921E-02  0.757E-02  0.757E-02
   8.210  0.241E-01  0.911E-02  0.747E-02  0.747E-02
   8.220  0.240E-01  0.921E-02  0.740E-02  0.740E-02
   8.230  0.242E-01  0.945E-02  0.737E-02  0.737E-02
   8.240  0.246E-01  0.977E-02  0.740E-02  0.740E-02
   8.250  0.251E-01  0.101E-01  0.749E-02  0.749E-02
   8.260  0.258E-01  0.105E-01  0.764E-02  0.764E-02
   8.270  0.266E-01  0.109E-01  0.783E-02  0.783E-02
   8.280  0.274E-01  0.114E-01  0.804E-02  0.804E-02
   8.290  0.283E-01  0.118E-01  0.823E-02  0.823E-02
   8.300  0.290E-01  0.122E-01  0.836E-02  0.836E-02
   8.310  0.294E-01  0.126E-01  0.841E-02  0.841E-02
   8.320  0.294E-01  0.127E-01  0.834E-02  0.834E-02
   8.330  0.291E-01  0.127E-01  0.817E-02  0.817E-02
   8.340  0.283E-01  0.125E-01  0.791E-02  0.791E-02
   8.350  0.273E-01  0.121E-01  0.760E-02  0.760E-02
   8.360  0.263E-01  0.116E-01  0.732E-02  0.732E-02
   8.370  0.254E-01  0.112E-01  0.712E-02  0.712E-02
   8.380  0.250E-01  0.108E-01  0.706E-02  0.706E-02
   8.390  0.249E-01  0.106E-01  0.716E-02  0.716E-02
   8.400  0.252E-01  0.104E-01  0.742E-02  0.742E-02
   8.410  0.258E-01  0.103E-01  0.779E-02  0.779E-02
   8.420  0.265E-01  0.100E-01  0.822E-02  0.822E-02
   8.430  0.270E-01  0.971E-02  0.865E-02  0.865E-02
   8.440  0.273E-01  0.924E-02  0.901E-02  0.901E-02
   8.450  0.273E-01  0.867E-02  0.929E-02  0.929E-02
   8.460  0.271E-01  0.810E-02  0.950E-02  0.950E-02
   8.470  0.270E-01  0.766E-02  0.967E-02  0.967E-02
   8.480  0.272E-01  0.747E-02  0.986E-02  0.986E-02
   8.490  0.278E-01  0.762E-02  0.101E-01  0.101E-01
   8.500  0.290E-01  0.811E-02  0.104E-01  0.104E-01
   8.510  0.306E-01  0.889E-02  0.108E-01  0.108E-01
   8.520  0.324E-01  0.983E-02  0.113E-01  0.113E-01
   8.530  0.342E-01  0.108E-01  0.117E-01  0.117E-01
   8.540  0.357E-01  0.116E-01  0.121E-01  0.121E-01
   8.550  0.366E-01  0.121E-01  0.122E-01  0.122E-01
   8.560  0.367E-01  0.123E-01  0.122E-01  0.122E-01
   8.570  0.362E-01  0.123E-01  0.120E-01  0.120E-01
   8.580  0.351E-01  0.120E-01  0.115E-01  0.115E-01
   8.590  0.336E-01  0.117E-01  0.109E-01  0.109E-01
   8.600  0.320E-01  0.115E-01  0.103E-01  0.103E-01
   8.610  0.305E-01  0.114E-01  0.956E-02  0.956E-02
   8.620  0.293E-01  0.116E-01  0.888E-02  0.888E-02
   8.630  0.284E-01  0.119E-01  0.825E-02  0.825E-02
   8.640  0.277E-01  0.123E-01  0.772E-02  0.772E-02
   8.650  0.273E-01  0.127E-01  0.728E-02  0.728E-02
   8.660  0.269E-01  0.130E-01  0.697E-02  0.697E-02
   8.670  0.267E-01  0.131E-01  0.680E-02  0.680E-02
   8.680  0.266E-01  0.130E-01  0.679E-02  0.679E-02
   8.690  0.267E-01  0.128E-01  0.695E-02  0.695E-02
   8.700  0.272E-01  0.126E-01  0.731E-02  0.731E-02
   8.710  0.282E-01  0.124E-01  0.787E-02  0.787E-02
   8.720  0.298E-01  0.125E-01  0.865E-02  0.865E-02
   8.730  0.321E-01  0.128E-01  0.962E-02  0.962E-02
   8.740  0.349E-01  0.134E-01  0.108E-01  0.108E-01
   8.750  0.381E-01  0.141E-01  0.120E-01  0.120E-01
   8.760  0.413E-01  0.147E-01  0.133E-01  0.133E-01
   8.770  0.441E-01  0.152E-01  0.144E-01  0.144E-01
   8.780  0.462E-01  0.153E-01  0.155E-01  0.155E-01
   8.790  0.475E-01  0.150E-01  0.162E-01  0.162E-01
   8.800  0.478E-01  0.143E-01  0.168E-01  0.168E-01
   8.810  0.474E-01  0.133E-01  0.170E-01  0.170E-01
   8.820  0.465E-01  0.124E-01  0.171E-01  0.171E-01
   8.830  0.454E-01  0.116E-01  0.169E-01  0.169E-01
   8.840  0.444E-01  0.111E-01  0.167E-01  0.167E-01
   8.850  0.437E-01  0.110E-01  0.163E-01  0.163E-01
   8.860  0.432E-01  0.113E-01  0.159E-01  0.159E-01
   8.870  0.427E-01  0.117E-01  0.155E-01  0.155E-01
   8.880  0.423E-01  0.121E-01  0.151E-01  0.151E-01
   8.890  0.416E-01  0.122E-01  0.147E-01  0.147E-01
   8.900  0.408E-01  0.120E-01  0.144E-01  0.144E-01
   8.910  0.399E-01  0.114E-01  0.143E-01  0.143E-01
   8.920  0.392E-01  0.105E-01  0.143E-01  0.143E-01
   8.930  0.387E-01  0.944E-02  0.146E-01  0.146E-01
   8.940  0.389E-01  0.842E-02  0.152E-01  0.152E-01
   8.950  0.397E-01  0.764E-02  0.160E-01  0.160E-01
   8.960  0.412E-01  0.721E-02  0.170E-01  0.170E-01
   8.970  0.432E-01  0.714E-02  0.180E-01  0.180E-01
   8.980  0.453E-01  0.738E-02  0.190E-01  0.190E-01
   8.990  0.474E-01  0.780E-02  0.198E-01  0.198E-01
   9.000  0.489E-01  0.823E-02  0.203E-01  0.203E-01
   9.010  0.497E-01  0.851E-02  0.206E-01  0.206E-01
   9.020  0.496E-01  0.852E-02  0.205E-01  0.205E-01
   9.030  0.485E-01  0.820E-02  0.201E-01  0.201E-01
   9.040  0.466E-01  0.760E-02  0.195E-01  0.195E-01
   9.050  0.442E-01  0.680E-02  0.187E-01  0.187E-01
   9.060  0.416E-01  0.593E-02  0.178E-01  0.178E-01
   9.070  0.391E-01  0.515E-02  0.170E-01  0.170E-01
   9.080  0.372E-01  0.458E-02  0.163E-01  0.163E-01
   9.090  0.360E-01  0.429E-02  0.158E-01  0.158E-01
   9.100  0.356E-01  0.429E-02  0.157E-01  0.157E-01
   9.110  0.362E-01  0.455E-02  0.158E-01  0.158E-01
   9.120  0.375E-01  0.496E-02  0.163E-01  0.163E-01
   9.130  0.394E-01  0.539E-02  0.170E-01  0.170E-01
   9.140  0.415E-01  0.574E-02  0.179E-01  0.179E-01
   9.150  0.436E-01  0.590E-02  0.188E-01  0.188E-01
   9.160  0.453E-01  0.580E-02  0.197E-01  0.197E-01
   9.170  0.465E-01  0.547E-02  0.205E-01  0.205E-01
   9.180  0.473E-01  0.493E-02  0.212E-01  0.212E-01
   9.190  0.475E-01  0.428E-02  0.216E-01  0.216E-01
   9.200  0.475E-01  0.364E-02  0.219E-01  0.219E-01
   9.210  0.475E-01  0.309E-02  0.222E-01  0.222E-01
   9.220  0.475E-01  0.274E-02  0.224E-01  0.224E-01
   9.230  0.477E-01  0.260E-02  0.225E-01  0.225E-01
   9.240  0.479E-01  0.269E-02  0.226E-01  0.226E-01
   9.250  0.480E-01  0.296E-02  0.225E-01  0.225E-01
   9.260  0.479E-01  0.333E-02  0.223E-01  0.223E-01
   9.270  0.472E-01  0.373E-02  0.218E-01  0.218E-01
   9.280  0.461E-01  0.406E-02  0.210E-01  0.210E-01
   9.290  0.444E-01  0.425E-02  0.201E-01  0.201E-01
   9.300  0.424E-01  0.427E-02  0.191E-01  0.191E-01
   9.310  0.403E-01  0.410E-02  0.181E-01  0.181E-01
   9.320  0.385E-01  0.376E-02  0.174E-01  0.174E-01
   9.330  0.373E-01  0.332E-02  0.170E-01  0.170E-01
   9.340  0.371E-01  0.283E-02  0.171E-01  0.171E-01
   9.350  0.380E-01  0.239E-02  0.178E-01  0.178E-01
   9.360  0.403E-01  0.207E-02  0.191E-01  0.191E-01
   9.370  0.442E-01  0.191E-02  0.212E-01  0.212E-01
   9.380  0.498E-01  0.195E-02  0.239E-01  0.239E-01
   9.390  0.570E-01  0.219E-02  0.274E-01  0.274E-01
   9.400  0.658E-01  0.259E-02  0.316E-01  0.316E-01
   9.410  0.760E-01  0.313E-02  0.364E-01  0.364E-01
   9.420  0.873E-01  0.374E-02  0.418E-01  0.418E-01
   9.430  0.994E-01  0.439E-02  0.475E-01  0.475E-01
   9.440  0.112E+00  0.503E-02  0.535E-01  0.535E-01
   9.450  0.125E+00  0.562E-02  0.595E-01  0.595E-01
   9.460  0.137E+00  0.614E-02  0.655E-01  0.655E-01
   9.470  0.149E+00  0.660E-02  0.713E-01  0.713E-01
   9.480  0.161E+00  0.699E-02  0.771E-01  0.771E-01
   9.490  0.173E+00  0.735E-02  0.829E-01  0.829E-01
   9.500  0.185E+00  0.770E-02  0.888E-01  0.888E-01
   9.510  0.197E+00  0.806E-02  0.947E-01  0.947E-01
   9.520  0.210E+00  0.846E-02  0.101E+00  0.101E+00
   9.530  0.223E+00  0.889E-02  0.107E+00  0.107E+00
   9.540  0.235E+00  0.936E-02  0.113E+00  0.113E+00
   9.550  0.247E+00  0.986E-02  0.119E+00  0.119E+00
   9.560  0.258E+00  0.104E-01  0.124E+00  0.124E+00
   9.570  0.267E+00  0.109E-01  0.128E+00  0.128E+00
   9.580  0.272E+00  0.115E-01  0.130E+00  0.130E+00
   9.590  0.274E+00  0.121E-01  0.131E+00  0.131E+00
   9.600  0.272E+00  0.129E-01  0.129E+00  0.129E+00
   9.610  0.265E+00  0.140E-01  0.125E+00  0.125E+00
   9.620  0.253E+00  0.156E-01  0.119E+00  0.119E+00
   9.630  0.238E+00  0.180E-01  0.110E+00  0.110E+00
   9.640  0.221E+00  0.216E-01  0.995E-01  0.995E-01
   9.650  0.204E+00  0.270E-01  0.883E-01  0.883E-01
   9.660  0.189E+00  0.346E-01  0.772E-01  0.772E-01
   9.670  0.179E+00  0.450E-01  0.670E-01  0.670E-01
   9.680  0.175E+00  0.584E-01  0.583E-01  0.583E-01
   9.690  0.178E+00  0.746E-01  0.516E-01  0.516E-01
   9.700  0.187E+00  0.933E-01  0.469E-01  0.469E-01
   9.710  0.202E+00  0.113E+00  0.443E-01  0.443E-01
   9.720  0.220E+00  0.134E+00  0.432E-01  0.432E-01
   9.730  0.239E+00  0.153E+00  0.433E-01  0.433E-01
   9.740  0.257E+00  0.168E+00  0.441E-01  0.441E-01
   9.750  0.271E+00  0.180E+00  0.452E-01  0.452E-01
   9.760  0.280E+00  0.187E+00  0.464E-01  0.464E-01
   9.770  0.284E+00  0.189E+00  0.474E-01  0.474E-01
   9.780  0.284E+00  0.188E+00  0.481E-01  0.481E-01
   9.790  0.280E+00  0.183E+00  0.486E-01  0.486E-01
   9.800  0.276E+00  0.178E+00  0.489E-01  0.489E-01
   9.810  0.271E+00  0.173E+00  0.490E-01  0.490E-01
   9.820  0.269E+00  0.171E+00  0.489E-01  0.489E-01
   9.830  0.270E+00  0.172E+00  0.487E-01  0.487E-01
   9.840  0.274E+00  0.177E+00  0.485E-01  0.485E-01
   9.850  0.282E+00  0.185E+00  0.484E-01  0.484E-01
   9.860  0.292E+00  0.195E+00  0.484E-01  0.484E-01
   9.870  0.303E+00  0.206E+00  0.486E-01  0.486E-01
   9.880  0.314E+00  0.215E+00  0.491E-01  0.491E-01
   9.890  0.320E+00  0.221E+00  0.498E-01  0.498E-01
   9.900  0.321E+00  0.221E+00  0.504E-01  0.504E-01
   9.910  0.314E+00  0.213E+00  0.508E-01  0.508E-01
   9.920  0.298E+00  0.197E+00  0.506E-01  0.506E-01
   9.930  0.272E+00  0.173E+00  0.496E-01  0.496E-01
   9.940  0.239E+00  0.144E+00  0.476E-01  0.476E-01
   9.950  0.201E+00  0.111E+00  0.447E-01  0.447E-01
   9.960  0.161E+00  0.786E-01  0.411E-01  0.411E-01
   9.970  0.123E+00  0.485E-01  0.370E-01  0.370E-01
   9.980  0.895E-01  0.234E-01  0.330E-01  0.330E-01
   9.990  0.634E-01  0.445E-02  0.295E-01  0.295E-01
  10.000  0.455E-01 -0.796E-02  0.267E-01  0.267E-01
  10.010  0.352E-01 -0.145E-01  0.248E-01  0.248E-01
  10.020  0.315E-01 -0.163E-01  0.239E-01  0.239E-01
  10.030  0.325E-01 -0.149E-01  0.237E-01  0.237E-01
  10.040  0.365E-01 -0.118E-01  0.241E-01  0.241E-01
  10.050  0.416E-01 -0.793E-02  0.248E-01  0.248E-01
  10.060  0.467E-01 -0.423E-02  0.255E-01  0.255E-01
  10.070  0.510E-01 -0.109E-02  0.260E-01  0.260E-01
  10.080  0.541E-01  0.135E-02  0.264E-01  0.264E-01
  10.090  0.562E-01  0.309E-02  0.265E-01  0.265E-01
  10.100  0.574E-01  0.426E-02  0.266E-01  0.266E-01
  10.110  0.582E-01  0.499E-02  0.266E-01  0.266E-01
  10.120  0.589E-01  0.543E-02  0.267E-01  0.267E-01
  10.130  0.597E-01  0.567E-02  0.270E-01  0.270E-01
  10.140  0.607E-01  0.580E-02  0.275E-01  0.275E-01
  10.150  0.619E-01  0.588E-02  0.280E-01  0.280E-01
  10.160  0.631E-01  0.592E-02  0.286E-01  0.286E-01
  10.170  0.641E-01  0.593E-02  0.291E-01  0.291E-01
  10.180  0.646E-01  0.590E-02  0.294E-01  0.294E-01
  10.190  0.646E-01  0.581E-02  0.294E-01  0.294E-01
  10.200  0.642E-01  0.565E-02  0.293E-01  0.293E-01
  10.210  0.634E-01  0.542E-02  0.290E-01  0.290E-01
  10.220  0.626E-01  0.514E-02  0.287E-01  0.287E-01
  10.230  0.620E-01  0.482E-02  0.286E-01  0.286E-01
  10.240  0.617E-01  0.449E-02  0.286E-01  0.286E-01
  10.250  0.618E-01  0.419E-02  0.288E-01  0.288E-01
  10.260  0.622E-01  0.395E-02  0.291E-01  0.291E-01
  10.270  0.625E-01  0.379E-02  0.294E-01  0.294E-01
  10.280  0.626E-01  0.369E-02  0.294E-01  0.294E-01
  10.290  0.621E-01  0.366E-02  0.292E-01  0.292E-01
  10.300  0.610E-01  0.367E-02  0.287E-01  0.287E-01
  10.310  0.593E-01  0.370E-02  0.278E-01  0.278E-01
  10.320  0.570E-01  0.371E-02  0.267E-01  0.267E-01
  10.330  0.544E-01  0.368E-02  0.254E-01  0.254E-01
  10.340  0.518E-01  0.361E-02  0.241E-01  0.241E-01
  10.350  0.494E-01  0.351E-02  0.230E-01  0.230E-01
  10.360  0.476E-01  0.340E-02  0.221E-01  0.221E-01
  10.370  0.464E-01  0.328E-02  0.215E-01  0.215E-01
  10.380  0.460E-01  0.320E-02  0.214E-01  0.214E-01
  10.390  0.464E-01  0.316E-02  0.216E-01  0.216E-01
  10.400  0.477E-01  0.317E-02  0.223E-01  0.223E-01
  10.410  0.495E-01  0.321E-02  0.231E-01  0.231E-01
  10.420  0.517E-01  0.326E-02  0.242E-01  0.242E-01
  10.430  0.540E-01  0.332E-02  0.253E-01  0.253E-01
  10.440  0.561E-01  0.335E-02  0.264E-01  0.264E-01
  10.450  0.578E-01  0.334E-02  0.272E-01  0.272E-01
  10.460  0.590E-01  0.330E-02  0.279E-01  0.279E-01
  10.470  0.597E-01  0.322E-02  0.282E-01  0.282E-01
  10.480  0.599E-01  0.314E-02  0.284E-01  0.284E-01
  10.490  0.597E-01  0.305E-02  0.283E-01  0.283E-01
  10.500  0.592E-01  0.298E-02  0.281E-01  0.281E-01
  10.510  0.586E-01  0.293E-02  0.278E-01  0.278E-01
  10.520  0.578E-01  0.292E-02  0.274E-01  0.274E-01
  10.530  0.569E-01  0.295E-02  0.270E-01  0.270E-01
  10.540  0.559E-01  0.300E-02  0.265E-01  0.265E-01
  10.550  0.548E-01  0.308E-02  0.259E-01  0.259E-01
  10.560  0.535E-01  0.317E-02  0.252E-01  0.252E-01
  10.570  0.521E-01  0.327E-02  0.244E-01  0.244E-01
  10.580  0.506E-01  0.336E-02  0.236E-01  0.236E-01
  10.590  0.492E-01  0.344E-02  0.229E-01  0.229E-01
  10.600  0.480E-01  0.351E-02  0.223E-01  0.223E-01
  10.610  0.472E-01  0.358E-02  0.218E-01  0.218E-01
  10.620  0.468E-01  0.363E-02  0.216E-01  0.216E-01
  10.630  0.466E-01  0.367E-02  0.215E-01  0.215E-01
  10.640  0.466E-01  0.369E-02  0.214E-01  0.214E-01
  10.650  0.465E-01  0.369E-02  0.214E-01  0.214E-01
  10.660  0.464E-01  0.364E-02  0.214E-01  0.214E-01
  10.670  0.460E-01  0.356E-02  0.212E-01  0.212E-01
  10.680  0.455E-01  0.344E-02  0.211E-01  0.211E-01
  10.690  0.451E-01  0.328E-02  0.209E-01  0.209E-01
  10.700  0.449E-01  0.311E-02  0.209E-01  0.209E-01
  10.710  0.452E-01  0.294E-02  0.211E-01  0.211E-01
  10.720  0.461E-01  0.279E-02  0.217E-01  0.217E-01
  10.730  0.476E-01  0.266E-02  0.225E-01  0.225E-01
  10.740  0.497E-01  0.258E-02  0.236E-01  0.236E-01
  10.750  0.523E-01  0.255E-02  0.249E-01  0.249E-01
  10.760  0.552E-01  0.257E-02  0.263E-01  0.263E-01
  10.770  0.583E-01  0.264E-02  0.278E-01  0.278E-01
  10.780  0.613E-01  0.276E-02  0.293E-01  0.293E-01
  10.790  0.641E-01  0.292E-02  0.306E-01  0.306E-01
  10.800  0.665E-01  0.311E-02  0.317E-01  0.317E-01
  10.810  0.683E-01  0.331E-02  0.325E-01  0.325E-01
  10.820  0.693E-01  0.350E-02  0.329E-01  0.329E-01
  10.830  0.695E-01  0.367E-02  0.329E-01  0.329E-01
  10.840  0.688E-01  0.379E-02  0.325E-01  0.325E-01
  10.850  0.673E-01  0.386E-02  0.317E-01  0.317E-01
  10.860  0.653E-01  0.387E-02  0.307E-01  0.307E-01
  10.870  0.630E-01  0.383E-02  0.296E-01  0.296E-01
  10.880  0.606E-01  0.374E-02  0.284E-01  0.284E-01
  10.890  0.585E-01  0.362E-02  0.274E-01  0.274E-01
  10.900  0.567E-01  0.349E-02  0.266E-01  0.266E-01
  10.910  0.554E-01  0.336E-02  0.260E-01  0.260E-01
  10.920  0.546E-01  0.325E-02  0.257E-01  0.257E-01
  10.930  0.542E-01  0.316E-02  0.255E-01  0.255E-01
  10.940  0.541E-01  0.310E-02  0.255E-01  0.255E-01
  10.950  0.542E-01  0.306E-02  0.256E-01  0.256E-01
  10.960  0.542E-01  0.303E-02  0.256E-01  0.256E-01
  10.970  0.543E-01  0.300E-02  0.256E-01  0.256E-01
  10.980  0.543E-01  0.296E-02  0.257E-01  0.257E-01
  10.990  0.543E-01  0.291E-02  0.257E-01  0.257E-01
  11.000  0.543E-01  0.283E-02  0.258E-01  0.258E-01
  11.010  0.546E-01  0.272E-02  0.259E-01  0.259E-01
  11.020  0.549E-01  0.259E-02  0.261E-01  0.261E-01
  11.030  0.552E-01  0.244E-02  0.264E-01  0.264E-01
  11.040  0.554E-01  0.229E-02  0.266E-01  0.266E-01
  11.050  0.553E-01  0.214E-02  0.266E-01  0.266E-01
  11.060  0.547E-01  0.201E-02  0.263E-01  0.263E-01
  11.070  0.535E-01  0.192E-02  0.258E-01  0.258E-01
  11.080  0.518E-01  0.188E-02  0.250E-01  0.250E-01
  11.090  0.499E-01  0.188E-02  0.240E-01  0.240E-01
  11.100  0.480E-01  0.193E-02  0.230E-01  0.230E-01
  11.110  0.465E-01  0.201E-02  0.222E-01  0.222E-01
  11.120  0.455E-01  0.210E-02  0.217E-01  0.217E-01
  11.130  0.452E-01  0.218E-02  0.215E-01  0.215E-01
  11.140  0.454E-01  0.224E-02  0.216E-01  0.216E-01
  11.150  0.458E-01  0.225E-02  0.218E-01  0.218E-01
  11.160  0.462E-01  0.221E-02  0.220E-01  0.220E-01
  11.170  0.464E-01  0.215E-02  0.221E-01  0.221E-01
  11.180  0.460E-01  0.206E-02  0.220E-01  0.220E-01
  11.190  0.453E-01  0.199E-02  0.217E-01  0.217E-01
  11.200  0.444E-01  0.194E-02  0.212E-01  0.212E-01
  11.210  0.436E-01  0.194E-02  0.208E-01  0.208E-01
  11.220  0.433E-01  0.198E-02  0.206E-01  0.206E-01
  11.230  0.437E-01  0.206E-02  0.208E-01  0.208E-01
  11.240  0.450E-01  0.217E-02  0.214E-01  0.214E-01
  11.250  0.471E-01  0.228E-02  0.224E-01  0.224E-01
  11.260  0.498E-01  0.237E-02  0.237E-01  0.237E-01
  11.270  0.526E-01  0.242E-02  0.251E-01  0.251E-01
  11.280  0.550E-01  0.242E-02  0.263E-01  0.263E-01
  11.290  0.568E-01  0.237E-02  0.272E-01  0.272E-01
  11.300  0.575E-01  0.227E-02  0.276E-01  0.276E-01
  11.310  0.570E-01  0.214E-02  0.274E-01  0.274E-01
  11.320  0.554E-01  0.199E-02  0.267E-01  0.267E-01
  11.330  0.530E-01  0.183E-02  0.256E-01  0.256E-01
  11.340  0.502E-01  0.170E-02  0.242E-01  0.242E-01
  11.350  0.473E-01  0.159E-02  0.229E-01  0.229E-01
  11.360  0.449E-01  0.152E-02  0.217E-01  0.217E-01
  11.370  0.432E-01  0.149E-02  0.208E-01  0.208E-01
  11.380  0.425E-01  0.149E-02  0.205E-01  0.205E-01
  11.390  0.431E-01  0.151E-02  0.208E-01  0.208E-01
  11.400  0.448E-01  0.156E-02  0.216E-01  0.216E-01
  11.410  0.475E-01  0.161E-02  0.230E-01  0.230E-01
  11.420  0.511E-01  0.168E-02  0.247E-01  0.247E-01
  11.430  0.549E-01  0.175E-02  0.266E-01  0.266E-01
  11.440  0.586E-01  0.182E-02  0.284E-01  0.284E-01
  11.450  0.617E-01  0.191E-02  0.299E-01  0.299E-01
  11.460  0.638E-01  0.201E-02  0.309E-01  0.309E-01
  11.470  0.646E-01  0.214E-02  0.312E-01  0.312E-01
  11.480  0.641E-01  0.228E-02  0.309E-01  0.309E-01
  11.490  0.623E-01  0.245E-02  0.299E-01  0.299E-01
  11.500  0.595E-01  0.264E-02  0.284E-01  0.284E-01
  11.510  0.560E-01  0.283E-02  0.266E-01  0.266E-01
  11.520  0.524E-01  0.303E-02  0.247E-01  0.247E-01
  11.530  0.489E-01  0.321E-02  0.229E-01  0.229E-01
  11.540  0.461E-01  0.336E-02  0.214E-01  0.214E-01
  11.550  0.442E-01  0.347E-02  0.203E-01  0.203E-01
  11.560  0.433E-01  0.353E-02  0.199E-01  0.199E-01
  11.570  0.434E-01  0.354E-02  0.199E-01  0.199E-01
  11.580  0.444E-01  0.349E-02  0.204E-01  0.204E-01
  11.590  0.459E-01  0.339E-02  0.212E-01  0.212E-01
  11.600  0.475E-01  0.325E-02  0.221E-01  0.221E-01
  11.610  0.487E-01  0.308E-02  0.228E-01  0.228E-01
  11.620  0.493E-01  0.289E-02  0.232E-01  0.232E-01
  11.630  0.490E-01  0.269E-02  0.231E-01  0.231E-01
  11.640  0.477E-01  0.251E-02  0.226E-01  0.226E-01
  11.650  0.455E-01  0.236E-02  0.216E-01  0.216E-01
  11.660  0.428E-01  0.226E-02  0.203E-01  0.203E-01
  11.670  0.397E-01  0.220E-02  0.188E-01  0.188E-01
  11.680  0.367E-01  0.219E-02  0.172E-01  0.172E-01
  11.690  0.338E-01  0.223E-02  0.158E-01  0.158E-01
  11.700  0.315E-01  0.229E-02  0.146E-01  0.146E-01
  11.710  0.296E-01  0.235E-02  0.136E-01  0.136E-01
  11.720  0.283E-01  0.239E-02  0.130E-01  0.130E-01
  11.730  0.277E-01  0.239E-02  0.127E-01  0.127E-01
  11.740  0.277E-01  0.235E-02  0.127E-01  0.127E-01
  11.750  0.282E-01  0.226E-02  0.130E-01  0.130E-01
  11.760  0.292E-01  0.215E-02  0.135E-01  0.135E-01
  11.770  0.305E-01  0.202E-02  0.142E-01  0.142E-01
  11.780  0.318E-01  0.191E-02  0.150E-01  0.150E-01
  11.790  0.330E-01  0.183E-02  0.156E-01  0.156E-01
  11.800  0.338E-01  0.179E-02  0.160E-01  0.160E-01
  11.810  0.341E-01  0.181E-02  0.161E-01  0.161E-01
  11.820  0.337E-01  0.188E-02  0.159E-01  0.159E-01
  11.830  0.326E-01  0.197E-02  0.153E-01  0.153E-01
  11.840  0.311E-01  0.209E-02  0.145E-01  0.145E-01
  11.850  0.292E-01  0.219E-02  0.135E-01  0.135E-01
  11.860  0.273E-01  0.228E-02  0.125E-01  0.125E-01
  11.870  0.256E-01  0.234E-02  0.116E-01  0.116E-01
  11.880  0.244E-01  0.235E-02  0.110E-01  0.110E-01
  11.890  0.239E-01  0.232E-02  0.108E-01  0.108E-01
  11.900  0.243E-01  0.225E-02  0.110E-01  0.110E-01
  11.910  0.255E-01  0.216E-02  0.117E-01  0.117E-01
  11.920  0.275E-01  0.208E-02  0.127E-01  0.127E-01
  11.930  0.299E-01  0.202E-02  0.140E-01  0.140E-01
  11.940  0.325E-01  0.199E-02  0.152E-01  0.152E-01
  11.950  0.347E-01  0.202E-02  0.163E-01  0.163E-01
  11.960  0.362E-01  0.209E-02  0.170E-01  0.170E-01
  11.970  0.365E-01  0.219E-02  0.172E-01  0.172E-01
  11.980  0.355E-01  0.229E-02  0.166E-01  0.166E-01
  11.990  0.334E-01  0.236E-02  0.155E-01  0.155E-01
  12.000  0.303E-01  0.238E-02  0.140E-01  0.140E-01
  12.010  0.268E-01  0.233E-02  0.122E-01  0.122E-01
  12.020  0.234E-01  0.221E-02  0.106E-01  0.106E-01
  12.030  0.207E-01  0.202E-02  0.933E-02  0.933E-02
  12.040  0.190E-01  0.178E-02  0.861E-02  0.861E-02
  12.050  0.186E-01  0.153E-02  0.852E-02  0.852E-02
  12.060  0.194E-01  0.128E-02  0.904E-02  0.904E-02
  12.070  0.211E-01  0.107E-02  0.100E-01  0.100E-01
  12.080  0.235E-01  0.924E-03  0.113E-01  0.113E-01
  12.090  0.262E-01  0.842E-03  0.127E-01  0.127E-01
  12.100  0.287E-01  0.833E-03  0.139E-01  0.139E-01
  12.110  0.309E-01  0.892E-03  0.150E-01  0.150E-01
  12.120  0.326E-01  0.101E-02  0.158E-01  0.158E-01
  12.130  0.338E-01  0.116E-02  0.163E-01  0.163E-01
  12.140  0.345E-01  0.134E-02  0.166E-01  0.166E-01
  12.150  0.349E-01  0.152E-02  0.167E-01  0.167E-01
  12.160  0.349E-01  0.169E-02  0.166E-01  0.166E-01
  12.170  0.346E-01  0.182E-02  0.164E-01  0.164E-01
  12.180  0.340E-01  0.191E-02  0.160E-01  0.160E-01
  12.190  0.330E-01  0.195E-02  0.155E-01  0.155E-01
  12.200  0.316E-01  0.193E-02  0.149E-01  0.149E-01
  12.210  0.300E-01  0.187E-02  0.141E-01  0.141E-01
  12.220  0.283E-01  0.179E-02  0.132E-01  0.132E-01
  12.230  0.265E-01  0.169E-02  0.124E-01  0.124E-01
  12.240  0.247E-01  0.160E-02  0.116E-01  0.116E-01
  12.250  0.232E-01  0.152E-02  0.108E-01  0.108E-01
  12.260  0.219E-01  0.147E-02  0.102E-01  0.102E-01
  12.270  0.208E-01  0.145E-02  0.968E-02  0.968E-02
  12.280  0.200E-01  0.146E-02  0.928E-02  0.928E-02
  12.290  0.194E-01  0.148E-02  0.898E-02  0.898E-02
  12.300  0.191E-01  0.151E-02  0.878E-02  0.878E-02
  12.310  0.189E-01  0.153E-02  0.869E-02  0.869E-02
  12.320  0.190E-01  0.156E-02  0.871E-02  0.871E-02
  12.330  0.193E-01  0.157E-02  0.885E-02  0.885E-02
  12.340  0.198E-01  0.157E-02  0.909E-02  0.909E-02
  12.350  0.205E-01  0.157E-02  0.944E-02  0.944E-02
  12.360  0.213E-01  0.157E-02  0.987E-02  0.987E-02
  12.370  0.223E-01  0.158E-02  0.104E-01  0.104E-01
  12.380  0.233E-01  0.158E-02  0.109E-01  0.109E-01
  12.390  0.243E-01  0.159E-02  0.114E-01  0.114E-01
  12.400  0.252E-01  0.159E-02  0.118E-01  0.118E-01
  12.410  0.260E-01  0.158E-02  0.122E-01  0.122E-01
  12.420  0.265E-01  0.156E-02  0.125E-01  0.125E-01
  12.430  0.269E-01  0.152E-02  0.127E-01  0.127E-01
  12.440  0.270E-01  0.147E-02  0.128E-01  0.128E-01
  12.450  0.269E-01  0.141E-02  0.128E-01  0.128E-01
  12.460  0.267E-01  0.135E-02  0.127E-01  0.127E-01
  12.470  0.262E-01  0.129E-02  0.125E-01  0.125E-01
  12.480  0.256E-01  0.123E-02  0.122E-01  0.122E-01
  12.490  0.247E-01  0.117E-02  0.118E-01  0.118E-01
  12.500  0.237E-01  0.112E-02  0.113E-01  0.113E-01
  12.510  0.226E-01  0.107E-02  0.107E-01  0.107E-01
  12.520  0.213E-01  0.101E-02  0.102E-01  0.102E-01
  12.530  0.201E-01  0.953E-03  0.959E-02  0.959E-02
  12.540  0.191E-01  0.888E-03  0.912E-02  0.912E-02
  12.550  0.184E-01  0.826E-03  0.880E-02  0.880E-02
  12.560  0.182E-01  0.774E-03  0.871E-02  0.871E-02
  12.570  0.185E-01  0.743E-03  0.889E-02  0.889E-02
  12.580  0.194E-01  0.741E-03  0.935E-02  0.935E-02
  12.590  0.210E-01  0.777E-03  0.101E-01  0.101E-01
  12.600  0.230E-01  0.856E-03  0.111E-01  0.111E-01
  12.610  0.253E-01  0.979E-03  0.122E-01  0.122E-01
  12.620  0.277E-01  0.114E-02  0.133E-01  0.133E-01
  12.630  0.300E-01  0.134E-02  0.143E-01  0.143E-01
  12.640  0.319E-01  0.156E-02  0.152E-01  0.152E-01
  12.650  0.331E-01  0.180E-02  0.157E-01  0.157E-01
  12.660  0.336E-01  0.205E-02  0.158E-01  0.158E-01
  12.670  0.332E-01  0.230E-02  0.155E-01  0.155E-01
  12.680  0.322E-01  0.254E-02  0.148E-01  0.148E-01
  12.690  0.308E-01  0.276E-02  0.140E-01  0.140E-01
  12.700  0.292E-01  0.298E-02  0.131E-01  0.131E-01
  12.710  0.280E-01  0.318E-02  0.124E-01  0.124E-01
  12.720  0.273E-01  0.336E-02  0.120E-01  0.120E-01
  12.730  0.275E-01  0.353E-02  0.120E-01  0.120E-01
  12.740  0.286E-01  0.367E-02  0.125E-01  0.125E-01
  12.750  0.305E-01  0.378E-02  0.133E-01  0.133E-01
  12.760  0.329E-01  0.385E-02  0.145E-01  0.145E-01
  12.770  0.355E-01  0.386E-02  0.158E-01  0.158E-01
  12.780  0.380E-01  0.381E-02  0.171E-01  0.171E-01
  12.790  0.400E-01  0.369E-02  0.182E-01  0.182E-01
  12.800  0.413E-01  0.350E-02  0.189E-01  0.189E-01
  12.810  0.417E-01  0.324E-02  0.192E-01  0.192E-01
  12.820  0.412E-01  0.292E-02  0.191E-01  0.191E-01
  12.830  0.400E-01  0.255E-02  0.187E-01  0.187E-01
  12.840  0.382E-01  0.217E-02  0.180E-01  0.180E-01
  12.850  0.360E-01  0.179E-02  0.171E-01  0.171E-01
  12.860  0.335E-01  0.144E-02  0.160E-01  0.160E-01
  12.870  0.309E-01  0.114E-02  0.149E-01  0.149E-01
  12.880  0.283E-01  0.891E-03  0.137E-01  0.137E-01
  12.890  0.257E-01  0.704E-03  0.125E-01  0.125E-01
  12.900  0.233E-01  0.572E-03  0.113E-01  0.113E-01
  12.910  0.209E-01  0.486E-03  0.102E-01  0.102E-01
  12.920  0.188E-01  0.433E-03  0.916E-02  0.916E-02
  12.930  0.168E-01  0.401E-03  0.822E-02  0.822E-02
  12.940  0.152E-01  0.380E-03  0.741E-02  0.741E-02
  12.950  0.139E-01  0.366E-03  0.677E-02  0.677E-02
  12.960  0.130E-01  0.356E-03  0.630E-02  0.630E-02
  12.970  0.124E-01  0.353E-03  0.601E-02  0.601E-02
  12.980  0.121E-01  0.358E-03  0.588E-02  0.588E-02
  12.990  0.121E-01  0.372E-03  0.587E-02  0.587E-02
  13.000  0.123E-01  0.396E-03  0.596E-02  0.596E-02
  13.010  0.126E-01  0.428E-03  0.609E-02  0.609E-02
  13.020  0.130E-01  0.464E-03  0.626E-02  0.626E-02
  13.030  0.134E-01  0.501E-03  0.643E-02  0.643E-02
  13.040  0.138E-01  0.535E-03  0.661E-02  0.661E-02
  13.050  0.142E-01  0.566E-03  0.682E-02  0.682E-02
  13.060  0.147E-01  0.594E-03  0.706E-02  0.706E-02
  13.070  0.153E-01  0.622E-03  0.735E-02  0.735E-02
  13.080  0.160E-01  0.652E-03  0.767E-02  0.767E-02
  13.090  0.167E-01  0.687E-03  0.799E-02  0.799E-02
  13.100  0.173E-01  0.726E-03  0.826E-02  0.826E-02
  13.110  0.176E-01  0.768E-03  0.842E-02  0.842E-02
  13.120  0.176E-01  0.808E-03  0.839E-02  0.839E-02
  13.130  0.171E-01  0.839E-03  0.815E-02  0.815E-02
  13.140  0.162E-01  0.855E-03  0.768E-02  0.768E-02
  13.150  0.149E-01  0.849E-03  0.703E-02  0.703E-02
  13.160  0.133E-01  0.818E-03  0.625E-02  0.625E-02
  13.170  0.117E-01  0.763E-03  0.545E-02  0.545E-02
  13.180  0.101E-01  0.687E-03  0.472E-02  0.472E-02
  13.190  0.886E-02  0.600E-03  0.413E-02  0.413E-02
  13.200  0.800E-02  0.510E-03  0.374E-02  0.374E-02
  13.210  0.757E-02  0.428E-03  0.357E-02  0.357E-02
  13.220  0.757E-02  0.362E-03  0.360E-02  0.360E-02
  13.230  0.793E-02  0.317E-03  0.381E-02  0.381E-02
  13.240  0.857E-02  0.296E-03  0.414E-02  0.414E-02
  13.250  0.937E-02  0.295E-03  0.454E-02  0.454E-02
  13.260  0.102E-01  0.312E-03  0.496E-02  0.496E-02
  13.270  0.111E-01  0.339E-03  0.537E-02  0.537E-02
  13.280  0.119E-01  0.372E-03  0.574E-02  0.574E-02
  13.290  0.125E-01  0.406E-03  0.604E-02  0.604E-02
  13.300  0.130E-01  0.438E-03  0.627E-02  0.627E-02
  13.310  0.133E-01  0.467E-03  0.643E-02  0.643E-02
  13.320  0.135E-01  0.495E-03  0.652E-02  0.652E-02
  13.330  0.136E-01  0.521E-03  0.655E-02  0.655E-02
  13.340  0.136E-01  0.546E-03  0.654E-02  0.654E-02
  13.350  0.135E-01  0.569E-03  0.646E-02  0.646E-02
  13.360  0.132E-01  0.585E-03  0.631E-02  0.631E-02
  13.370  0.127E-01  0.593E-03  0.607E-02  0.607E-02
  13.380  0.121E-01  0.588E-03  0.574E-02  0.574E-02
  13.390  0.112E-01  0.567E-03  0.531E-02  0.531E-02
  13.400  0.102E-01  0.532E-03  0.482E-02  0.482E-02
  13.410  0.908E-02  0.487E-03  0.430E-02  0.430E-02
  13.420  0.806E-02  0.438E-03  0.381E-02  0.381E-02
  13.430  0.722E-02  0.395E-03  0.341E-02  0.341E-02
  13.440  0.668E-02  0.363E-03  0.316E-02  0.316E-02
  13.450  0.649E-02  0.351E-03  0.307E-02  0.307E-02
  13.460  0.668E-02  0.360E-03  0.316E-02  0.316E-02
  13.470  0.716E-02  0.389E-03  0.338E-02  0.338E-02
  13.480  0.782E-02  0.432E-03  0.369E-02  0.369E-02
  13.490  0.851E-02  0.481E-03  0.401E-02  0.401E-02
  13.500  0.908E-02  0.526E-03  0.428E-02  0.428E-02
  13.510  0.940E-02  0.559E-03  0.442E-02  0.442E-02
  13.520  0.942E-02  0.575E-03  0.442E-02  0.442E-02
  13.530  0.913E-02  0.571E-03  0.428E-02  0.428E-02
  13.540  0.860E-02  0.550E-03  0.402E-02  0.402E-02
  13.550  0.796E-02  0.518E-03  0.372E-02  0.372E-02
  13.560  0.736E-02  0.484E-03  0.344E-02  0.344E-02
  13.570  0.693E-02  0.456E-03  0.324E-02  0.324E-02
  13.580  0.675E-02  0.440E-03  0.315E-02  0.315E-02
  13.590  0.686E-02  0.439E-03  0.321E-02  0.321E-02
  13.600  0.721E-02  0.453E-03  0.338E-02  0.338E-02
  13.610  0.772E-02  0.477E-03  0.362E-02  0.362E-02
  13.620  0.827E-02  0.505E-03  0.388E-02  0.388E-02
  13.630  0.875E-02  0.530E-03  0.411E-02  0.411E-02
  13.640  0.907E-02  0.547E-03  0.426E-02  0.426E-02
  13.650  0.916E-02  0.552E-03  0.431E-02  0.431E-02
  13.660  0.903E-02  0.544E-03  0.424E-02  0.424E-02
  13.670  0.867E-02  0.523E-03  0.407E-02  0.407E-02
  13.680  0.813E-02  0.492E-03  0.382E-02  0.382E-02
  13.690  0.746E-02  0.453E-03  0.350E-02  0.350E-02
  13.700  0.667E-02  0.407E-03  0.313E-02  0.313E-02
  13.710  0.582E-02  0.356E-03  0.273E-02  0.273E-02
  13.720  0.490E-02  0.301E-03  0.230E-02  0.230E-02
  13.730  0.396E-02  0.243E-03  0.186E-02  0.186E-02
  13.740  0.302E-02  0.185E-03  0.142E-02  0.142E-02
  13.750  0.210E-02  0.129E-03  0.988E-03  0.988E-03
  13.760  0.127E-02  0.777E-04  0.596E-03  0.596E-03
  13.770  0.554E-03  0.336E-04  0.260E-03  0.260E-03
  13.780 -0.106E-04 -0.110E-05 -0.475E-05 -0.475E-05
  13.790 -0.408E-03 -0.255E-04 -0.191E-03 -0.191E-03
  13.800 -0.642E-03 -0.399E-04 -0.301E-03 -0.301E-03
  13.810 -0.733E-03 -0.455E-04 -0.344E-03 -0.344E-03
  13.820 -0.714E-03 -0.445E-04 -0.335E-03 -0.335E-03
  13.830 -0.623E-03 -0.392E-04 -0.292E-03 -0.292E-03
  13.840 -0.494E-03 -0.318E-04 -0.231E-03 -0.231E-03
  13.850 -0.354E-03 -0.240E-04 -0.165E-03 -0.165E-03
  13.860 -0.221E-03 -0.169E-04 -0.102E-03 -0.102E-03
  13.870 -0.102E-03 -0.110E-04 -0.455E-04 -0.455E-04
  13.880  0.915E-06 -0.643E-05  0.367E-05  0.367E-05
  13.890  0.909E-04 -0.314E-05  0.470E-04  0.470E-04
  13.900  0.172E-03 -0.806E-06  0.866E-04  0.866E-04
  13.910  0.249E-03  0.842E-06  0.124E-03  0.124E-03
  13.920  0.322E-03  0.205E-05  0.160E-03  0.160E-03
  13.930  0.392E-03  0.301E-05  0.195E-03  0.195E-03
  13.940  0.457E-03  0.385E-05  0.227E-03  0.227E-03
  13.950  0.515E-03  0.469E-05  0.255E-03  0.255E-03
  13.960  0.563E-03  0.560E-05  0.278E-03  0.278E-03
  13.970  0.601E-03  0.668E-05  0.297E-03  0.297E-03
  13.980  0.631E-03  0.804E-05  0.311E-03  0.311E-03
  13.990  0.657E-03  0.974E-05  0.323E-03  0.323E-03
  14.000  0.682E-03  0.118E-04  0.335E-03  0.335E-03
  14.010  0.710E-03  0.142E-04  0.348E-03  0.348E-03
  14.020  0.738E-03  0.167E-04  0.361E-03  0.361E-03
  14.030  0.764E-03  0.191E-04  0.373E-03  0.373E-03
  14.040  0.780E-03  0.210E-04  0.379E-03  0.379E-03
  14.050  0.776E-03  0.221E-04  0.377E-03  0.377E-03
  14.060  0.745E-03  0.221E-04  0.361E-03  0.361E-03
  14.070  0.682E-03  0.208E-04  0.331E-03  0.331E-03
  14.080  0.590E-03  0.183E-04  0.286E-03  0.286E-03
  14.090  0.476E-03  0.150E-04  0.230E-03  0.230E-03
  14.100  0.352E-03  0.111E-04  0.171E-03  0.171E-03
  14.110  0.233E-03  0.721E-05  0.113E-03  0.113E-03
  14.120  0.131E-03  0.371E-05  0.637E-04  0.637E-04
  14.130  0.560E-04  0.912E-06  0.275E-04  0.275E-04
  14.140  0.121E-04 -0.103E-05  0.655E-05  0.655E-05
  14.150 -0.133E-05 -0.212E-05  0.392E-06  0.392E-06
  14.160  0.111E-04 -0.247E-05  0.677E-05  0.677E-05
  14.170  0.420E-04 -0.228E-05  0.221E-04  0.221E-04
  14.180  0.834E-04 -0.173E-05  0.425E-04  0.425E-04
  14.190  0.127E-03 -0.992E-06  0.642E-04  0.642E-04
  14.200  0.168E-03 -0.184E-06  0.841E-04  0.841E-04
  14.210  0.201E-03  0.618E-06  0.100E-03  0.100E-03
  14.220  0.223E-03  0.137E-05  0.111E-03  0.111E-03
  14.230  0.235E-03  0.206E-05  0.116E-03  0.116E-03
  14.240  0.236E-03  0.265E-05  0.117E-03  0.117E-03
  14.250  0.228E-03  0.311E-05  0.112E-03  0.112E-03
  14.260  0.212E-03  0.343E-05  0.104E-03  0.104E-03
  14.270  0.190E-03  0.355E-05  0.932E-04  0.932E-04
  14.280  0.163E-03  0.346E-05  0.800E-04  0.800E-04
  14.290  0.134E-03  0.318E-05  0.654E-04  0.654E-04
  14.300  0.103E-03  0.272E-05  0.502E-04  0.502E-04
  14.310  0.729E-04  0.214E-05  0.354E-04  0.354E-04
  14.320  0.448E-04  0.152E-05  0.216E-04  0.216E-04
  14.330  0.206E-04  0.915E-06  0.983E-05  0.983E-05
  14.340  0.147E-05  0.396E-06  0.537E-06  0.537E-06
  14.350 -0.120E-04 -0.149E-08 -0.598E-05 -0.598E-05
  14.360 -0.199E-04 -0.265E-06 -0.981E-05 -0.981E-05
  14.370 -0.230E-04 -0.405E-06 -0.113E-04 -0.113E-04
  14.380 -0.226E-04 -0.444E-06 -0.111E-04 -0.111E-04
  14.390 -0.199E-04 -0.415E-06 -0.974E-05 -0.974E-05
  14.400 -0.161E-04 -0.348E-06 -0.788E-05 -0.788E-05
  14.410 -0.121E-04 -0.268E-06 -0.593E-05 -0.593E-05
  14.420 -0.857E-05 -0.193E-06 -0.419E-05 -0.419E-05
  14.430 -0.571E-05 -0.130E-06 -0.279E-05 -0.279E-05
  14.440 -0.360E-05 -0.826E-07 -0.176E-05 -0.176E-05
  14.450 -0.215E-05 -0.496E-07 -0.105E-05 -0.105E-05
  14.460 -0.122E-05 -0.283E-07 -0.596E-06 -0.596E-06
