# E (eV)   ldos(E)   pdos(E)    pdos(E)    pdos(E)   
 -20.380  0.263E-09  0.219E-10  0.121E-09  0.121E-09
 -20.370  0.797E-09  0.642E-10  0.366E-09  0.366E-09
 -20.360  0.232E-08  0.180E-09  0.107E-08  0.107E-08
 -20.350  0.646E-08  0.484E-09  0.299E-08  0.299E-08
 -20.340  0.173E-07  0.125E-08  0.801E-08  0.801E-08
 -20.330  0.444E-07  0.308E-08  0.206E-07  0.206E-07
 -20.320  0.109E-06  0.728E-08  0.510E-07  0.510E-07
 -20.310  0.259E-06  0.165E-07  0.121E-06  0.121E-06
 -20.300  0.588E-06  0.359E-07  0.276E-06  0.276E-06
 -20.290  0.128E-05  0.747E-07  0.604E-06  0.604E-06
 -20.280  0.269E-05  0.149E-06  0.127E-05  0.127E-05
 -20.270  0.543E-05  0.286E-06  0.257E-05  0.257E-05
 -20.260  0.105E-04  0.524E-06  0.500E-05  0.500E-05
 -20.250  0.196E-04  0.924E-06  0.935E-05  0.935E-05
 -20.240  0.352E-04  0.156E-05  0.168E-04  0.168E-04
 -20.230  0.609E-04  0.253E-05  0.292E-04  0.292E-04
 -20.220  0.101E-03  0.394E-05  0.487E-04  0.487E-04
 -20.210  0.163E-03  0.590E-05  0.784E-04  0.784E-04
 -20.200  0.252E-03  0.848E-05  0.122E-03  0.122E-03
 -20.190  0.377E-03  0.117E-04  0.183E-03  0.183E-03
 -20.180  0.545E-03  0.156E-04  0.265E-03  0.265E-03
 -20.170  0.763E-03  0.200E-04  0.371E-03  0.371E-03
 -20.160  0.103E-02  0.247E-04  0.505E-03  0.505E-03
 -20.150  0.136E-02  0.295E-04  0.666E-03  0.666E-03
 -20.140  0.174E-02  0.341E-04  0.854E-03  0.854E-03
 -20.130  0.217E-02  0.382E-04  0.107E-02  0.107E-02
 -20.120  0.264E-02  0.416E-04  0.130E-02  0.130E-02
 -20.110  0.313E-02  0.442E-04  0.154E-02  0.154E-02
 -20.100  0.365E-02  0.460E-04  0.180E-02  0.180E-02
 -20.090  0.417E-02  0.470E-04  0.206E-02  0.206E-02
 -20.080  0.468E-02  0.474E-04  0.232E-02  0.232E-02
 -20.070  0.519E-02  0.474E-04  0.257E-02  0.257E-02
 -20.060  0.569E-02  0.473E-04  0.282E-02  0.282E-02
 -20.050  0.617E-02  0.472E-04  0.306E-02  0.306E-02
 -20.040  0.664E-02  0.476E-04  0.330E-02  0.330E-02
 -20.030  0.710E-02  0.486E-04  0.352E-02  0.352E-02
 -20.020  0.754E-02  0.508E-04  0.374E-02  0.374E-02
 -20.010  0.797E-02  0.545E-04  0.396E-02  0.396E-02
 -20.000  0.840E-02  0.605E-04  0.417E-02  0.417E-02
 -19.990  0.882E-02  0.694E-04  0.438E-02  0.438E-02
 -19.980  0.924E-02  0.819E-04  0.458E-02  0.458E-02
 -19.970  0.967E-02  0.985E-04  0.478E-02  0.478E-02
 -19.960  0.101E-01  0.120E-03  0.499E-02  0.499E-02
 -19.950  0.105E-01  0.145E-03  0.519E-02  0.519E-02
 -19.940  0.110E-01  0.173E-03  0.540E-02  0.540E-02
 -19.930  0.114E-01  0.204E-03  0.561E-02  0.561E-02
 -19.920  0.119E-01  0.235E-03  0.582E-02  0.582E-02
 -19.910  0.123E-01  0.264E-03  0.603E-02  0.603E-02
 -19.900  0.128E-01  0.290E-03  0.625E-02  0.625E-02
 -19.890  0.132E-01  0.310E-03  0.647E-02  0.647E-02
 -19.880  0.137E-01  0.324E-03  0.669E-02  0.669E-02
 -19.870  0.142E-01  0.332E-03  0.692E-02  0.692E-02
 -19.860  0.146E-01  0.334E-03  0.715E-02  0.715E-02
 -19.850  0.151E-01  0.331E-03  0.737E-02  0.737E-02
 -19.840  0.155E-01  0.324E-03  0.758E-02  0.758E-02
 -19.830  0.159E-01  0.315E-03  0.779E-02  0.779E-02
 -19.820  0.163E-01  0.306E-03  0.799E-02  0.799E-02
 -19.810  0.167E-01  0.296E-03  0.820E-02  0.820E-02
 -19.800  0.171E-01  0.287E-03  0.841E-02  0.841E-02
 -19.790  0.175E-01  0.279E-03  0.863E-02  0.863E-02
 -19.780  0.180E-01  0.272E-03  0.885E-02  0.885E-02
 -19.770  0.184E-01  0.266E-03  0.907E-02  0.907E-02
 -19.760  0.188E-01  0.260E-03  0.926E-02  0.926E-02
 -19.750  0.191E-01  0.255E-03  0.944E-02  0.944E-02
 -19.740  0.195E-01  0.250E-03  0.960E-02  0.960E-02
 -19.730  0.198E-01  0.245E-03  0.977E-02  0.977E-02
 -19.720  0.201E-01  0.241E-03  0.995E-02  0.995E-02
 -19.710  0.205E-01  0.237E-03  0.102E-01  0.102E-01
 -19.700  0.210E-01  0.233E-03  0.104E-01  0.104E-01
 -19.690  0.215E-01  0.230E-03  0.106E-01  0.106E-01
 -19.680  0.219E-01  0.226E-03  0.108E-01  0.108E-01
 -19.670  0.223E-01  0.222E-03  0.110E-01  0.110E-01
 -19.660  0.225E-01  0.219E-03  0.112E-01  0.112E-01
 -19.650  0.228E-01  0.215E-03  0.113E-01  0.113E-01
 -19.640  0.230E-01  0.211E-03  0.114E-01  0.114E-01
 -19.630  0.232E-01  0.207E-03  0.115E-01  0.115E-01
 -19.620  0.236E-01  0.204E-03  0.117E-01  0.117E-01
 -19.610  0.240E-01  0.201E-03  0.119E-01  0.119E-01
 -19.600  0.246E-01  0.198E-03  0.122E-01  0.122E-01
 -19.590  0.251E-01  0.196E-03  0.125E-01  0.125E-01
 -19.580  0.256E-01  0.193E-03  0.127E-01  0.127E-01
 -19.570  0.259E-01  0.190E-03  0.129E-01  0.129E-01
 -19.560  0.261E-01  0.187E-03  0.129E-01  0.129E-01
 -19.550  0.261E-01  0.183E-03  0.130E-01  0.130E-01
 -19.540  0.262E-01  0.179E-03  0.130E-01  0.130E-01
 -19.530  0.263E-01  0.176E-03  0.131E-01  0.131E-01
 -19.520  0.266E-01  0.173E-03  0.132E-01  0.132E-01
 -19.510  0.270E-01  0.171E-03  0.134E-01  0.134E-01
 -19.500  0.276E-01  0.169E-03  0.137E-01  0.137E-01
 -19.490  0.283E-01  0.168E-03  0.141E-01  0.141E-01
 -19.480  0.289E-01  0.166E-03  0.144E-01  0.144E-01
 -19.470  0.293E-01  0.163E-03  0.146E-01  0.146E-01
 -19.460  0.295E-01  0.160E-03  0.147E-01  0.147E-01
 -19.450  0.296E-01  0.157E-03  0.147E-01  0.147E-01
 -19.440  0.295E-01  0.154E-03  0.147E-01  0.147E-01
 -19.430  0.294E-01  0.151E-03  0.146E-01  0.146E-01
 -19.420  0.294E-01  0.148E-03  0.146E-01  0.146E-01
 -19.410  0.296E-01  0.146E-03  0.147E-01  0.147E-01
 -19.400  0.301E-01  0.145E-03  0.150E-01  0.150E-01
 -19.390  0.307E-01  0.143E-03  0.153E-01  0.153E-01
 -19.380  0.314E-01  0.142E-03  0.156E-01  0.156E-01
 -19.370  0.321E-01  0.141E-03  0.160E-01  0.160E-01
 -19.360  0.327E-01  0.139E-03  0.163E-01  0.163E-01
 -19.350  0.330E-01  0.137E-03  0.164E-01  0.164E-01
 -19.340  0.331E-01  0.134E-03  0.165E-01  0.165E-01
 -19.330  0.330E-01  0.132E-03  0.164E-01  0.164E-01
 -19.320  0.328E-01  0.129E-03  0.163E-01  0.163E-01
 -19.310  0.326E-01  0.127E-03  0.162E-01  0.162E-01
 -19.300  0.325E-01  0.124E-03  0.162E-01  0.162E-01
 -19.290  0.326E-01  0.122E-03  0.162E-01  0.162E-01
 -19.280  0.330E-01  0.120E-03  0.164E-01  0.164E-01
 -19.270  0.336E-01  0.119E-03  0.168E-01  0.168E-01
 -19.260  0.345E-01  0.119E-03  0.172E-01  0.172E-01
 -19.250  0.354E-01  0.118E-03  0.176E-01  0.176E-01
 -19.240  0.362E-01  0.118E-03  0.180E-01  0.180E-01
 -19.230  0.367E-01  0.117E-03  0.183E-01  0.183E-01
 -19.220  0.369E-01  0.115E-03  0.184E-01  0.184E-01
 -19.210  0.367E-01  0.113E-03  0.183E-01  0.183E-01
 -19.200  0.362E-01  0.110E-03  0.181E-01  0.181E-01
 -19.190  0.357E-01  0.107E-03  0.178E-01  0.178E-01
 -19.180  0.352E-01  0.104E-03  0.175E-01  0.175E-01
 -19.170  0.350E-01  0.101E-03  0.174E-01  0.174E-01
 -19.160  0.352E-01  0.992E-04  0.175E-01  0.175E-01
 -19.150  0.358E-01  0.987E-04  0.179E-01  0.179E-01
 -19.140  0.368E-01  0.991E-04  0.184E-01  0.184E-01
 -19.130  0.381E-01  0.100E-03  0.190E-01  0.190E-01
 -19.120  0.393E-01  0.101E-03  0.196E-01  0.196E-01
 -19.110  0.402E-01  0.101E-03  0.200E-01  0.200E-01
 -19.100  0.407E-01  0.100E-03  0.203E-01  0.203E-01
 -19.090  0.406E-01  0.984E-04  0.202E-01  0.202E-01
 -19.080  0.400E-01  0.952E-04  0.200E-01  0.200E-01
 -19.070  0.391E-01  0.914E-04  0.195E-01  0.195E-01
 -19.060  0.381E-01  0.876E-04  0.190E-01  0.190E-01
 -19.050  0.374E-01  0.844E-04  0.186E-01  0.186E-01
 -19.040  0.370E-01  0.823E-04  0.185E-01  0.185E-01
 -19.030  0.373E-01  0.816E-04  0.186E-01  0.186E-01
 -19.020  0.382E-01  0.822E-04  0.190E-01  0.190E-01
 -19.010  0.396E-01  0.836E-04  0.197E-01  0.197E-01
 -19.000  0.412E-01  0.854E-04  0.206E-01  0.206E-01
 -18.990  0.428E-01  0.868E-04  0.213E-01  0.213E-01
 -18.980  0.440E-01  0.872E-04  0.219E-01  0.219E-01
 -18.970  0.446E-01  0.863E-04  0.222E-01  0.222E-01
 -18.960  0.444E-01  0.841E-04  0.222E-01  0.222E-01
 -18.950  0.436E-01  0.808E-04  0.218E-01  0.218E-01
 -18.940  0.423E-01  0.769E-04  0.211E-01  0.211E-01
 -18.930  0.409E-01  0.731E-04  0.204E-01  0.204E-01
 -18.920  0.396E-01  0.700E-04  0.198E-01  0.198E-01
 -18.910  0.389E-01  0.682E-04  0.194E-01  0.194E-01
 -18.900  0.388E-01  0.678E-04  0.194E-01  0.194E-01
 -18.890  0.396E-01  0.686E-04  0.198E-01  0.198E-01
 -18.880  0.410E-01  0.702E-04  0.205E-01  0.205E-01
 -18.870  0.430E-01  0.721E-04  0.214E-01  0.214E-01
 -18.860  0.450E-01  0.737E-04  0.225E-01  0.225E-01
 -18.850  0.468E-01  0.745E-04  0.234E-01  0.234E-01
 -18.840  0.481E-01  0.741E-04  0.240E-01  0.240E-01
 -18.830  0.486E-01  0.724E-04  0.243E-01  0.243E-01
 -18.820  0.482E-01  0.697E-04  0.241E-01  0.241E-01
 -18.810  0.471E-01  0.664E-04  0.235E-01  0.235E-01
 -18.800  0.454E-01  0.629E-04  0.227E-01  0.227E-01
 -18.790  0.435E-01  0.598E-04  0.217E-01  0.217E-01
 -18.780  0.417E-01  0.577E-04  0.208E-01  0.208E-01
 -18.770  0.405E-01  0.568E-04  0.202E-01  0.202E-01
 -18.760  0.402E-01  0.570E-04  0.201E-01  0.201E-01
 -18.750  0.408E-01  0.583E-04  0.204E-01  0.204E-01
 -18.740  0.423E-01  0.601E-04  0.211E-01  0.211E-01
 -18.730  0.445E-01  0.619E-04  0.222E-01  0.222E-01
 -18.720  0.469E-01  0.631E-04  0.234E-01  0.234E-01
 -18.710  0.492E-01  0.634E-04  0.246E-01  0.246E-01
 -18.700  0.511E-01  0.626E-04  0.255E-01  0.255E-01
 -18.690  0.522E-01  0.608E-04  0.261E-01  0.261E-01
 -18.680  0.525E-01  0.582E-04  0.262E-01  0.262E-01
 -18.670  0.518E-01  0.552E-04  0.259E-01  0.259E-01
 -18.660  0.504E-01  0.524E-04  0.252E-01  0.252E-01
 -18.650  0.485E-01  0.500E-04  0.242E-01  0.242E-01
 -18.640  0.463E-01  0.485E-04  0.231E-01  0.231E-01
 -18.630  0.442E-01  0.480E-04  0.221E-01  0.221E-01
 -18.620  0.427E-01  0.484E-04  0.213E-01  0.213E-01
 -18.610  0.418E-01  0.496E-04  0.209E-01  0.209E-01
 -18.600  0.419E-01  0.512E-04  0.209E-01  0.209E-01
 -18.590  0.430E-01  0.527E-04  0.215E-01  0.215E-01
 -18.580  0.450E-01  0.538E-04  0.225E-01  0.225E-01
 -18.570  0.477E-01  0.541E-04  0.238E-01  0.238E-01
 -18.560  0.506E-01  0.534E-04  0.253E-01  0.253E-01
 -18.550  0.533E-01  0.518E-04  0.266E-01  0.266E-01
 -18.540  0.554E-01  0.494E-04  0.277E-01  0.277E-01
 -18.530  0.565E-01  0.468E-04  0.282E-01  0.282E-01
 -18.520  0.566E-01  0.443E-04  0.283E-01  0.283E-01
 -18.510  0.557E-01  0.422E-04  0.278E-01  0.278E-01
 -18.500  0.539E-01  0.409E-04  0.269E-01  0.269E-01
 -18.490  0.516E-01  0.405E-04  0.258E-01  0.258E-01
 -18.480  0.492E-01  0.409E-04  0.246E-01  0.246E-01
 -18.470  0.469E-01  0.420E-04  0.234E-01  0.234E-01
 -18.460  0.452E-01  0.434E-04  0.226E-01  0.226E-01
 -18.450  0.440E-01  0.448E-04  0.220E-01  0.220E-01
 -18.440  0.437E-01  0.459E-04  0.218E-01  0.218E-01
 -18.430  0.441E-01  0.464E-04  0.220E-01  0.220E-01
 -18.420  0.454E-01  0.460E-04  0.227E-01  0.227E-01
 -18.410  0.475E-01  0.449E-04  0.237E-01  0.237E-01
 -18.400  0.502E-01  0.430E-04  0.251E-01  0.251E-01
 -18.390  0.533E-01  0.407E-04  0.267E-01  0.267E-01
 -18.380  0.565E-01  0.383E-04  0.282E-01  0.282E-01
 -18.370  0.591E-01  0.362E-04  0.296E-01  0.296E-01
 -18.360  0.609E-01  0.347E-04  0.304E-01  0.304E-01
 -18.350  0.615E-01  0.340E-04  0.307E-01  0.307E-01
 -18.340  0.608E-01  0.342E-04  0.304E-01  0.304E-01
 -18.330  0.588E-01  0.350E-04  0.294E-01  0.294E-01
 -18.320  0.560E-01  0.363E-04  0.280E-01  0.280E-01
 -18.310  0.527E-01  0.377E-04  0.263E-01  0.263E-01
 -18.300  0.495E-01  0.390E-04  0.247E-01  0.247E-01
 -18.290  0.469E-01  0.398E-04  0.234E-01  0.234E-01
 -18.280  0.451E-01  0.399E-04  0.225E-01  0.225E-01
 -18.270  0.443E-01  0.393E-04  0.221E-01  0.221E-01
 -18.260  0.446E-01  0.380E-04  0.223E-01  0.223E-01
 -18.250  0.459E-01  0.363E-04  0.229E-01  0.229E-01
 -18.240  0.480E-01  0.342E-04  0.240E-01  0.240E-01
 -18.230  0.506E-01  0.321E-04  0.253E-01  0.253E-01
 -18.220  0.537E-01  0.304E-04  0.268E-01  0.268E-01
 -18.210  0.569E-01  0.292E-04  0.284E-01  0.284E-01
 -18.200  0.601E-01  0.286E-04  0.300E-01  0.300E-01
 -18.190  0.628E-01  0.288E-04  0.314E-01  0.314E-01
 -18.180  0.647E-01  0.296E-04  0.324E-01  0.324E-01
 -18.170  0.657E-01  0.309E-04  0.328E-01  0.328E-01
 -18.160  0.654E-01  0.323E-04  0.327E-01  0.327E-01
 -18.150  0.638E-01  0.335E-04  0.319E-01  0.319E-01
 -18.140  0.611E-01  0.342E-04  0.305E-01  0.305E-01
 -18.130  0.575E-01  0.344E-04  0.287E-01  0.287E-01
 -18.120  0.535E-01  0.338E-04  0.267E-01  0.267E-01
 -18.110  0.496E-01  0.327E-04  0.248E-01  0.248E-01
 -18.100  0.464E-01  0.311E-04  0.232E-01  0.232E-01
 -18.090  0.443E-01  0.293E-04  0.221E-01  0.221E-01
 -18.080  0.436E-01  0.275E-04  0.218E-01  0.218E-01
 -18.070  0.444E-01  0.260E-04  0.222E-01  0.222E-01
 -18.060  0.466E-01  0.249E-04  0.233E-01  0.233E-01
 -18.050  0.500E-01  0.244E-04  0.250E-01  0.250E-01
 -18.040  0.542E-01  0.245E-04  0.271E-01  0.271E-01
 -18.030  0.587E-01  0.251E-04  0.293E-01  0.293E-01
 -18.020  0.628E-01  0.261E-04  0.314E-01  0.314E-01
 -18.010  0.662E-01  0.273E-04  0.331E-01  0.331E-01
 -18.000  0.686E-01  0.284E-04  0.343E-01  0.343E-01
 -17.990  0.697E-01  0.292E-04  0.348E-01  0.348E-01
 -17.980  0.695E-01  0.295E-04  0.347E-01  0.347E-01
 -17.970  0.681E-01  0.292E-04  0.341E-01  0.341E-01
 -17.960  0.659E-01  0.283E-04  0.329E-01  0.329E-01
 -17.950  0.630E-01  0.270E-04  0.315E-01  0.315E-01
 -17.940  0.597E-01  0.254E-04  0.298E-01  0.298E-01
 -17.930  0.563E-01  0.238E-04  0.281E-01  0.281E-01
 -17.920  0.530E-01  0.225E-04  0.265E-01  0.265E-01
 -17.910  0.500E-01  0.215E-04  0.250E-01  0.250E-01
 -17.900  0.476E-01  0.209E-04  0.238E-01  0.238E-01
 -17.890  0.460E-01  0.209E-04  0.230E-01  0.230E-01
 -17.880  0.454E-01  0.214E-04  0.227E-01  0.227E-01
 -17.870  0.461E-01  0.221E-04  0.230E-01  0.230E-01
 -17.860  0.483E-01  0.231E-04  0.241E-01  0.241E-01
 -17.850  0.519E-01  0.241E-04  0.259E-01  0.259E-01
 -17.840  0.566E-01  0.248E-04  0.283E-01  0.283E-01
 -17.830  0.620E-01  0.252E-04  0.310E-01  0.310E-01
 -17.820  0.673E-01  0.252E-04  0.337E-01  0.337E-01
 -17.810  0.719E-01  0.246E-04  0.359E-01  0.359E-01
 -17.800  0.749E-01  0.236E-04  0.375E-01  0.375E-01
 -17.790  0.761E-01  0.223E-04  0.380E-01  0.380E-01
 -17.780  0.752E-01  0.210E-04  0.376E-01  0.376E-01
 -17.770  0.726E-01  0.197E-04  0.363E-01  0.363E-01
 -17.760  0.688E-01  0.186E-04  0.344E-01  0.344E-01
 -17.750  0.644E-01  0.180E-04  0.322E-01  0.322E-01
 -17.740  0.600E-01  0.179E-04  0.300E-01  0.300E-01
 -17.730  0.562E-01  0.181E-04  0.281E-01  0.281E-01
 -17.720  0.532E-01  0.187E-04  0.266E-01  0.266E-01
 -17.710  0.511E-01  0.195E-04  0.256E-01  0.256E-01
 -17.700  0.499E-01  0.204E-04  0.249E-01  0.249E-01
 -17.690  0.494E-01  0.211E-04  0.247E-01  0.247E-01
 -17.680  0.494E-01  0.215E-04  0.247E-01  0.247E-01
 -17.670  0.500E-01  0.216E-04  0.250E-01  0.250E-01
 -17.660  0.513E-01  0.213E-04  0.256E-01  0.256E-01
 -17.650  0.532E-01  0.206E-04  0.266E-01  0.266E-01
 -17.640  0.560E-01  0.196E-04  0.280E-01  0.280E-01
 -17.630  0.597E-01  0.185E-04  0.298E-01  0.298E-01
 -17.620  0.641E-01  0.173E-04  0.320E-01  0.320E-01
 -17.610  0.690E-01  0.164E-04  0.345E-01  0.345E-01
 -17.600  0.737E-01  0.157E-04  0.368E-01  0.368E-01
 -17.590  0.775E-01  0.154E-04  0.388E-01  0.388E-01
 -17.580  0.799E-01  0.155E-04  0.400E-01  0.400E-01
 -17.570  0.803E-01  0.159E-04  0.402E-01  0.402E-01
 -17.560  0.786E-01  0.165E-04  0.393E-01  0.393E-01
 -17.550  0.750E-01  0.172E-04  0.375E-01  0.375E-01
 -17.540  0.700E-01  0.179E-04  0.350E-01  0.350E-01
 -17.530  0.643E-01  0.183E-04  0.322E-01  0.322E-01
 -17.520  0.588E-01  0.185E-04  0.294E-01  0.294E-01
 -17.510  0.540E-01  0.183E-04  0.270E-01  0.270E-01
 -17.500  0.505E-01  0.178E-04  0.252E-01  0.252E-01
 -17.490  0.484E-01  0.170E-04  0.242E-01  0.242E-01
 -17.480  0.477E-01  0.160E-04  0.239E-01  0.239E-01
 -17.470  0.484E-01  0.151E-04  0.242E-01  0.242E-01
 -17.460  0.501E-01  0.142E-04  0.251E-01  0.251E-01
 -17.450  0.528E-01  0.136E-04  0.264E-01  0.264E-01
 -17.440  0.560E-01  0.132E-04  0.280E-01  0.280E-01
 -17.430  0.597E-01  0.132E-04  0.298E-01  0.298E-01
 -17.420  0.636E-01  0.135E-04  0.318E-01  0.318E-01
 -17.410  0.675E-01  0.140E-04  0.337E-01  0.337E-01
 -17.400  0.711E-01  0.146E-04  0.356E-01  0.356E-01
 -17.390  0.745E-01  0.151E-04  0.372E-01  0.372E-01
 -17.380  0.772E-01  0.156E-04  0.386E-01  0.386E-01
 -17.370  0.792E-01  0.158E-04  0.396E-01  0.396E-01
 -17.360  0.803E-01  0.157E-04  0.401E-01  0.401E-01
 -17.350  0.803E-01  0.153E-04  0.401E-01  0.401E-01
 -17.340  0.791E-01  0.146E-04  0.396E-01  0.396E-01
 -17.330  0.767E-01  0.138E-04  0.384E-01  0.384E-01
 -17.320  0.733E-01  0.130E-04  0.366E-01  0.366E-01
 -17.310  0.689E-01  0.122E-04  0.344E-01  0.344E-01
 -17.300  0.640E-01  0.116E-04  0.320E-01  0.320E-01
 -17.290  0.591E-01  0.113E-04  0.295E-01  0.295E-01
 -17.280  0.545E-01  0.112E-04  0.273E-01  0.273E-01
 -17.270  0.509E-01  0.114E-04  0.254E-01  0.254E-01
 -17.260  0.484E-01  0.117E-04  0.242E-01  0.242E-01
 -17.250  0.473E-01  0.122E-04  0.236E-01  0.236E-01
 -17.240  0.478E-01  0.127E-04  0.239E-01  0.239E-01
 -17.230  0.499E-01  0.130E-04  0.249E-01  0.249E-01
 -17.220  0.535E-01  0.131E-04  0.267E-01  0.267E-01
 -17.210  0.583E-01  0.130E-04  0.292E-01  0.292E-01
 -17.200  0.640E-01  0.127E-04  0.320E-01  0.320E-01
 -17.190  0.701E-01  0.121E-04  0.351E-01  0.351E-01
 -17.180  0.759E-01  0.114E-04  0.380E-01  0.380E-01
 -17.170  0.808E-01  0.108E-04  0.404E-01  0.404E-01
 -17.160  0.842E-01  0.101E-04  0.421E-01  0.421E-01
 -17.150  0.858E-01  0.971E-05  0.429E-01  0.429E-01
 -17.140  0.855E-01  0.949E-05  0.427E-01  0.427E-01
 -17.130  0.835E-01  0.949E-05  0.418E-01  0.418E-01
 -17.120  0.804E-01  0.969E-05  0.402E-01  0.402E-01
 -17.110  0.767E-01  0.100E-04  0.384E-01  0.384E-01
 -17.100  0.730E-01  0.104E-04  0.365E-01  0.365E-01
 -17.090  0.696E-01  0.107E-04  0.348E-01  0.348E-01
 -17.080  0.667E-01  0.108E-04  0.333E-01  0.333E-01
 -17.070  0.641E-01  0.107E-04  0.320E-01  0.320E-01
 -17.060  0.617E-01  0.105E-04  0.309E-01  0.309E-01
 -17.050  0.594E-01  0.999E-05  0.297E-01  0.297E-01
 -17.040  0.570E-01  0.939E-05  0.285E-01  0.285E-01
 -17.030  0.547E-01  0.875E-05  0.273E-01  0.273E-01
 -17.020  0.527E-01  0.818E-05  0.264E-01  0.264E-01
 -17.010  0.515E-01  0.774E-05  0.258E-01  0.258E-01
 -17.000  0.515E-01  0.749E-05  0.257E-01  0.257E-01
 -16.990  0.529E-01  0.746E-05  0.264E-01  0.264E-01
 -16.980  0.559E-01  0.760E-05  0.279E-01  0.279E-01
 -16.970  0.606E-01  0.786E-05  0.303E-01  0.303E-01
 -16.960  0.666E-01  0.816E-05  0.333E-01  0.333E-01
 -16.950  0.735E-01  0.838E-05  0.367E-01  0.367E-01
 -16.940  0.805E-01  0.847E-05  0.403E-01  0.403E-01
 -16.930  0.869E-01  0.836E-05  0.434E-01  0.434E-01
 -16.920  0.916E-01  0.805E-05  0.458E-01  0.458E-01
 -16.910  0.941E-01  0.758E-05  0.471E-01  0.471E-01
 -16.900  0.939E-01  0.700E-05  0.469E-01  0.469E-01
 -16.890  0.910E-01  0.641E-05  0.455E-01  0.455E-01
 -16.880  0.859E-01  0.589E-05  0.429E-01  0.429E-01
 -16.870  0.794E-01  0.551E-05  0.397E-01  0.397E-01
 -16.860  0.726E-01  0.530E-05  0.363E-01  0.363E-01
 -16.850  0.665E-01  0.525E-05  0.332E-01  0.332E-01
 -16.840  0.616E-01  0.531E-05  0.308E-01  0.308E-01
 -16.830  0.584E-01  0.540E-05  0.292E-01  0.292E-01
 -16.820  0.569E-01  0.544E-05  0.284E-01  0.284E-01
 -16.810  0.565E-01  0.537E-05  0.282E-01  0.282E-01
 -16.800  0.569E-01  0.515E-05  0.284E-01  0.284E-01
 -16.790  0.575E-01  0.479E-05  0.287E-01  0.287E-01
 -16.780  0.580E-01  0.434E-05  0.290E-01  0.290E-01
 -16.770  0.584E-01  0.388E-05  0.292E-01  0.292E-01
 -16.760  0.589E-01  0.348E-05  0.294E-01  0.294E-01
 -16.750  0.598E-01  0.322E-05  0.299E-01  0.299E-01
 -16.740  0.615E-01  0.310E-05  0.308E-01  0.308E-01
 -16.730  0.644E-01  0.313E-05  0.322E-01  0.322E-01
 -16.720  0.683E-01  0.324E-05  0.342E-01  0.342E-01
 -16.710  0.733E-01  0.337E-05  0.366E-01  0.366E-01
 -16.700  0.788E-01  0.345E-05  0.394E-01  0.394E-01
 -16.690  0.843E-01  0.345E-05  0.422E-01  0.422E-01
 -16.680  0.893E-01  0.334E-05  0.446E-01  0.446E-01
 -16.670  0.930E-01  0.315E-05  0.465E-01  0.465E-01
 -16.660  0.952E-01  0.291E-05  0.476E-01  0.476E-01
 -16.650  0.953E-01  0.269E-05  0.476E-01  0.476E-01
 -16.640  0.932E-01  0.251E-05  0.466E-01  0.466E-01
 -16.630  0.892E-01  0.239E-05  0.446E-01  0.446E-01
 -16.620  0.835E-01  0.232E-05  0.417E-01  0.417E-01
 -16.610  0.767E-01  0.229E-05  0.384E-01  0.384E-01
 -16.600  0.697E-01  0.227E-05  0.348E-01  0.348E-01
 -16.590  0.631E-01  0.223E-05  0.315E-01  0.315E-01
 -16.580  0.576E-01  0.215E-05  0.288E-01  0.288E-01
 -16.570  0.538E-01  0.204E-05  0.269E-01  0.269E-01
 -16.560  0.518E-01  0.192E-05  0.259E-01  0.259E-01
 -16.550  0.517E-01  0.179E-05  0.258E-01  0.258E-01
 -16.540  0.531E-01  0.169E-05  0.265E-01  0.265E-01
 -16.530  0.556E-01  0.162E-05  0.278E-01  0.278E-01
 -16.520  0.588E-01  0.157E-05  0.294E-01  0.294E-01
 -16.510  0.623E-01  0.155E-05  0.311E-01  0.311E-01
 -16.500  0.659E-01  0.154E-05  0.330E-01  0.330E-01
 -16.490  0.697E-01  0.152E-05  0.349E-01  0.349E-01
 -16.480  0.737E-01  0.150E-05  0.368E-01  0.368E-01
 -16.470  0.778E-01  0.146E-05  0.389E-01  0.389E-01
 -16.460  0.820E-01  0.141E-05  0.410E-01  0.410E-01
 -16.450  0.859E-01  0.136E-05  0.430E-01  0.430E-01
 -16.440  0.893E-01  0.132E-05  0.446E-01  0.446E-01
 -16.430  0.917E-01  0.127E-05  0.459E-01  0.459E-01
 -16.420  0.929E-01  0.122E-05  0.465E-01  0.465E-01
 -16.410  0.928E-01  0.118E-05  0.464E-01  0.464E-01
 -16.400  0.916E-01  0.113E-05  0.458E-01  0.458E-01
 -16.390  0.895E-01  0.107E-05  0.448E-01  0.448E-01
 -16.380  0.868E-01  0.102E-05  0.434E-01  0.434E-01
 -16.370  0.838E-01  0.955E-06  0.419E-01  0.419E-01
 -16.360  0.804E-01  0.891E-06  0.402E-01  0.402E-01
 -16.350  0.766E-01  0.826E-06  0.383E-01  0.383E-01
 -16.340  0.725E-01  0.759E-06  0.362E-01  0.362E-01
 -16.330  0.680E-01  0.691E-06  0.340E-01  0.340E-01
 -16.320  0.632E-01  0.623E-06  0.316E-01  0.316E-01
 -16.310  0.587E-01  0.557E-06  0.293E-01  0.293E-01
 -16.300  0.548E-01  0.496E-06  0.274E-01  0.274E-01
 -16.290  0.523E-01  0.443E-06  0.261E-01  0.261E-01
 -16.280  0.514E-01  0.402E-06  0.257E-01  0.257E-01
 -16.270  0.524E-01  0.373E-06  0.262E-01  0.262E-01
 -16.260  0.554E-01  0.359E-06  0.277E-01  0.277E-01
 -16.250  0.601E-01  0.357E-06  0.301E-01  0.301E-01
 -16.240  0.661E-01  0.367E-06  0.331E-01  0.331E-01
 -16.230  0.730E-01  0.384E-06  0.365E-01  0.365E-01
 -16.220  0.801E-01  0.407E-06  0.400E-01  0.400E-01
 -16.210  0.868E-01  0.431E-06  0.434E-01  0.434E-01
 -16.200  0.928E-01  0.455E-06  0.464E-01  0.464E-01
 -16.190  0.974E-01  0.474E-06  0.487E-01  0.487E-01
 -16.180  0.100E+00  0.487E-06  0.502E-01  0.502E-01
 -16.170  0.101E+00  0.492E-06  0.506E-01  0.506E-01
 -16.160  0.100E+00  0.487E-06  0.501E-01  0.501E-01
 -16.150  0.971E-01  0.474E-06  0.486E-01  0.486E-01
 -16.140  0.927E-01  0.454E-06  0.463E-01  0.463E-01
 -16.130  0.874E-01  0.430E-06  0.437E-01  0.437E-01
 -16.120  0.821E-01  0.406E-06  0.410E-01  0.410E-01
 -16.110  0.774E-01  0.385E-06  0.387E-01  0.387E-01
 -16.100  0.738E-01  0.370E-06  0.369E-01  0.369E-01
 -16.090  0.714E-01  0.360E-06  0.357E-01  0.357E-01
 -16.080  0.701E-01  0.355E-06  0.351E-01  0.351E-01
 -16.070  0.693E-01  0.352E-06  0.347E-01  0.347E-01
 -16.060  0.685E-01  0.349E-06  0.342E-01  0.342E-01
 -16.050  0.671E-01  0.341E-06  0.336E-01  0.336E-01
 -16.040  0.650E-01  0.330E-06  0.325E-01  0.325E-01
 -16.030  0.623E-01  0.315E-06  0.311E-01  0.311E-01
 -16.020  0.595E-01  0.299E-06  0.297E-01  0.297E-01
 -16.010  0.574E-01  0.286E-06  0.287E-01  0.287E-01
 -16.000  0.567E-01  0.279E-06  0.283E-01  0.283E-01
 -15.990  0.580E-01  0.282E-06  0.290E-01  0.290E-01
 -15.980  0.617E-01  0.297E-06  0.308E-01  0.308E-01
 -15.970  0.676E-01  0.323E-06  0.338E-01  0.338E-01
 -15.960  0.754E-01  0.357E-06  0.377E-01  0.377E-01
 -15.950  0.841E-01  0.397E-06  0.421E-01  0.421E-01
 -15.940  0.929E-01  0.436E-06  0.464E-01  0.464E-01
 -15.930  0.101E+00  0.470E-06  0.503E-01  0.503E-01
 -15.920  0.106E+00  0.495E-06  0.531E-01  0.531E-01
 -15.910  0.109E+00  0.508E-06  0.547E-01  0.547E-01
 -15.900  0.110E+00  0.508E-06  0.548E-01  0.548E-01
 -15.890  0.107E+00  0.496E-06  0.536E-01  0.536E-01
 -15.880  0.103E+00  0.473E-06  0.513E-01  0.513E-01
 -15.870  0.963E-01  0.443E-06  0.481E-01  0.481E-01
 -15.860  0.891E-01  0.410E-06  0.445E-01  0.445E-01
 -15.850  0.818E-01  0.376E-06  0.409E-01  0.409E-01
 -15.840  0.752E-01  0.345E-06  0.376E-01  0.376E-01
 -15.830  0.699E-01  0.321E-06  0.349E-01  0.349E-01
 -15.820  0.662E-01  0.304E-06  0.331E-01  0.331E-01
 -15.810  0.643E-01  0.296E-06  0.321E-01  0.321E-01
 -15.800  0.639E-01  0.295E-06  0.320E-01  0.320E-01
 -15.790  0.647E-01  0.299E-06  0.324E-01  0.324E-01
 -15.780  0.661E-01  0.305E-06  0.330E-01  0.330E-01
 -15.770  0.673E-01  0.311E-06  0.336E-01  0.336E-01
 -15.760  0.679E-01  0.313E-06  0.339E-01  0.339E-01
 -15.750  0.678E-01  0.311E-06  0.339E-01  0.339E-01
 -15.740  0.671E-01  0.306E-06  0.336E-01  0.336E-01
 -15.730  0.665E-01  0.300E-06  0.332E-01  0.332E-01
 -15.720  0.666E-01  0.297E-06  0.333E-01  0.333E-01
 -15.710  0.682E-01  0.299E-06  0.341E-01  0.341E-01
 -15.700  0.719E-01  0.311E-06  0.359E-01  0.359E-01
 -15.690  0.776E-01  0.331E-06  0.388E-01  0.388E-01
 -15.680  0.850E-01  0.360E-06  0.425E-01  0.425E-01
 -15.670  0.933E-01  0.392E-06  0.466E-01  0.466E-01
 -15.660  0.101E+00  0.425E-06  0.507E-01  0.507E-01
 -15.650  0.108E+00  0.452E-06  0.540E-01  0.540E-01
 -15.640  0.112E+00  0.470E-06  0.562E-01  0.562E-01
 -15.630  0.114E+00  0.477E-06  0.569E-01  0.569E-01
 -15.620  0.112E+00  0.470E-06  0.562E-01  0.562E-01
 -15.610  0.108E+00  0.453E-06  0.541E-01  0.541E-01
 -15.600  0.102E+00  0.428E-06  0.511E-01  0.511E-01
 -15.590  0.951E-01  0.398E-06  0.475E-01  0.475E-01
 -15.580  0.876E-01  0.367E-06  0.438E-01  0.438E-01
 -15.570  0.805E-01  0.337E-06  0.403E-01  0.403E-01
 -15.560  0.743E-01  0.311E-06  0.372E-01  0.372E-01
 -15.550  0.693E-01  0.289E-06  0.347E-01  0.347E-01
 -15.540  0.657E-01  0.274E-06  0.329E-01  0.329E-01
 -15.530  0.637E-01  0.266E-06  0.318E-01  0.318E-01
 -15.520  0.630E-01  0.263E-06  0.315E-01  0.315E-01
 -15.510  0.637E-01  0.266E-06  0.319E-01  0.319E-01
 -15.500  0.653E-01  0.273E-06  0.327E-01  0.327E-01
 -15.490  0.674E-01  0.281E-06  0.337E-01  0.337E-01
 -15.480  0.695E-01  0.289E-06  0.348E-01  0.348E-01
 -15.470  0.714E-01  0.296E-06  0.357E-01  0.357E-01
 -15.460  0.730E-01  0.300E-06  0.365E-01  0.365E-01
 -15.450  0.746E-01  0.303E-06  0.373E-01  0.373E-01
 -15.440  0.766E-01  0.307E-06  0.383E-01  0.383E-01
 -15.430  0.796E-01  0.314E-06  0.398E-01  0.398E-01
 -15.420  0.840E-01  0.326E-06  0.420E-01  0.420E-01
 -15.410  0.897E-01  0.344E-06  0.449E-01  0.449E-01
 -15.400  0.966E-01  0.367E-06  0.483E-01  0.483E-01
 -15.390  0.104E+00  0.392E-06  0.519E-01  0.519E-01
 -15.380  0.110E+00  0.416E-06  0.552E-01  0.552E-01
 -15.370  0.115E+00  0.434E-06  0.577E-01  0.577E-01
 -15.360  0.118E+00  0.444E-06  0.589E-01  0.589E-01
 -15.350  0.118E+00  0.443E-06  0.588E-01  0.588E-01
 -15.340  0.114E+00  0.433E-06  0.572E-01  0.572E-01
 -15.330  0.109E+00  0.413E-06  0.545E-01  0.545E-01
 -15.320  0.102E+00  0.389E-06  0.512E-01  0.512E-01
 -15.310  0.951E-01  0.362E-06  0.475E-01  0.475E-01
 -15.300  0.882E-01  0.336E-06  0.441E-01  0.441E-01
 -15.290  0.822E-01  0.314E-06  0.411E-01  0.411E-01
 -15.280  0.775E-01  0.296E-06  0.387E-01  0.387E-01
 -15.270  0.741E-01  0.284E-06  0.371E-01  0.371E-01
 -15.260  0.721E-01  0.276E-06  0.360E-01  0.360E-01
 -15.250  0.712E-01  0.273E-06  0.356E-01  0.356E-01
 -15.240  0.711E-01  0.273E-06  0.356E-01  0.356E-01
 -15.230  0.717E-01  0.275E-06  0.358E-01  0.358E-01
 -15.220  0.726E-01  0.279E-06  0.363E-01  0.363E-01
 -15.210  0.739E-01  0.283E-06  0.369E-01  0.369E-01
 -15.200  0.753E-01  0.287E-06  0.376E-01  0.376E-01
 -15.190  0.771E-01  0.292E-06  0.385E-01  0.385E-01
 -15.180  0.796E-01  0.299E-06  0.398E-01  0.398E-01
 -15.170  0.831E-01  0.308E-06  0.416E-01  0.416E-01
 -15.160  0.882E-01  0.323E-06  0.441E-01  0.441E-01
 -15.150  0.948E-01  0.343E-06  0.474E-01  0.474E-01
 -15.140  0.103E+00  0.368E-06  0.515E-01  0.515E-01
 -15.130  0.112E+00  0.397E-06  0.560E-01  0.560E-01
 -15.120  0.121E+00  0.426E-06  0.605E-01  0.605E-01
 -15.110  0.129E+00  0.453E-06  0.646E-01  0.646E-01
 -15.100  0.135E+00  0.474E-06  0.677E-01  0.677E-01
 -15.090  0.139E+00  0.488E-06  0.696E-01  0.696E-01
 -15.080  0.140E+00  0.493E-06  0.702E-01  0.702E-01
 -15.070  0.139E+00  0.491E-06  0.696E-01  0.696E-01
 -15.060  0.136E+00  0.482E-06  0.679E-01  0.679E-01
 -15.050  0.131E+00  0.468E-06  0.655E-01  0.655E-01
 -15.040  0.125E+00  0.450E-06  0.626E-01  0.626E-01
 -15.030  0.119E+00  0.431E-06  0.595E-01  0.595E-01
 -15.020  0.112E+00  0.409E-06  0.562E-01  0.562E-01
 -15.010  0.106E+00  0.387E-06  0.530E-01  0.530E-01
 -15.000  0.995E-01  0.364E-06  0.497E-01  0.497E-01
 -14.990  0.931E-01  0.340E-06  0.465E-01  0.465E-01
 -14.980  0.868E-01  0.316E-06  0.434E-01  0.434E-01
 -14.970  0.807E-01  0.292E-06  0.403E-01  0.403E-01
 -14.960  0.750E-01  0.269E-06  0.375E-01  0.375E-01
 -14.950  0.698E-01  0.248E-06  0.349E-01  0.349E-01
 -14.940  0.655E-01  0.230E-06  0.328E-01  0.328E-01
 -14.930  0.624E-01  0.216E-06  0.312E-01  0.312E-01
 -14.920  0.608E-01  0.208E-06  0.304E-01  0.304E-01
 -14.910  0.611E-01  0.205E-06  0.305E-01  0.305E-01
 -14.900  0.634E-01  0.209E-06  0.317E-01  0.317E-01
 -14.890  0.676E-01  0.219E-06  0.338E-01  0.338E-01
 -14.880  0.736E-01  0.234E-06  0.368E-01  0.368E-01
 -14.870  0.805E-01  0.252E-06  0.402E-01  0.402E-01
 -14.860  0.875E-01  0.270E-06  0.438E-01  0.438E-01
 -14.850  0.938E-01  0.286E-06  0.469E-01  0.469E-01
 -14.840  0.984E-01  0.296E-06  0.492E-01  0.492E-01
 -14.830  0.101E+00  0.299E-06  0.504E-01  0.504E-01
 -14.820  0.101E+00  0.295E-06  0.503E-01  0.503E-01
 -14.810  0.982E-01  0.285E-06  0.491E-01  0.491E-01
 -14.800  0.942E-01  0.272E-06  0.471E-01  0.471E-01
 -14.790  0.893E-01  0.257E-06  0.446E-01  0.446E-01
 -14.780  0.842E-01  0.242E-06  0.421E-01  0.421E-01
 -14.770  0.796E-01  0.231E-06  0.398E-01  0.398E-01
 -14.760  0.756E-01  0.221E-06  0.378E-01  0.378E-01
 -14.750  0.723E-01  0.214E-06  0.361E-01  0.361E-01
 -14.740  0.691E-01  0.208E-06  0.345E-01  0.345E-01
 -14.730  0.655E-01  0.199E-06  0.327E-01  0.327E-01
 -14.720  0.609E-01  0.188E-06  0.304E-01  0.304E-01
 -14.710  0.550E-01  0.171E-06  0.275E-01  0.275E-01
 -14.700  0.478E-01  0.150E-06  0.239E-01  0.239E-01
 -14.690  0.397E-01  0.125E-06  0.198E-01  0.198E-01
 -14.680  0.313E-01  0.988E-07  0.156E-01  0.156E-01
 -14.670  0.236E-01  0.742E-07  0.118E-01  0.118E-01
 -14.660  0.176E-01  0.542E-07  0.880E-02  0.880E-02
 -14.650  0.142E-01  0.417E-07  0.712E-02  0.712E-02
 -14.640  0.142E-01  0.387E-07  0.710E-02  0.710E-02
 -14.630  0.179E-01  0.462E-07  0.894E-02  0.894E-02
 -14.620  0.253E-01  0.642E-07  0.127E-01  0.127E-01
 -14.610  0.362E-01  0.916E-07  0.181E-01  0.181E-01
 -14.600  0.498E-01  0.127E-06  0.249E-01  0.249E-01
 -14.590  0.652E-01  0.166E-06  0.326E-01  0.326E-01
 -14.580  0.810E-01  0.207E-06  0.405E-01  0.405E-01
 -14.570  0.955E-01  0.245E-06  0.478E-01  0.478E-01
 -14.560  0.107E+00  0.275E-06  0.536E-01  0.536E-01
 -14.550  0.114E+00  0.294E-06  0.572E-01  0.572E-01
 -14.540  0.116E+00  0.299E-06  0.581E-01  0.581E-01
 -14.530  0.112E+00  0.288E-06  0.559E-01  0.559E-01
 -14.520  0.102E+00  0.262E-06  0.508E-01  0.508E-01
 -14.510  0.867E-01  0.225E-06  0.433E-01  0.433E-01
 -14.500  0.689E-01  0.179E-06  0.345E-01  0.345E-01
 -14.490  0.503E-01  0.132E-06  0.251E-01  0.251E-01
 -14.480  0.329E-01  0.868E-07  0.164E-01  0.164E-01
 -14.470  0.182E-01  0.491E-07  0.912E-02  0.912E-02
 -14.460  0.742E-02  0.210E-07  0.371E-02  0.371E-02
 -14.450  0.698E-03  0.352E-08  0.349E-03  0.349E-03
 -14.440 -0.222E-02 -0.422E-08 -0.111E-02 -0.111E-02
 -14.430 -0.200E-02 -0.393E-08 -0.999E-03 -0.999E-03
 -14.420  0.545E-03  0.227E-08  0.272E-03  0.272E-03
 -14.410  0.469E-02  0.124E-07  0.235E-02  0.235E-02
 -14.400  0.996E-02  0.252E-07  0.498E-02  0.498E-02
 -14.390  0.161E-01  0.400E-07  0.806E-02  0.806E-02
 -14.380  0.232E-01  0.565E-07  0.116E-01  0.116E-01
 -14.370  0.312E-01  0.750E-07  0.156E-01  0.156E-01
 -14.360  0.402E-01  0.954E-07  0.201E-01  0.201E-01
 -14.350  0.500E-01  0.117E-06  0.250E-01  0.250E-01
 -14.340  0.602E-01  0.140E-06  0.301E-01  0.301E-01
 -14.330  0.700E-01  0.161E-06  0.350E-01  0.350E-01
 -14.320  0.785E-01  0.179E-06  0.393E-01  0.393E-01
 -14.310  0.846E-01  0.192E-06  0.423E-01  0.423E-01
 -14.300  0.873E-01  0.196E-06  0.437E-01  0.437E-01
 -14.290  0.860E-01  0.192E-06  0.430E-01  0.430E-01
 -14.280  0.804E-01  0.179E-06  0.402E-01  0.402E-01
 -14.270  0.712E-01  0.158E-06  0.356E-01  0.356E-01
 -14.260  0.593E-01  0.131E-06  0.296E-01  0.296E-01
 -14.250  0.460E-01  0.101E-06  0.230E-01  0.230E-01
 -14.240  0.329E-01  0.725E-07  0.165E-01  0.165E-01
 -14.230  0.213E-01  0.472E-07  0.107E-01  0.107E-01
 -14.220  0.122E-01  0.273E-07  0.609E-02  0.609E-02
 -14.210  0.589E-02  0.137E-07  0.295E-02  0.295E-02
 -14.200  0.243E-02  0.625E-08  0.122E-02  0.122E-02
 -14.190  0.145E-02  0.416E-08  0.727E-03  0.727E-03
 -14.180  0.243E-02  0.623E-08  0.122E-02  0.122E-02
 -14.170  0.484E-02  0.113E-07  0.242E-02  0.242E-02
 -14.160  0.824E-02  0.184E-07  0.412E-02  0.412E-02
 -14.150  0.123E-01  0.269E-07  0.616E-02  0.616E-02
 -14.140  0.169E-01  0.364E-07  0.844E-02  0.844E-02
 -14.130  0.218E-01  0.464E-07  0.109E-01  0.109E-01
 -14.120  0.269E-01  0.567E-07  0.134E-01  0.134E-01
 -14.110  0.321E-01  0.670E-07  0.160E-01  0.160E-01
 -14.100  0.372E-01  0.770E-07  0.186E-01  0.186E-01
 -14.090  0.422E-01  0.863E-07  0.211E-01  0.211E-01
 -14.080  0.467E-01  0.946E-07  0.234E-01  0.234E-01
 -14.070  0.505E-01  0.101E-06  0.253E-01  0.253E-01
 -14.060  0.532E-01  0.106E-06  0.266E-01  0.266E-01
 -14.050  0.545E-01  0.107E-06  0.273E-01  0.273E-01
 -14.040  0.541E-01  0.106E-06  0.270E-01  0.270E-01
 -14.030  0.517E-01  0.100E-06  0.259E-01  0.259E-01
 -14.020  0.476E-01  0.919E-07  0.238E-01  0.238E-01
 -14.010  0.421E-01  0.807E-07  0.210E-01  0.210E-01
 -14.000  0.358E-01  0.682E-07  0.179E-01  0.179E-01
 -13.990  0.296E-01  0.557E-07  0.148E-01  0.148E-01
 -13.980  0.244E-01  0.449E-07  0.122E-01  0.122E-01
 -13.970  0.209E-01  0.370E-07  0.105E-01  0.105E-01
 -13.960  0.198E-01  0.330E-07  0.988E-02  0.988E-02
 -13.950  0.213E-01  0.334E-07  0.106E-01  0.106E-01
 -13.940  0.256E-01  0.385E-07  0.128E-01  0.128E-01
 -13.930  0.327E-01  0.478E-07  0.163E-01  0.163E-01
 -13.920  0.422E-01  0.610E-07  0.211E-01  0.211E-01
 -13.910  0.536E-01  0.772E-07  0.268E-01  0.268E-01
 -13.900  0.663E-01  0.954E-07  0.332E-01  0.332E-01
 -13.890  0.796E-01  0.115E-06  0.398E-01  0.398E-01
 -13.880  0.926E-01  0.134E-06  0.463E-01  0.463E-01
 -13.870  0.104E+00  0.151E-06  0.522E-01  0.522E-01
 -13.860  0.115E+00  0.166E-06  0.573E-01  0.573E-01
 -13.850  0.123E+00  0.178E-06  0.614E-01  0.614E-01
 -13.840  0.129E+00  0.186E-06  0.644E-01  0.644E-01
 -13.830  0.133E+00  0.191E-06  0.665E-01  0.665E-01
 -13.820  0.135E+00  0.194E-06  0.677E-01  0.677E-01
 -13.810  0.137E+00  0.194E-06  0.683E-01  0.683E-01
 -13.800  0.137E+00  0.193E-06  0.684E-01  0.684E-01
 -13.790  0.136E+00  0.189E-06  0.678E-01  0.678E-01
 -13.780  0.133E+00  0.183E-06  0.665E-01  0.665E-01
 -13.770  0.129E+00  0.175E-06  0.644E-01  0.644E-01
 -13.760  0.123E+00  0.165E-06  0.616E-01  0.616E-01
 -13.750  0.117E+00  0.154E-06  0.584E-01  0.584E-01
 -13.740  0.110E+00  0.143E-06  0.551E-01  0.551E-01
 -13.730  0.105E+00  0.134E-06  0.524E-01  0.524E-01
 -13.720  0.102E+00  0.127E-06  0.508E-01  0.508E-01
 -13.710  0.101E+00  0.125E-06  0.505E-01  0.505E-01
 -13.700  0.103E+00  0.126E-06  0.516E-01  0.516E-01
 -13.690  0.108E+00  0.131E-06  0.538E-01  0.538E-01
 -13.680  0.113E+00  0.137E-06  0.565E-01  0.565E-01
 -13.670  0.118E+00  0.143E-06  0.590E-01  0.590E-01
 -13.660  0.121E+00  0.147E-06  0.606E-01  0.606E-01
 -13.650  0.122E+00  0.147E-06  0.608E-01  0.608E-01
 -13.640  0.120E+00  0.144E-06  0.598E-01  0.598E-01
 -13.630  0.116E+00  0.139E-06  0.578E-01  0.578E-01
 -13.620  0.111E+00  0.133E-06  0.556E-01  0.556E-01
 -13.610  0.108E+00  0.128E-06  0.540E-01  0.540E-01
 -13.600  0.107E+00  0.126E-06  0.536E-01  0.536E-01
 -13.590  0.109E+00  0.128E-06  0.546E-01  0.546E-01
 -13.580  0.114E+00  0.132E-06  0.570E-01  0.570E-01
 -13.570  0.120E+00  0.139E-06  0.602E-01  0.602E-01
 -13.560  0.127E+00  0.146E-06  0.636E-01  0.636E-01
 -13.550  0.133E+00  0.151E-06  0.663E-01  0.663E-01
 -13.540  0.136E+00  0.153E-06  0.678E-01  0.678E-01
 -13.530  0.135E+00  0.152E-06  0.677E-01  0.677E-01
 -13.520  0.132E+00  0.147E-06  0.660E-01  0.660E-01
 -13.510  0.126E+00  0.139E-06  0.630E-01  0.630E-01
 -13.500  0.119E+00  0.130E-06  0.594E-01  0.594E-01
 -13.490  0.111E+00  0.120E-06  0.556E-01  0.556E-01
 -13.480  0.105E+00  0.111E-06  0.524E-01  0.524E-01
 -13.470  0.100E+00  0.105E-06  0.502E-01  0.502E-01
 -13.460  0.987E-01  0.101E-06  0.493E-01  0.493E-01
 -13.450  0.998E-01  0.100E-06  0.499E-01  0.499E-01
 -13.440  0.104E+00  0.103E-06  0.518E-01  0.518E-01
 -13.430  0.110E+00  0.108E-06  0.548E-01  0.548E-01
 -13.420  0.117E+00  0.115E-06  0.584E-01  0.584E-01
 -13.410  0.124E+00  0.122E-06  0.621E-01  0.621E-01
 -13.400  0.131E+00  0.129E-06  0.654E-01  0.654E-01
 -13.390  0.135E+00  0.135E-06  0.677E-01  0.677E-01
 -13.380  0.137E+00  0.138E-06  0.687E-01  0.687E-01
 -13.370  0.137E+00  0.138E-06  0.683E-01  0.683E-01
 -13.360  0.133E+00  0.135E-06  0.667E-01  0.667E-01
 -13.350  0.129E+00  0.130E-06  0.644E-01  0.644E-01
 -13.340  0.124E+00  0.124E-06  0.618E-01  0.618E-01
 -13.330  0.119E+00  0.118E-06  0.597E-01  0.597E-01
 -13.320  0.117E+00  0.114E-06  0.586E-01  0.586E-01
 -13.310  0.117E+00  0.112E-06  0.586E-01  0.586E-01
 -13.300  0.120E+00  0.112E-06  0.598E-01  0.598E-01
 -13.290  0.124E+00  0.114E-06  0.618E-01  0.618E-01
 -13.280  0.128E+00  0.117E-06  0.642E-01  0.642E-01
 -13.270  0.133E+00  0.120E-06  0.666E-01  0.666E-01
 -13.260  0.137E+00  0.123E-06  0.685E-01  0.685E-01
 -13.250  0.140E+00  0.126E-06  0.700E-01  0.700E-01
 -13.240  0.143E+00  0.130E-06  0.713E-01  0.713E-01
 -13.230  0.145E+00  0.133E-06  0.727E-01  0.727E-01
 -13.220  0.149E+00  0.138E-06  0.745E-01  0.745E-01
 -13.210  0.154E+00  0.144E-06  0.770E-01  0.770E-01
 -13.200  0.160E+00  0.150E-06  0.801E-01  0.801E-01
 -13.190  0.167E+00  0.157E-06  0.836E-01  0.836E-01
 -13.180  0.174E+00  0.163E-06  0.869E-01  0.869E-01
 -13.170  0.179E+00  0.167E-06  0.896E-01  0.896E-01
 -13.160  0.183E+00  0.169E-06  0.913E-01  0.913E-01
 -13.150  0.183E+00  0.168E-06  0.917E-01  0.917E-01
 -13.140  0.182E+00  0.164E-06  0.908E-01  0.908E-01
 -13.130  0.178E+00  0.159E-06  0.890E-01  0.890E-01
 -13.120  0.173E+00  0.153E-06  0.867E-01  0.867E-01
 -13.110  0.169E+00  0.148E-06  0.844E-01  0.844E-01
 -13.100  0.165E+00  0.143E-06  0.825E-01  0.825E-01
 -13.090  0.163E+00  0.141E-06  0.813E-01  0.813E-01
 -13.080  0.162E+00  0.140E-06  0.809E-01  0.809E-01
 -13.070  0.162E+00  0.141E-06  0.812E-01  0.812E-01
 -13.060  0.164E+00  0.143E-06  0.819E-01  0.819E-01
 -13.050  0.165E+00  0.145E-06  0.827E-01  0.827E-01
 -13.040  0.167E+00  0.146E-06  0.833E-01  0.833E-01
 -13.030  0.167E+00  0.146E-06  0.833E-01  0.833E-01
 -13.020  0.165E+00  0.145E-06  0.827E-01  0.827E-01
 -13.010  0.163E+00  0.141E-06  0.814E-01  0.814E-01
 -13.000  0.159E+00  0.137E-06  0.794E-01  0.794E-01
 -12.990  0.154E+00  0.131E-06  0.770E-01  0.770E-01
 -12.980  0.148E+00  0.125E-06  0.742E-01  0.742E-01
 -12.970  0.143E+00  0.118E-06  0.713E-01  0.713E-01
 -12.960  0.137E+00  0.112E-06  0.684E-01  0.684E-01
 -12.950  0.131E+00  0.106E-06  0.656E-01  0.656E-01
 -12.940  0.126E+00  0.101E-06  0.630E-01  0.630E-01
 -12.930  0.121E+00  0.963E-07  0.607E-01  0.607E-01
 -12.920  0.118E+00  0.931E-07  0.590E-01  0.590E-01
 -12.910  0.116E+00  0.915E-07  0.581E-01  0.581E-01
 -12.900  0.117E+00  0.917E-07  0.583E-01  0.583E-01
 -12.890  0.119E+00  0.939E-07  0.597E-01  0.597E-01
 -12.880  0.125E+00  0.980E-07  0.624E-01  0.624E-01
 -12.870  0.132E+00  0.104E-06  0.660E-01  0.660E-01
 -12.860  0.140E+00  0.110E-06  0.700E-01  0.700E-01
 -12.850  0.148E+00  0.116E-06  0.739E-01  0.739E-01
 -12.840  0.153E+00  0.120E-06  0.767E-01  0.767E-01
 -12.830  0.156E+00  0.122E-06  0.780E-01  0.780E-01
 -12.820  0.155E+00  0.120E-06  0.773E-01  0.773E-01
 -12.810  0.149E+00  0.115E-06  0.746E-01  0.746E-01
 -12.800  0.141E+00  0.108E-06  0.704E-01  0.704E-01
 -12.790  0.131E+00  0.989E-07  0.654E-01  0.654E-01
 -12.780  0.121E+00  0.899E-07  0.603E-01  0.603E-01
 -12.770  0.112E+00  0.819E-07  0.559E-01  0.559E-01
 -12.760  0.106E+00  0.762E-07  0.530E-01  0.530E-01
 -12.750  0.103E+00  0.731E-07  0.517E-01  0.517E-01
 -12.740  0.104E+00  0.728E-07  0.520E-01  0.520E-01
 -12.730  0.107E+00  0.745E-07  0.535E-01  0.535E-01
 -12.720  0.112E+00  0.776E-07  0.558E-01  0.558E-01
 -12.710  0.116E+00  0.813E-07  0.581E-01  0.581E-01
 -12.700  0.121E+00  0.849E-07  0.603E-01  0.603E-01
 -12.690  0.124E+00  0.879E-07  0.622E-01  0.622E-01
 -12.680  0.127E+00  0.904E-07  0.637E-01  0.637E-01
 -12.670  0.130E+00  0.923E-07  0.651E-01  0.651E-01
 -12.660  0.133E+00  0.940E-07  0.664E-01  0.664E-01
 -12.650  0.136E+00  0.953E-07  0.678E-01  0.678E-01
 -12.640  0.138E+00  0.961E-07  0.689E-01  0.689E-01
 -12.630  0.139E+00  0.959E-07  0.695E-01  0.695E-01
 -12.620  0.138E+00  0.944E-07  0.692E-01  0.692E-01
 -12.610  0.135E+00  0.913E-07  0.677E-01  0.677E-01
 -12.600  0.130E+00  0.866E-07  0.649E-01  0.649E-01
 -12.590  0.122E+00  0.806E-07  0.611E-01  0.611E-01
 -12.580  0.113E+00  0.741E-07  0.567E-01  0.567E-01
 -12.570  0.105E+00  0.679E-07  0.525E-01  0.525E-01
 -12.560  0.982E-01  0.627E-07  0.491E-01  0.491E-01
 -12.550  0.940E-01  0.593E-07  0.470E-01  0.470E-01
 -12.540  0.930E-01  0.581E-07  0.465E-01  0.465E-01
 -12.530  0.951E-01  0.589E-07  0.476E-01  0.476E-01
 -12.520  0.998E-01  0.614E-07  0.499E-01  0.499E-01
 -12.510  0.106E+00  0.652E-07  0.531E-01  0.531E-01
 -12.500  0.113E+00  0.697E-07  0.566E-01  0.566E-01
 -12.490  0.120E+00  0.741E-07  0.600E-01  0.600E-01
 -12.480  0.126E+00  0.782E-07  0.630E-01  0.630E-01
 -12.470  0.131E+00  0.814E-07  0.653E-01  0.653E-01
 -12.460  0.134E+00  0.836E-07  0.669E-01  0.669E-01
 -12.450  0.135E+00  0.846E-07  0.677E-01  0.677E-01
 -12.440  0.136E+00  0.844E-07  0.678E-01  0.678E-01
 -12.430  0.134E+00  0.830E-07  0.671E-01  0.671E-01
 -12.420  0.131E+00  0.803E-07  0.657E-01  0.657E-01
 -12.410  0.127E+00  0.765E-07  0.635E-01  0.635E-01
 -12.400  0.121E+00  0.716E-07  0.605E-01  0.605E-01
 -12.390  0.114E+00  0.660E-07  0.568E-01  0.568E-01
 -12.380  0.105E+00  0.599E-07  0.526E-01  0.526E-01
 -12.370  0.965E-01  0.540E-07  0.483E-01  0.483E-01
 -12.360  0.888E-01  0.488E-07  0.444E-01  0.444E-01
 -12.350  0.832E-01  0.452E-07  0.416E-01  0.416E-01
 -12.340  0.808E-01  0.435E-07  0.404E-01  0.404E-01
 -12.330  0.824E-01  0.443E-07  0.412E-01  0.412E-01
 -12.320  0.880E-01  0.474E-07  0.440E-01  0.440E-01
 -12.310  0.971E-01  0.526E-07  0.485E-01  0.485E-01
 -12.300  0.108E+00  0.592E-07  0.542E-01  0.542E-01
 -12.290  0.121E+00  0.661E-07  0.603E-01  0.603E-01
 -12.280  0.131E+00  0.723E-07  0.656E-01  0.656E-01
 -12.270  0.139E+00  0.769E-07  0.695E-01  0.695E-01
 -12.260  0.143E+00  0.790E-07  0.714E-01  0.714E-01
 -12.250  0.142E+00  0.785E-07  0.709E-01  0.709E-01
 -12.240  0.136E+00  0.755E-07  0.682E-01  0.682E-01
 -12.230  0.128E+00  0.705E-07  0.640E-01  0.640E-01
 -12.220  0.118E+00  0.644E-07  0.591E-01  0.591E-01
 -12.210  0.108E+00  0.582E-07  0.542E-01  0.542E-01
 -12.200  0.100E+00  0.526E-07  0.501E-01  0.501E-01
 -12.190  0.944E-01  0.483E-07  0.472E-01  0.472E-01
 -12.180  0.912E-01  0.454E-07  0.456E-01  0.456E-01
 -12.170  0.904E-01  0.439E-07  0.452E-01  0.452E-01
 -12.160  0.910E-01  0.434E-07  0.455E-01  0.455E-01
 -12.150  0.923E-01  0.436E-07  0.461E-01  0.461E-01
 -12.140  0.935E-01  0.441E-07  0.468E-01  0.468E-01
 -12.130  0.945E-01  0.447E-07  0.472E-01  0.472E-01
 -12.120  0.952E-01  0.455E-07  0.476E-01  0.476E-01
 -12.110  0.962E-01  0.465E-07  0.481E-01  0.481E-01
 -12.100  0.981E-01  0.480E-07  0.490E-01  0.490E-01
 -12.090  0.101E+00  0.501E-07  0.507E-01  0.507E-01
 -12.080  0.106E+00  0.529E-07  0.531E-01  0.531E-01
 -12.070  0.113E+00  0.562E-07  0.563E-01  0.563E-01
 -12.060  0.120E+00  0.595E-07  0.598E-01  0.598E-01
 -12.050  0.126E+00  0.625E-07  0.632E-01  0.632E-01
 -12.040  0.132E+00  0.645E-07  0.658E-01  0.658E-01
 -12.030  0.134E+00  0.650E-07  0.670E-01  0.670E-01
 -12.020  0.133E+00  0.638E-07  0.666E-01  0.666E-01
 -12.010  0.129E+00  0.607E-07  0.644E-01  0.644E-01
 -12.000  0.121E+00  0.562E-07  0.606E-01  0.606E-01
 -11.990  0.111E+00  0.507E-07  0.556E-01  0.556E-01
 -11.980  0.100E+00  0.448E-07  0.501E-01  0.501E-01
 -11.970  0.895E-01  0.392E-07  0.448E-01  0.448E-01
 -11.960  0.803E-01  0.344E-07  0.402E-01  0.402E-01
 -11.950  0.735E-01  0.309E-07  0.368E-01  0.368E-01
 -11.940  0.698E-01  0.290E-07  0.349E-01  0.349E-01
 -11.930  0.693E-01  0.287E-07  0.347E-01  0.347E-01
 -11.920  0.723E-01  0.302E-07  0.361E-01  0.361E-01
 -11.910  0.783E-01  0.332E-07  0.391E-01  0.391E-01
 -11.900  0.869E-01  0.375E-07  0.435E-01  0.435E-01
 -11.890  0.974E-01  0.426E-07  0.487E-01  0.487E-01
 -11.880  0.109E+00  0.481E-07  0.543E-01  0.543E-01
 -11.870  0.120E+00  0.534E-07  0.598E-01  0.598E-01
 -11.860  0.129E+00  0.577E-07  0.644E-01  0.644E-01
 -11.850  0.135E+00  0.606E-07  0.676E-01  0.676E-01
 -11.840  0.138E+00  0.616E-07  0.690E-01  0.690E-01
 -11.830  0.137E+00  0.605E-07  0.683E-01  0.683E-01
 -11.820  0.132E+00  0.576E-07  0.658E-01  0.658E-01
 -11.810  0.123E+00  0.532E-07  0.617E-01  0.617E-01
 -11.800  0.113E+00  0.478E-07  0.566E-01  0.566E-01
 -11.790  0.102E+00  0.420E-07  0.510E-01  0.510E-01
 -11.780  0.910E-01  0.365E-07  0.455E-01  0.455E-01
 -11.770  0.815E-01  0.317E-07  0.408E-01  0.408E-01
 -11.760  0.743E-01  0.280E-07  0.371E-01  0.371E-01
 -11.750  0.698E-01  0.258E-07  0.349E-01  0.349E-01
 -11.740  0.686E-01  0.250E-07  0.343E-01  0.343E-01
 -11.730  0.706E-01  0.257E-07  0.353E-01  0.353E-01
 -11.720  0.754E-01  0.279E-07  0.377E-01  0.377E-01
 -11.710  0.825E-01  0.312E-07  0.413E-01  0.413E-01
 -11.700  0.910E-01  0.353E-07  0.455E-01  0.455E-01
 -11.690  0.998E-01  0.397E-07  0.499E-01  0.499E-01
 -11.680  0.108E+00  0.440E-07  0.539E-01  0.539E-01
 -11.670  0.114E+00  0.476E-07  0.572E-01  0.572E-01
 -11.660  0.119E+00  0.502E-07  0.593E-01  0.593E-01
 -11.650  0.120E+00  0.515E-07  0.601E-01  0.601E-01
 -11.640  0.119E+00  0.515E-07  0.597E-01  0.597E-01
 -11.630  0.116E+00  0.500E-07  0.582E-01  0.582E-01
 -11.620  0.112E+00  0.476E-07  0.561E-01  0.561E-01
 -11.610  0.108E+00  0.444E-07  0.538E-01  0.538E-01
 -11.600  0.103E+00  0.410E-07  0.515E-01  0.515E-01
 -11.590  0.994E-01  0.377E-07  0.497E-01  0.497E-01
 -11.580  0.966E-01  0.348E-07  0.483E-01  0.483E-01
 -11.570  0.946E-01  0.324E-07  0.473E-01  0.473E-01
 -11.560  0.931E-01  0.305E-07  0.465E-01  0.465E-01
 -11.550  0.916E-01  0.291E-07  0.458E-01  0.458E-01
 -11.540  0.899E-01  0.282E-07  0.449E-01  0.449E-01
 -11.530  0.879E-01  0.278E-07  0.439E-01  0.439E-01
 -11.520  0.858E-01  0.279E-07  0.429E-01  0.429E-01
 -11.510  0.841E-01  0.286E-07  0.420E-01  0.420E-01
 -11.500  0.831E-01  0.300E-07  0.416E-01  0.416E-01
 -11.490  0.832E-01  0.321E-07  0.416E-01  0.416E-01
 -11.480  0.845E-01  0.348E-07  0.423E-01  0.423E-01
 -11.470  0.870E-01  0.377E-07  0.435E-01  0.435E-01
 -11.460  0.905E-01  0.406E-07  0.452E-01  0.452E-01
 -11.450  0.945E-01  0.430E-07  0.473E-01  0.473E-01
 -11.440  0.989E-01  0.448E-07  0.494E-01  0.494E-01
 -11.430  0.103E+00  0.456E-07  0.516E-01  0.516E-01
 -11.420  0.107E+00  0.454E-07  0.535E-01  0.535E-01
 -11.410  0.110E+00  0.442E-07  0.550E-01  0.550E-01
 -11.400  0.112E+00  0.423E-07  0.560E-01  0.560E-01
 -11.390  0.113E+00  0.397E-07  0.563E-01  0.563E-01
 -11.380  0.112E+00  0.368E-07  0.559E-01  0.559E-01
 -11.370  0.109E+00  0.339E-07  0.547E-01  0.547E-01
 -11.360  0.105E+00  0.312E-07  0.526E-01  0.526E-01
 -11.350  0.996E-01  0.293E-07  0.498E-01  0.498E-01
 -11.340  0.930E-01  0.288E-07  0.465E-01  0.465E-01
 -11.330  0.860E-01  0.315E-07  0.430E-01  0.430E-01
 -11.320  0.794E-01  0.404E-07  0.397E-01  0.397E-01
 -11.310  0.740E-01  0.614E-07  0.370E-01  0.370E-01
 -11.300  0.708E-01  0.106E-06  0.354E-01  0.354E-01
 -11.290  0.704E-01  0.193E-06  0.352E-01  0.352E-01
 -11.280  0.733E-01  0.356E-06  0.367E-01  0.367E-01
 -11.270  0.795E-01  0.647E-06  0.398E-01  0.398E-01
 -11.260  0.885E-01  0.114E-05  0.443E-01  0.443E-01
 -11.250  0.995E-01  0.195E-05  0.497E-01  0.497E-01
 -11.240  0.111E+00  0.322E-05  0.557E-01  0.557E-01
 -11.230  0.123E+00  0.510E-05  0.614E-01  0.614E-01
 -11.220  0.133E+00  0.777E-05  0.665E-01  0.665E-01
 -11.210  0.141E+00  0.114E-04  0.704E-01  0.704E-01
 -11.200  0.146E+00  0.161E-04  0.729E-01  0.729E-01
 -11.190  0.148E+00  0.218E-04  0.738E-01  0.738E-01
 -11.180  0.146E+00  0.285E-04  0.731E-01  0.731E-01
 -11.170  0.142E+00  0.359E-04  0.710E-01  0.710E-01
 -11.160  0.136E+00  0.437E-04  0.680E-01  0.680E-01
 -11.150  0.129E+00  0.514E-04  0.646E-01  0.646E-01
 -11.140  0.123E+00  0.586E-04  0.614E-01  0.614E-01
 -11.130  0.118E+00  0.648E-04  0.591E-01  0.591E-01
 -11.120  0.117E+00  0.698E-04  0.582E-01  0.582E-01
 -11.110  0.118E+00  0.733E-04  0.591E-01  0.591E-01
 -11.100  0.124E+00  0.756E-04  0.619E-01  0.619E-01
 -11.090  0.132E+00  0.767E-04  0.661E-01  0.661E-01
 -11.080  0.143E+00  0.769E-04  0.713E-01  0.713E-01
 -11.070  0.154E+00  0.765E-04  0.768E-01  0.768E-01
 -11.060  0.164E+00  0.758E-04  0.819E-01  0.819E-01
 -11.050  0.172E+00  0.749E-04  0.858E-01  0.858E-01
 -11.040  0.176E+00  0.742E-04  0.881E-01  0.881E-01
 -11.030  0.177E+00  0.736E-04  0.884E-01  0.884E-01
 -11.020  0.173E+00  0.731E-04  0.867E-01  0.867E-01
 -11.010  0.166E+00  0.728E-04  0.831E-01  0.831E-01
 -11.000  0.156E+00  0.726E-04  0.781E-01  0.781E-01
 -10.990  0.145E+00  0.725E-04  0.723E-01  0.723E-01
 -10.980  0.133E+00  0.726E-04  0.662E-01  0.662E-01
 -10.970  0.121E+00  0.728E-04  0.607E-01  0.607E-01
 -10.960  0.113E+00  0.731E-04  0.562E-01  0.562E-01
 -10.950  0.107E+00  0.733E-04  0.534E-01  0.534E-01
 -10.940  0.105E+00  0.735E-04  0.525E-01  0.525E-01
 -10.930  0.108E+00  0.735E-04  0.537E-01  0.537E-01
 -10.920  0.114E+00  0.735E-04  0.569E-01  0.569E-01
 -10.910  0.124E+00  0.734E-04  0.619E-01  0.619E-01
 -10.900  0.136E+00  0.735E-04  0.681E-01  0.681E-01
 -10.890  0.150E+00  0.738E-04  0.751E-01  0.751E-01
 -10.880  0.164E+00  0.744E-04  0.820E-01  0.820E-01
 -10.870  0.176E+00  0.751E-04  0.881E-01  0.881E-01
 -10.860  0.186E+00  0.757E-04  0.929E-01  0.929E-01
 -10.850  0.191E+00  0.761E-04  0.956E-01  0.956E-01
 -10.840  0.192E+00  0.762E-04  0.961E-01  0.961E-01
 -10.830  0.189E+00  0.759E-04  0.943E-01  0.943E-01
 -10.820  0.181E+00  0.754E-04  0.903E-01  0.903E-01
 -10.810  0.169E+00  0.750E-04  0.844E-01  0.844E-01
 -10.800  0.155E+00  0.751E-04  0.773E-01  0.773E-01
 -10.790  0.139E+00  0.757E-04  0.696E-01  0.696E-01
 -10.780  0.124E+00  0.768E-04  0.621E-01  0.621E-01
 -10.770  0.111E+00  0.781E-04  0.553E-01  0.553E-01
 -10.760  0.100E+00  0.794E-04  0.501E-01  0.501E-01
 -10.750  0.943E-01  0.801E-04  0.471E-01  0.471E-01
 -10.740  0.933E-01  0.801E-04  0.466E-01  0.466E-01
 -10.730  0.979E-01  0.795E-04  0.489E-01  0.489E-01
 -10.720  0.108E+00  0.785E-04  0.539E-01  0.539E-01
 -10.710  0.122E+00  0.776E-04  0.611E-01  0.611E-01
 -10.700  0.140E+00  0.772E-04  0.697E-01  0.697E-01
 -10.690  0.158E+00  0.777E-04  0.789E-01  0.789E-01
 -10.680  0.175E+00  0.790E-04  0.873E-01  0.873E-01
 -10.670  0.188E+00  0.810E-04  0.940E-01  0.940E-01
 -10.660  0.197E+00  0.830E-04  0.982E-01  0.982E-01
 -10.650  0.199E+00  0.847E-04  0.996E-01  0.996E-01
 -10.640  0.197E+00  0.855E-04  0.983E-01  0.983E-01
 -10.630  0.190E+00  0.853E-04  0.949E-01  0.949E-01
 -10.620  0.180E+00  0.844E-04  0.900E-01  0.900E-01
 -10.610  0.169E+00  0.831E-04  0.845E-01  0.845E-01
 -10.600  0.158E+00  0.820E-04  0.791E-01  0.791E-01
 -10.590  0.149E+00  0.816E-04  0.743E-01  0.743E-01
 -10.580  0.141E+00  0.824E-04  0.703E-01  0.703E-01
 -10.570  0.134E+00  0.841E-04  0.671E-01  0.671E-01
 -10.560  0.129E+00  0.866E-04  0.645E-01  0.645E-01
 -10.550  0.125E+00  0.891E-04  0.625E-01  0.625E-01
 -10.540  0.122E+00  0.912E-04  0.609E-01  0.609E-01
 -10.530  0.120E+00  0.924E-04  0.599E-01  0.599E-01
 -10.520  0.119E+00  0.926E-04  0.596E-01  0.596E-01
 -10.510  0.120E+00  0.919E-04  0.601E-01  0.601E-01
 -10.500  0.123E+00  0.907E-04  0.614E-01  0.614E-01
 -10.490  0.127E+00  0.898E-04  0.637E-01  0.637E-01
 -10.480  0.133E+00  0.896E-04  0.667E-01  0.667E-01
 -10.470  0.141E+00  0.905E-04  0.703E-01  0.703E-01
 -10.460  0.148E+00  0.926E-04  0.741E-01  0.741E-01
 -10.450  0.156E+00  0.956E-04  0.779E-01  0.779E-01
 -10.440  0.163E+00  0.989E-04  0.814E-01  0.814E-01
 -10.430  0.169E+00  0.102E-03  0.844E-01  0.844E-01
 -10.420  0.174E+00  0.104E-03  0.868E-01  0.868E-01
 -10.410  0.177E+00  0.106E-03  0.884E-01  0.884E-01
 -10.400  0.179E+00  0.106E-03  0.894E-01  0.894E-01
 -10.390  0.180E+00  0.106E-03  0.898E-01  0.898E-01
 -10.380  0.180E+00  0.107E-03  0.897E-01  0.897E-01
 -10.370  0.179E+00  0.108E-03  0.893E-01  0.893E-01
 -10.360  0.178E+00  0.111E-03  0.888E-01  0.888E-01
 -10.350  0.176E+00  0.115E-03  0.881E-01  0.881E-01
 -10.340  0.175E+00  0.120E-03  0.874E-01  0.874E-01
 -10.330  0.173E+00  0.126E-03  0.864E-01  0.864E-01
 -10.320  0.170E+00  0.131E-03  0.848E-01  0.848E-01
 -10.310  0.165E+00  0.135E-03  0.825E-01  0.825E-01
 -10.300  0.158E+00  0.137E-03  0.790E-01  0.790E-01
 -10.290  0.148E+00  0.136E-03  0.741E-01  0.741E-01
 -10.280  0.136E+00  0.133E-03  0.679E-01  0.679E-01
 -10.270  0.122E+00  0.128E-03  0.607E-01  0.607E-01
 -10.260  0.107E+00  0.121E-03  0.534E-01  0.534E-01
 -10.250  0.939E-01  0.114E-03  0.469E-01  0.469E-01
 -10.240  0.851E-01  0.108E-03  0.425E-01  0.425E-01
 -10.230  0.825E-01  0.103E-03  0.412E-01  0.412E-01
 -10.220  0.875E-01  0.987E-04  0.437E-01  0.437E-01
 -10.210  0.100E+00  0.962E-04  0.502E-01  0.502E-01
 -10.200  0.120E+00  0.950E-04  0.602E-01  0.602E-01
 -10.190  0.145E+00  0.944E-04  0.726E-01  0.726E-01
 -10.180  0.172E+00  0.938E-04  0.859E-01  0.859E-01
 -10.170  0.197E+00  0.929E-04  0.986E-01  0.986E-01
 -10.160  0.218E+00  0.911E-04  0.109E+00  0.109E+00
 -10.150  0.233E+00  0.885E-04  0.116E+00  0.116E+00
 -10.140  0.240E+00  0.854E-04  0.120E+00  0.120E+00
 -10.130  0.238E+00  0.822E-04  0.119E+00  0.119E+00
 -10.120  0.230E+00  0.797E-04  0.115E+00  0.115E+00
 -10.110  0.216E+00  0.782E-04  0.108E+00  0.108E+00
 -10.100  0.199E+00  0.782E-04  0.993E-01  0.993E-01
 -10.090  0.180E+00  0.798E-04  0.901E-01  0.901E-01
 -10.080  0.162E+00  0.828E-04  0.812E-01  0.812E-01
 -10.070  0.147E+00  0.865E-04  0.733E-01  0.733E-01
 -10.060  0.134E+00  0.904E-04  0.668E-01  0.668E-01
 -10.050  0.124E+00  0.936E-04  0.619E-01  0.619E-01
 -10.040  0.117E+00  0.955E-04  0.585E-01  0.585E-01
 -10.030  0.113E+00  0.956E-04  0.565E-01  0.565E-01
 -10.020  0.112E+00  0.939E-04  0.558E-01  0.558E-01
 -10.010  0.113E+00  0.907E-04  0.562E-01  0.562E-01
 -10.000  0.116E+00  0.866E-04  0.577E-01  0.577E-01
  -9.990  0.120E+00  0.823E-04  0.602E-01  0.602E-01
  -9.980  0.127E+00  0.786E-04  0.635E-01  0.635E-01
  -9.970  0.135E+00  0.763E-04  0.675E-01  0.675E-01
  -9.960  0.144E+00  0.760E-04  0.721E-01  0.721E-01
  -9.950  0.154E+00  0.778E-04  0.771E-01  0.771E-01
  -9.940  0.164E+00  0.816E-04  0.820E-01  0.820E-01
  -9.930  0.173E+00  0.867E-04  0.867E-01  0.867E-01
  -9.920  0.182E+00  0.924E-04  0.907E-01  0.907E-01
  -9.910  0.188E+00  0.974E-04  0.938E-01  0.938E-01
  -9.900  0.191E+00  0.101E-03  0.956E-01  0.956E-01
  -9.890  0.192E+00  0.102E-03  0.959E-01  0.959E-01
  -9.880  0.189E+00  0.997E-04  0.946E-01  0.946E-01
  -9.870  0.184E+00  0.953E-04  0.919E-01  0.919E-01
  -9.860  0.176E+00  0.893E-04  0.881E-01  0.881E-01
  -9.850  0.168E+00  0.829E-04  0.838E-01  0.838E-01
  -9.840  0.160E+00  0.774E-04  0.797E-01  0.797E-01
  -9.830  0.153E+00  0.741E-04  0.766E-01  0.766E-01
  -9.820  0.150E+00  0.736E-04  0.751E-01  0.751E-01
  -9.810  0.152E+00  0.762E-04  0.757E-01  0.757E-01
  -9.800  0.157E+00  0.814E-04  0.785E-01  0.785E-01
  -9.790  0.166E+00  0.882E-04  0.831E-01  0.831E-01
  -9.780  0.178E+00  0.954E-04  0.889E-01  0.889E-01
  -9.770  0.190E+00  0.102E-03  0.949E-01  0.949E-01
  -9.760  0.200E+00  0.106E-03  0.100E+00  0.100E+00
  -9.750  0.206E+00  0.108E-03  0.103E+00  0.103E+00
  -9.740  0.208E+00  0.106E-03  0.104E+00  0.104E+00
  -9.730  0.203E+00  0.103E-03  0.101E+00  0.101E+00
  -9.720  0.192E+00  0.975E-04  0.959E-01  0.959E-01
  -9.710  0.176E+00  0.914E-04  0.881E-01  0.881E-01
  -9.700  0.157E+00  0.856E-04  0.787E-01  0.787E-01
  -9.690  0.137E+00  0.810E-04  0.685E-01  0.685E-01
  -9.680  0.118E+00  0.782E-04  0.588E-01  0.588E-01
  -9.670  0.101E+00  0.774E-04  0.506E-01  0.506E-01
  -9.660  0.894E-01  0.788E-04  0.447E-01  0.447E-01
  -9.650  0.836E-01  0.822E-04  0.418E-01  0.418E-01
  -9.640  0.847E-01  0.874E-04  0.423E-01  0.423E-01
  -9.630  0.929E-01  0.937E-04  0.464E-01  0.464E-01
  -9.620  0.107E+00  0.101E-03  0.537E-01  0.537E-01
  -9.610  0.127E+00  0.107E-03  0.637E-01  0.637E-01
  -9.600  0.151E+00  0.113E-03  0.755E-01  0.755E-01
  -9.590  0.176E+00  0.117E-03  0.881E-01  0.881E-01
  -9.580  0.201E+00  0.118E-03  0.100E+00  0.100E+00
  -9.570  0.223E+00  0.116E-03  0.112E+00  0.112E+00
  -9.560  0.241E+00  0.111E-03  0.121E+00  0.121E+00
  -9.550  0.254E+00  0.104E-03  0.127E+00  0.127E+00
  -9.540  0.261E+00  0.949E-04  0.130E+00  0.130E+00
  -9.530  0.261E+00  0.856E-04  0.131E+00  0.131E+00
  -9.520  0.256E+00  0.776E-04  0.128E+00  0.128E+00
  -9.510  0.245E+00  0.723E-04  0.123E+00  0.123E+00
  -9.500  0.230E+00  0.708E-04  0.115E+00  0.115E+00
  -9.490  0.212E+00  0.739E-04  0.106E+00  0.106E+00
  -9.480  0.191E+00  0.816E-04  0.957E-01  0.957E-01
  -9.470  0.170E+00  0.932E-04  0.851E-01  0.851E-01
  -9.460  0.150E+00  0.107E-03  0.748E-01  0.748E-01
  -9.450  0.131E+00  0.121E-03  0.652E-01  0.652E-01
  -9.440  0.114E+00  0.133E-03  0.569E-01  0.569E-01
  -9.430  0.101E+00  0.141E-03  0.503E-01  0.503E-01
  -9.420  0.916E-01  0.143E-03  0.457E-01  0.457E-01
  -9.410  0.871E-01  0.140E-03  0.435E-01  0.435E-01
  -9.400  0.879E-01  0.130E-03  0.439E-01  0.439E-01
  -9.390  0.941E-01  0.116E-03  0.470E-01  0.470E-01
  -9.380  0.106E+00  0.100E-03  0.528E-01  0.528E-01
  -9.370  0.122E+00  0.843E-04  0.612E-01  0.612E-01
  -9.360  0.143E+00  0.717E-04  0.715E-01  0.715E-01
  -9.350  0.166E+00  0.644E-04  0.830E-01  0.830E-01
  -9.340  0.189E+00  0.639E-04  0.946E-01  0.946E-01
  -9.330  0.210E+00  0.707E-04  0.105E+00  0.105E+00
  -9.320  0.228E+00  0.839E-04  0.114E+00  0.114E+00
  -9.310  0.239E+00  0.102E-03  0.119E+00  0.119E+00
  -9.300  0.244E+00  0.121E-03  0.122E+00  0.122E+00
  -9.290  0.242E+00  0.140E-03  0.121E+00  0.121E+00
  -9.280  0.234E+00  0.153E-03  0.117E+00  0.117E+00
  -9.270  0.221E+00  0.161E-03  0.111E+00  0.111E+00
  -9.260  0.207E+00  0.160E-03  0.103E+00  0.103E+00
  -9.250  0.191E+00  0.153E-03  0.955E-01  0.955E-01
  -9.240  0.177E+00  0.139E-03  0.885E-01  0.885E-01
  -9.230  0.166E+00  0.121E-03  0.828E-01  0.828E-01
  -9.220  0.158E+00  0.103E-03  0.790E-01  0.790E-01
  -9.210  0.155E+00  0.870E-04  0.772E-01  0.772E-01
  -9.200  0.155E+00  0.760E-04  0.775E-01  0.775E-01
  -9.190  0.159E+00  0.718E-04  0.796E-01  0.796E-01
  -9.180  0.166E+00  0.750E-04  0.832E-01  0.832E-01
  -9.170  0.176E+00  0.855E-04  0.878E-01  0.878E-01
  -9.160  0.186E+00  0.102E-03  0.927E-01  0.927E-01
  -9.150  0.195E+00  0.122E-03  0.974E-01  0.974E-01
  -9.140  0.202E+00  0.142E-03  0.101E+00  0.101E+00
  -9.130  0.206E+00  0.160E-03  0.103E+00  0.103E+00
  -9.120  0.206E+00  0.171E-03  0.103E+00  0.103E+00
  -9.110  0.200E+00  0.175E-03  0.100E+00  0.100E+00
  -9.100  0.190E+00  0.170E-03  0.948E-01  0.948E-01
  -9.090  0.176E+00  0.157E-03  0.877E-01  0.877E-01
  -9.080  0.159E+00  0.139E-03  0.795E-01  0.795E-01
  -9.070  0.143E+00  0.118E-03  0.712E-01  0.712E-01
  -9.060  0.128E+00  0.976E-04  0.640E-01  0.640E-01
  -9.050  0.118E+00  0.822E-04  0.590E-01  0.590E-01
  -9.040  0.114E+00  0.742E-04  0.569E-01  0.569E-01
  -9.030  0.116E+00  0.750E-04  0.581E-01  0.581E-01
  -9.020  0.125E+00  0.848E-04  0.625E-01  0.625E-01
  -9.010  0.139E+00  0.102E-03  0.696E-01  0.696E-01
  -9.000  0.157E+00  0.126E-03  0.787E-01  0.787E-01
  -8.990  0.178E+00  0.152E-03  0.888E-01  0.888E-01
  -8.980  0.198E+00  0.176E-03  0.991E-01  0.991E-01
  -8.970  0.218E+00  0.197E-03  0.109E+00  0.109E+00
  -8.960  0.235E+00  0.209E-03  0.117E+00  0.117E+00
  -8.950  0.249E+00  0.211E-03  0.124E+00  0.124E+00
  -8.940  0.259E+00  0.202E-03  0.129E+00  0.129E+00
  -8.930  0.266E+00  0.183E-03  0.133E+00  0.133E+00
  -8.920  0.269E+00  0.158E-03  0.134E+00  0.134E+00
  -8.910  0.268E+00  0.128E-03  0.134E+00  0.134E+00
  -8.900  0.264E+00  0.100E-03  0.132E+00  0.132E+00
  -8.890  0.255E+00  0.774E-04  0.128E+00  0.128E+00
  -8.880  0.242E+00  0.632E-04  0.121E+00  0.121E+00
  -8.870  0.225E+00  0.597E-04  0.112E+00  0.112E+00
  -8.860  0.204E+00  0.673E-04  0.102E+00  0.102E+00
  -8.850  0.180E+00  0.854E-04  0.900E-01  0.900E-01
  -8.840  0.155E+00  0.112E-03  0.774E-01  0.774E-01
  -8.830  0.130E+00  0.145E-03  0.652E-01  0.652E-01
  -8.820  0.108E+00  0.179E-03  0.541E-01  0.541E-01
  -8.810  0.907E-01  0.212E-03  0.453E-01  0.453E-01
  -8.800  0.789E-01  0.240E-03  0.393E-01  0.393E-01
  -8.790  0.740E-01  0.257E-03  0.369E-01  0.369E-01
  -8.780  0.769E-01  0.262E-03  0.383E-01  0.383E-01
  -8.770  0.879E-01  0.254E-03  0.438E-01  0.438E-01
  -8.760  0.107E+00  0.233E-03  0.533E-01  0.533E-01
  -8.750  0.133E+00  0.204E-03  0.663E-01  0.663E-01
  -8.740  0.165E+00  0.173E-03  0.822E-01  0.822E-01
  -8.730  0.200E+00  0.149E-03  0.100E+00  0.100E+00
  -8.720  0.236E+00  0.147E-03  0.118E+00  0.118E+00
  -8.710  0.271E+00  0.186E-03  0.135E+00  0.135E+00
  -8.700  0.299E+00  0.296E-03  0.149E+00  0.149E+00
  -8.690  0.319E+00  0.523E-03  0.159E+00  0.159E+00
  -8.680  0.329E+00  0.941E-03  0.164E+00  0.164E+00
  -8.670  0.328E+00  0.165E-02  0.163E+00  0.163E+00
  -8.660  0.316E+00  0.281E-02  0.157E+00  0.157E+00
  -8.650  0.295E+00  0.460E-02  0.145E+00  0.145E+00
  -8.640  0.269E+00  0.724E-02  0.131E+00  0.131E+00
  -8.630  0.241E+00  0.110E-01  0.115E+00  0.115E+00
  -8.620  0.214E+00  0.160E-01  0.991E-01  0.991E-01
  -8.610  0.192E+00  0.225E-01  0.846E-01  0.846E-01
  -8.600  0.176E+00  0.305E-01  0.728E-01  0.728E-01
  -8.590  0.168E+00  0.397E-01  0.642E-01  0.642E-01
  -8.580  0.168E+00  0.499E-01  0.590E-01  0.590E-01
  -8.570  0.175E+00  0.606E-01  0.572E-01  0.572E-01
  -8.560  0.188E+00  0.711E-01  0.585E-01  0.585E-01
  -8.550  0.205E+00  0.808E-01  0.621E-01  0.621E-01
  -8.540  0.225E+00  0.893E-01  0.677E-01  0.677E-01
  -8.530  0.245E+00  0.960E-01  0.745E-01  0.745E-01
  -8.520  0.265E+00  0.101E+00  0.820E-01  0.820E-01
  -8.510  0.283E+00  0.104E+00  0.897E-01  0.897E-01
  -8.500  0.299E+00  0.105E+00  0.972E-01  0.972E-01
  -8.490  0.313E+00  0.105E+00  0.104E+00  0.104E+00
  -8.480  0.325E+00  0.105E+00  0.110E+00  0.110E+00
  -8.470  0.334E+00  0.103E+00  0.115E+00  0.115E+00
  -8.460  0.341E+00  0.102E+00  0.119E+00  0.119E+00
  -8.450  0.346E+00  0.101E+00  0.122E+00  0.122E+00
  -8.440  0.349E+00  0.999E-01  0.124E+00  0.124E+00
  -8.430  0.350E+00  0.991E-01  0.126E+00  0.126E+00
  -8.420  0.351E+00  0.986E-01  0.126E+00  0.126E+00
  -8.410  0.349E+00  0.982E-01  0.126E+00  0.126E+00
  -8.400  0.346E+00  0.980E-01  0.124E+00  0.124E+00
  -8.390  0.341E+00  0.978E-01  0.122E+00  0.122E+00
  -8.380  0.333E+00  0.978E-01  0.118E+00  0.118E+00
  -8.370  0.323E+00  0.978E-01  0.113E+00  0.113E+00
  -8.360  0.312E+00  0.978E-01  0.107E+00  0.107E+00
  -8.350  0.299E+00  0.978E-01  0.101E+00  0.101E+00
  -8.340  0.288E+00  0.977E-01  0.951E-01  0.951E-01
  -8.330  0.279E+00  0.977E-01  0.909E-01  0.909E-01
  -8.320  0.275E+00  0.978E-01  0.885E-01  0.885E-01
  -8.310  0.275E+00  0.980E-01  0.884E-01  0.884E-01
  -8.300  0.279E+00  0.982E-01  0.902E-01  0.902E-01
  -8.290  0.286E+00  0.985E-01  0.936E-01  0.936E-01
  -8.280  0.294E+00  0.986E-01  0.978E-01  0.978E-01
  -8.270  0.303E+00  0.985E-01  0.102E+00  0.102E+00
  -8.260  0.310E+00  0.983E-01  0.106E+00  0.106E+00
  -8.250  0.316E+00  0.980E-01  0.109E+00  0.109E+00
  -8.240  0.320E+00  0.977E-01  0.111E+00  0.111E+00
  -8.230  0.322E+00  0.978E-01  0.112E+00  0.112E+00
  -8.220  0.324E+00  0.981E-01  0.113E+00  0.113E+00
  -8.210  0.326E+00  0.986E-01  0.114E+00  0.114E+00
  -8.200  0.328E+00  0.992E-01  0.114E+00  0.114E+00
  -8.190  0.329E+00  0.995E-01  0.115E+00  0.115E+00
  -8.180  0.330E+00  0.994E-01  0.115E+00  0.115E+00
  -8.170  0.329E+00  0.988E-01  0.115E+00  0.115E+00
  -8.160  0.326E+00  0.979E-01  0.114E+00  0.114E+00
  -8.150  0.322E+00  0.971E-01  0.113E+00  0.113E+00
  -8.140  0.318E+00  0.968E-01  0.111E+00  0.111E+00
  -8.130  0.314E+00  0.972E-01  0.109E+00  0.109E+00
  -8.120  0.313E+00  0.983E-01  0.107E+00  0.107E+00
  -8.110  0.314E+00  0.997E-01  0.107E+00  0.107E+00
  -8.100  0.318E+00  0.101E+00  0.108E+00  0.108E+00
  -8.090  0.325E+00  0.102E+00  0.111E+00  0.111E+00
  -8.080  0.333E+00  0.102E+00  0.116E+00  0.116E+00
  -8.070  0.341E+00  0.101E+00  0.120E+00  0.120E+00
  -8.060  0.347E+00  0.987E-01  0.124E+00  0.124E+00
  -8.050  0.350E+00  0.969E-01  0.127E+00  0.127E+00
  -8.040  0.350E+00  0.956E-01  0.127E+00  0.127E+00
  -8.030  0.346E+00  0.954E-01  0.125E+00  0.125E+00
  -8.020  0.339E+00  0.964E-01  0.121E+00  0.121E+00
  -8.010  0.330E+00  0.984E-01  0.116E+00  0.116E+00
  -8.000  0.322E+00  0.101E+00  0.110E+00  0.110E+00
  -7.990  0.314E+00  0.103E+00  0.106E+00  0.106E+00
  -7.980  0.309E+00  0.104E+00  0.102E+00  0.102E+00
  -7.970  0.308E+00  0.104E+00  0.102E+00  0.102E+00
  -7.960  0.311E+00  0.103E+00  0.104E+00  0.104E+00
  -7.950  0.317E+00  0.999E-01  0.109E+00  0.109E+00
  -7.940  0.328E+00  0.969E-01  0.115E+00  0.115E+00
  -7.930  0.341E+00  0.944E-01  0.123E+00  0.123E+00
  -7.920  0.355E+00  0.932E-01  0.131E+00  0.131E+00
  -7.910  0.368E+00  0.938E-01  0.137E+00  0.137E+00
  -7.900  0.379E+00  0.960E-01  0.142E+00  0.142E+00
  -7.890  0.386E+00  0.994E-01  0.143E+00  0.143E+00
  -7.880  0.388E+00  0.103E+00  0.142E+00  0.142E+00
  -7.870  0.383E+00  0.106E+00  0.138E+00  0.138E+00
  -7.860  0.373E+00  0.108E+00  0.132E+00  0.132E+00
  -7.850  0.358E+00  0.108E+00  0.125E+00  0.125E+00
  -7.840  0.340E+00  0.106E+00  0.117E+00  0.117E+00
  -7.830  0.323E+00  0.102E+00  0.111E+00  0.111E+00
  -7.820  0.309E+00  0.977E-01  0.106E+00  0.106E+00
  -7.810  0.299E+00  0.939E-01  0.103E+00  0.103E+00
  -7.800  0.296E+00  0.913E-01  0.102E+00  0.102E+00
  -7.790  0.299E+00  0.907E-01  0.104E+00  0.104E+00
  -7.780  0.308E+00  0.923E-01  0.108E+00  0.108E+00
  -7.770  0.323E+00  0.957E-01  0.114E+00  0.114E+00
  -7.760  0.342E+00  0.100E+00  0.121E+00  0.121E+00
  -7.750  0.363E+00  0.105E+00  0.129E+00  0.129E+00
  -7.740  0.383E+00  0.110E+00  0.137E+00  0.137E+00
  -7.730  0.400E+00  0.112E+00  0.144E+00  0.144E+00
  -7.720  0.413E+00  0.112E+00  0.150E+00  0.150E+00
  -7.710  0.420E+00  0.110E+00  0.155E+00  0.155E+00
  -7.700  0.420E+00  0.106E+00  0.157E+00  0.157E+00
  -7.690  0.415E+00  0.100E+00  0.157E+00  0.157E+00
  -7.680  0.405E+00  0.947E-01  0.155E+00  0.155E+00
  -7.670  0.393E+00  0.904E-01  0.151E+00  0.151E+00
  -7.660  0.381E+00  0.881E-01  0.146E+00  0.146E+00
  -7.650  0.370E+00  0.883E-01  0.141E+00  0.141E+00
  -7.640  0.364E+00  0.911E-01  0.136E+00  0.136E+00
  -7.630  0.362E+00  0.958E-01  0.133E+00  0.133E+00
  -7.620  0.365E+00  0.102E+00  0.132E+00  0.132E+00
  -7.610  0.372E+00  0.108E+00  0.132E+00  0.132E+00
  -7.600  0.380E+00  0.113E+00  0.134E+00  0.134E+00
  -7.590  0.387E+00  0.116E+00  0.136E+00  0.136E+00
  -7.580  0.391E+00  0.116E+00  0.137E+00  0.137E+00
  -7.570  0.392E+00  0.115E+00  0.139E+00  0.139E+00
  -7.560  0.388E+00  0.110E+00  0.139E+00  0.139E+00
  -7.550  0.381E+00  0.105E+00  0.138E+00  0.138E+00
  -7.540  0.372E+00  0.985E-01  0.137E+00  0.137E+00
  -7.530  0.362E+00  0.927E-01  0.135E+00  0.135E+00
  -7.520  0.354E+00  0.884E-01  0.133E+00  0.133E+00
  -7.510  0.349E+00  0.865E-01  0.131E+00  0.131E+00
  -7.500  0.349E+00  0.873E-01  0.131E+00  0.131E+00
  -7.490  0.357E+00  0.909E-01  0.133E+00  0.133E+00
  -7.480  0.371E+00  0.967E-01  0.137E+00  0.137E+00
  -7.470  0.393E+00  0.104E+00  0.145E+00  0.145E+00
  -7.460  0.421E+00  0.111E+00  0.155E+00  0.155E+00
  -7.450  0.451E+00  0.116E+00  0.168E+00  0.168E+00
  -7.440  0.481E+00  0.120E+00  0.181E+00  0.181E+00
  -7.430  0.507E+00  0.121E+00  0.193E+00  0.193E+00
  -7.420  0.525E+00  0.119E+00  0.203E+00  0.203E+00
  -7.410  0.533E+00  0.115E+00  0.209E+00  0.209E+00
  -7.400  0.529E+00  0.109E+00  0.210E+00  0.210E+00
  -7.390  0.516E+00  0.103E+00  0.206E+00  0.206E+00
  -7.380  0.494E+00  0.969E-01  0.199E+00  0.199E+00
  -7.370  0.468E+00  0.922E-01  0.188E+00  0.188E+00
  -7.360  0.441E+00  0.896E-01  0.176E+00  0.176E+00
  -7.350  0.420E+00  0.894E-01  0.165E+00  0.165E+00
  -7.340  0.407E+00  0.922E-01  0.158E+00  0.158E+00
  -7.330  0.407E+00  0.978E-01  0.154E+00  0.154E+00
  -7.320  0.419E+00  0.106E+00  0.156E+00  0.156E+00
  -7.310  0.443E+00  0.116E+00  0.164E+00  0.164E+00
  -7.300  0.475E+00  0.127E+00  0.174E+00  0.174E+00
  -7.290  0.512E+00  0.137E+00  0.188E+00  0.188E+00
  -7.280  0.547E+00  0.145E+00  0.201E+00  0.201E+00
  -7.270  0.578E+00  0.150E+00  0.214E+00  0.214E+00
  -7.260  0.600E+00  0.153E+00  0.224E+00  0.224E+00
  -7.250  0.615E+00  0.152E+00  0.231E+00  0.231E+00
  -7.240  0.622E+00  0.149E+00  0.236E+00  0.236E+00
  -7.230  0.624E+00  0.145E+00  0.240E+00  0.240E+00
  -7.220  0.624E+00  0.140E+00  0.242E+00  0.242E+00
  -7.210  0.624E+00  0.137E+00  0.243E+00  0.243E+00
  -7.200  0.625E+00  0.135E+00  0.245E+00  0.245E+00
  -7.190  0.627E+00  0.135E+00  0.246E+00  0.246E+00
  -7.180  0.631E+00  0.138E+00  0.246E+00  0.246E+00
  -7.170  0.633E+00  0.143E+00  0.245E+00  0.245E+00
  -7.160  0.631E+00  0.149E+00  0.241E+00  0.241E+00
  -7.150  0.625E+00  0.156E+00  0.234E+00  0.234E+00
  -7.140  0.612E+00  0.163E+00  0.224E+00  0.224E+00
  -7.130  0.591E+00  0.168E+00  0.211E+00  0.211E+00
  -7.120  0.565E+00  0.171E+00  0.197E+00  0.197E+00
  -7.110  0.534E+00  0.170E+00  0.182E+00  0.182E+00
  -7.100  0.501E+00  0.164E+00  0.168E+00  0.168E+00
  -7.090  0.469E+00  0.154E+00  0.158E+00  0.158E+00
  -7.080  0.440E+00  0.139E+00  0.151E+00  0.151E+00
  -7.070  0.417E+00  0.122E+00  0.147E+00  0.147E+00
  -7.060  0.400E+00  0.105E+00  0.148E+00  0.148E+00
  -7.050  0.388E+00  0.871E-01  0.151E+00  0.151E+00
  -7.040  0.381E+00  0.717E-01  0.154E+00  0.154E+00
  -7.030  0.376E+00  0.594E-01  0.158E+00  0.158E+00
  -7.020  0.372E+00  0.508E-01  0.160E+00  0.160E+00
  -7.010  0.369E+00  0.463E-01  0.161E+00  0.161E+00
  -7.000  0.366E+00  0.458E-01  0.160E+00  0.160E+00
  -6.990  0.364E+00  0.488E-01  0.158E+00  0.158E+00
  -6.980  0.363E+00  0.550E-01  0.154E+00  0.154E+00
  -6.970  0.365E+00  0.639E-01  0.150E+00  0.150E+00
  -6.960  0.368E+00  0.747E-01  0.147E+00  0.147E+00
  -6.950  0.375E+00  0.870E-01  0.144E+00  0.144E+00
  -6.940  0.383E+00  0.997E-01  0.142E+00  0.142E+00
  -6.930  0.394E+00  0.112E+00  0.141E+00  0.141E+00
  -6.920  0.406E+00  0.124E+00  0.141E+00  0.141E+00
  -6.910  0.418E+00  0.135E+00  0.141E+00  0.141E+00
  -6.900  0.428E+00  0.145E+00  0.142E+00  0.142E+00
  -6.890  0.436E+00  0.153E+00  0.142E+00  0.142E+00
  -6.880  0.441E+00  0.160E+00  0.141E+00  0.141E+00
  -6.870  0.443E+00  0.164E+00  0.139E+00  0.139E+00
  -6.860  0.442E+00  0.167E+00  0.137E+00  0.137E+00
  -6.850  0.438E+00  0.167E+00  0.136E+00  0.136E+00
  -6.840  0.434E+00  0.164E+00  0.135E+00  0.135E+00
  -6.830  0.430E+00  0.158E+00  0.136E+00  0.136E+00
  -6.820  0.426E+00  0.150E+00  0.138E+00  0.138E+00
  -6.810  0.423E+00  0.141E+00  0.141E+00  0.141E+00
  -6.800  0.421E+00  0.132E+00  0.144E+00  0.144E+00
  -6.790  0.418E+00  0.125E+00  0.146E+00  0.146E+00
  -6.780  0.413E+00  0.122E+00  0.146E+00  0.146E+00
  -6.770  0.407E+00  0.122E+00  0.143E+00  0.143E+00
  -6.760  0.400E+00  0.126E+00  0.137E+00  0.137E+00
  -6.750  0.392E+00  0.133E+00  0.129E+00  0.129E+00
  -6.740  0.386E+00  0.142E+00  0.122E+00  0.122E+00
  -6.730  0.382E+00  0.151E+00  0.115E+00  0.115E+00
  -6.720  0.381E+00  0.158E+00  0.112E+00  0.112E+00
  -6.710  0.383E+00  0.162E+00  0.111E+00  0.111E+00
  -6.700  0.387E+00  0.162E+00  0.112E+00  0.112E+00
  -6.690  0.391E+00  0.160E+00  0.116E+00  0.116E+00
  -6.680  0.394E+00  0.154E+00  0.120E+00  0.120E+00
  -6.670  0.394E+00  0.148E+00  0.123E+00  0.123E+00
  -6.660  0.390E+00  0.141E+00  0.125E+00  0.125E+00
  -6.650  0.383E+00  0.134E+00  0.125E+00  0.125E+00
  -6.640  0.374E+00  0.128E+00  0.123E+00  0.123E+00
  -6.630  0.365E+00  0.124E+00  0.121E+00  0.121E+00
  -6.620  0.357E+00  0.120E+00  0.119E+00  0.119E+00
  -6.610  0.353E+00  0.117E+00  0.118E+00  0.118E+00
  -6.600  0.351E+00  0.115E+00  0.118E+00  0.118E+00
  -6.590  0.354E+00  0.114E+00  0.120E+00  0.120E+00
  -6.580  0.359E+00  0.114E+00  0.122E+00  0.122E+00
  -6.570  0.364E+00  0.117E+00  0.123E+00  0.123E+00
  -6.560  0.370E+00  0.123E+00  0.123E+00  0.123E+00
  -6.550  0.374E+00  0.131E+00  0.121E+00  0.121E+00
  -6.540  0.377E+00  0.141E+00  0.118E+00  0.118E+00
  -6.530  0.377E+00  0.152E+00  0.112E+00  0.112E+00
  -6.520  0.375E+00  0.162E+00  0.107E+00  0.107E+00
  -6.510  0.372E+00  0.168E+00  0.102E+00  0.102E+00
  -6.500  0.369E+00  0.171E+00  0.989E-01  0.989E-01
  -6.490  0.366E+00  0.170E+00  0.983E-01  0.983E-01
  -6.480  0.365E+00  0.164E+00  0.101E+00  0.101E+00
  -6.470  0.366E+00  0.155E+00  0.106E+00  0.106E+00
  -6.460  0.368E+00  0.144E+00  0.112E+00  0.112E+00
  -6.450  0.373E+00  0.132E+00  0.120E+00  0.120E+00
  -6.440  0.377E+00  0.122E+00  0.127E+00  0.127E+00
  -6.430  0.380E+00  0.115E+00  0.133E+00  0.133E+00
  -6.420  0.381E+00  0.111E+00  0.135E+00  0.135E+00
  -6.410  0.378E+00  0.110E+00  0.134E+00  0.134E+00
  -6.400  0.370E+00  0.112E+00  0.129E+00  0.129E+00
  -6.390  0.358E+00  0.116E+00  0.121E+00  0.121E+00
  -6.380  0.344E+00  0.121E+00  0.111E+00  0.111E+00
  -6.370  0.330E+00  0.127E+00  0.101E+00  0.101E+00
  -6.360  0.318E+00  0.133E+00  0.928E-01  0.928E-01
  -6.350  0.311E+00  0.138E+00  0.864E-01  0.864E-01
  -6.340  0.310E+00  0.144E+00  0.830E-01  0.830E-01
  -6.330  0.314E+00  0.149E+00  0.826E-01  0.826E-01
  -6.320  0.323E+00  0.153E+00  0.847E-01  0.847E-01
  -6.310  0.334E+00  0.157E+00  0.883E-01  0.883E-01
  -6.300  0.345E+00  0.160E+00  0.924E-01  0.924E-01
  -6.290  0.353E+00  0.160E+00  0.961E-01  0.961E-01
  -6.280  0.356E+00  0.159E+00  0.986E-01  0.986E-01
  -6.270  0.354E+00  0.155E+00  0.997E-01  0.997E-01
  -6.260  0.348E+00  0.148E+00  0.997E-01  0.997E-01
  -6.250  0.339E+00  0.140E+00  0.992E-01  0.992E-01
  -6.240  0.330E+00  0.132E+00  0.991E-01  0.991E-01
  -6.230  0.323E+00  0.123E+00  0.100E+00  0.100E+00
  -6.220  0.320E+00  0.115E+00  0.103E+00  0.103E+00
  -6.210  0.323E+00  0.109E+00  0.107E+00  0.107E+00
  -6.200  0.330E+00  0.105E+00  0.113E+00  0.113E+00
  -6.190  0.340E+00  0.103E+00  0.119E+00  0.119E+00
  -6.180  0.352E+00  0.104E+00  0.124E+00  0.124E+00
  -6.170  0.362E+00  0.108E+00  0.127E+00  0.127E+00
  -6.160  0.369E+00  0.114E+00  0.128E+00  0.128E+00
  -6.150  0.372E+00  0.121E+00  0.125E+00  0.125E+00
  -6.140  0.370E+00  0.130E+00  0.120E+00  0.120E+00
  -6.130  0.362E+00  0.139E+00  0.112E+00  0.112E+00
  -6.120  0.352E+00  0.147E+00  0.102E+00  0.102E+00
  -6.110  0.339E+00  0.155E+00  0.921E-01  0.921E-01
  -6.100  0.327E+00  0.162E+00  0.821E-01  0.821E-01
  -6.090  0.315E+00  0.168E+00  0.735E-01  0.735E-01
  -6.080  0.305E+00  0.172E+00  0.668E-01  0.668E-01
  -6.070  0.299E+00  0.174E+00  0.628E-01  0.628E-01
  -6.060  0.296E+00  0.173E+00  0.615E-01  0.615E-01
  -6.050  0.296E+00  0.170E+00  0.631E-01  0.631E-01
  -6.040  0.299E+00  0.164E+00  0.672E-01  0.672E-01
  -6.030  0.304E+00  0.157E+00  0.734E-01  0.734E-01
  -6.020  0.311E+00  0.149E+00  0.812E-01  0.812E-01
  -6.010  0.320E+00  0.140E+00  0.900E-01  0.900E-01
  -6.000  0.329E+00  0.131E+00  0.989E-01  0.989E-01
  -5.990  0.338E+00  0.123E+00  0.107E+00  0.107E+00
  -5.980  0.344E+00  0.117E+00  0.114E+00  0.114E+00
  -5.970  0.348E+00  0.112E+00  0.118E+00  0.118E+00
  -5.960  0.348E+00  0.108E+00  0.120E+00  0.120E+00
  -5.950  0.344E+00  0.107E+00  0.118E+00  0.118E+00
  -5.940  0.337E+00  0.109E+00  0.114E+00  0.114E+00
  -5.930  0.328E+00  0.113E+00  0.108E+00  0.108E+00
  -5.920  0.320E+00  0.120E+00  0.998E-01  0.998E-01
  -5.910  0.313E+00  0.129E+00  0.921E-01  0.921E-01
  -5.900  0.311E+00  0.140E+00  0.855E-01  0.855E-01
  -5.890  0.313E+00  0.151E+00  0.810E-01  0.810E-01
  -5.880  0.319E+00  0.161E+00  0.790E-01  0.790E-01
  -5.870  0.328E+00  0.169E+00  0.794E-01  0.794E-01
  -5.860  0.337E+00  0.173E+00  0.820E-01  0.820E-01
  -5.850  0.345E+00  0.174E+00  0.857E-01  0.857E-01
  -5.840  0.351E+00  0.171E+00  0.898E-01  0.898E-01
  -5.830  0.353E+00  0.166E+00  0.932E-01  0.932E-01
  -5.820  0.350E+00  0.160E+00  0.951E-01  0.951E-01
  -5.810  0.343E+00  0.153E+00  0.950E-01  0.950E-01
  -5.800  0.331E+00  0.146E+00  0.926E-01  0.926E-01
  -5.790  0.317E+00  0.141E+00  0.881E-01  0.881E-01
  -5.780  0.302E+00  0.137E+00  0.823E-01  0.823E-01
  -5.770  0.287E+00  0.135E+00  0.760E-01  0.760E-01
  -5.760  0.274E+00  0.133E+00  0.703E-01  0.703E-01
  -5.750  0.264E+00  0.132E+00  0.663E-01  0.663E-01
  -5.740  0.259E+00  0.130E+00  0.646E-01  0.646E-01
  -5.730  0.259E+00  0.128E+00  0.655E-01  0.655E-01
  -5.720  0.263E+00  0.125E+00  0.690E-01  0.690E-01
  -5.710  0.270E+00  0.121E+00  0.744E-01  0.744E-01
  -5.700  0.281E+00  0.118E+00  0.811E-01  0.811E-01
  -5.690  0.293E+00  0.116E+00  0.884E-01  0.884E-01
  -5.680  0.307E+00  0.116E+00  0.956E-01  0.956E-01
  -5.670  0.323E+00  0.119E+00  0.102E+00  0.102E+00
  -5.660  0.340E+00  0.125E+00  0.108E+00  0.108E+00
  -5.650  0.357E+00  0.134E+00  0.112E+00  0.112E+00
  -5.640  0.373E+00  0.146E+00  0.114E+00  0.114E+00
  -5.630  0.384E+00  0.159E+00  0.113E+00  0.113E+00
  -5.620  0.389E+00  0.171E+00  0.109E+00  0.109E+00
  -5.610  0.384E+00  0.181E+00  0.101E+00  0.101E+00
  -5.600  0.370E+00  0.187E+00  0.915E-01  0.915E-01
  -5.590  0.347E+00  0.188E+00  0.796E-01  0.796E-01
  -5.580  0.319E+00  0.184E+00  0.674E-01  0.674E-01
  -5.570  0.288E+00  0.176E+00  0.564E-01  0.564E-01
  -5.560  0.261E+00  0.165E+00  0.483E-01  0.483E-01
  -5.550  0.241E+00  0.153E+00  0.443E-01  0.443E-01
  -5.540  0.231E+00  0.141E+00  0.451E-01  0.451E-01
  -5.530  0.232E+00  0.131E+00  0.506E-01  0.506E-01
  -5.520  0.243E+00  0.123E+00  0.599E-01  0.599E-01
  -5.510  0.262E+00  0.118E+00  0.719E-01  0.719E-01
  -5.500  0.284E+00  0.115E+00  0.848E-01  0.848E-01
  -5.490  0.307E+00  0.113E+00  0.968E-01  0.968E-01
  -5.480  0.326E+00  0.113E+00  0.106E+00  0.106E+00
  -5.470  0.339E+00  0.114E+00  0.112E+00  0.112E+00
  -5.460  0.344E+00  0.116E+00  0.114E+00  0.114E+00
  -5.450  0.340E+00  0.119E+00  0.111E+00  0.111E+00
  -5.440  0.330E+00  0.124E+00  0.103E+00  0.103E+00
  -5.430  0.315E+00  0.129E+00  0.931E-01  0.931E-01
  -5.420  0.299E+00  0.137E+00  0.810E-01  0.810E-01
  -5.410  0.283E+00  0.145E+00  0.689E-01  0.689E-01
  -5.400  0.271E+00  0.155E+00  0.581E-01  0.581E-01
  -5.390  0.264E+00  0.165E+00  0.499E-01  0.499E-01
  -5.380  0.264E+00  0.174E+00  0.451E-01  0.451E-01
  -5.370  0.270E+00  0.181E+00  0.441E-01  0.441E-01
  -5.360  0.281E+00  0.186E+00  0.471E-01  0.471E-01
  -5.350  0.295E+00  0.188E+00  0.536E-01  0.536E-01
  -5.340  0.312E+00  0.186E+00  0.631E-01  0.631E-01
  -5.330  0.329E+00  0.180E+00  0.745E-01  0.745E-01
  -5.320  0.344E+00  0.170E+00  0.868E-01  0.868E-01
  -5.310  0.356E+00  0.159E+00  0.986E-01  0.986E-01
  -5.300  0.363E+00  0.146E+00  0.108E+00  0.108E+00
  -5.290  0.364E+00  0.135E+00  0.115E+00  0.115E+00
  -5.280  0.358E+00  0.125E+00  0.117E+00  0.117E+00
  -5.270  0.345E+00  0.117E+00  0.114E+00  0.114E+00
  -5.260  0.325E+00  0.113E+00  0.106E+00  0.106E+00
  -5.250  0.300E+00  0.111E+00  0.943E-01  0.943E-01
  -5.240  0.272E+00  0.112E+00  0.801E-01  0.801E-01
  -5.230  0.246E+00  0.116E+00  0.652E-01  0.652E-01
  -5.220  0.224E+00  0.121E+00  0.516E-01  0.516E-01
  -5.210  0.208E+00  0.127E+00  0.407E-01  0.407E-01
  -5.200  0.201E+00  0.133E+00  0.337E-01  0.337E-01
  -5.190  0.202E+00  0.140E+00  0.311E-01  0.311E-01
  -5.180  0.212E+00  0.147E+00  0.326E-01  0.326E-01
  -5.170  0.229E+00  0.153E+00  0.380E-01  0.380E-01
  -5.160  0.251E+00  0.158E+00  0.464E-01  0.464E-01
  -5.150  0.276E+00  0.162E+00  0.571E-01  0.571E-01
  -5.140  0.303E+00  0.165E+00  0.691E-01  0.691E-01
  -5.130  0.330E+00  0.167E+00  0.816E-01  0.816E-01
  -5.120  0.355E+00  0.168E+00  0.935E-01  0.935E-01
  -5.110  0.376E+00  0.168E+00  0.104E+00  0.104E+00
  -5.100  0.390E+00  0.168E+00  0.111E+00  0.111E+00
  -5.090  0.397E+00  0.167E+00  0.115E+00  0.115E+00
  -5.080  0.394E+00  0.166E+00  0.114E+00  0.114E+00
  -5.070  0.382E+00  0.165E+00  0.108E+00  0.108E+00
  -5.060  0.361E+00  0.163E+00  0.988E-01  0.988E-01
  -5.050  0.333E+00  0.160E+00  0.862E-01  0.862E-01
  -5.040  0.301E+00  0.156E+00  0.723E-01  0.723E-01
  -5.030  0.269E+00  0.151E+00  0.588E-01  0.588E-01
  -5.020  0.241E+00  0.146E+00  0.474E-01  0.474E-01
  -5.010  0.218E+00  0.140E+00  0.393E-01  0.393E-01
  -5.000  0.204E+00  0.134E+00  0.351E-01  0.351E-01
  -4.990  0.198E+00  0.129E+00  0.348E-01  0.348E-01
  -4.980  0.201E+00  0.124E+00  0.381E-01  0.381E-01
  -4.970  0.210E+00  0.122E+00  0.441E-01  0.441E-01
  -4.960  0.224E+00  0.120E+00  0.520E-01  0.520E-01
  -4.950  0.242E+00  0.121E+00  0.609E-01  0.609E-01
  -4.940  0.263E+00  0.123E+00  0.700E-01  0.700E-01
  -4.930  0.283E+00  0.127E+00  0.785E-01  0.785E-01
  -4.920  0.303E+00  0.132E+00  0.856E-01  0.856E-01
  -4.910  0.321E+00  0.139E+00  0.906E-01  0.906E-01
  -4.900  0.334E+00  0.148E+00  0.932E-01  0.932E-01
  -4.890  0.343E+00  0.157E+00  0.929E-01  0.929E-01
  -4.880  0.346E+00  0.166E+00  0.899E-01  0.899E-01
  -4.870  0.343E+00  0.174E+00  0.846E-01  0.846E-01
  -4.860  0.336E+00  0.180E+00  0.779E-01  0.779E-01
  -4.850  0.325E+00  0.184E+00  0.706E-01  0.706E-01
  -4.840  0.312E+00  0.185E+00  0.637E-01  0.637E-01
  -4.830  0.300E+00  0.184E+00  0.580E-01  0.580E-01
  -4.820  0.289E+00  0.181E+00  0.540E-01  0.540E-01
  -4.810  0.281E+00  0.177E+00  0.520E-01  0.520E-01
  -4.800  0.276E+00  0.172E+00  0.521E-01  0.521E-01
  -4.790  0.275E+00  0.167E+00  0.539E-01  0.539E-01
  -4.780  0.277E+00  0.163E+00  0.572E-01  0.572E-01
  -4.770  0.280E+00  0.157E+00  0.616E-01  0.616E-01
  -4.760  0.284E+00  0.151E+00  0.663E-01  0.663E-01
  -4.750  0.286E+00  0.144E+00  0.708E-01  0.708E-01
  -4.740  0.285E+00  0.137E+00  0.743E-01  0.743E-01
  -4.730  0.282E+00  0.129E+00  0.762E-01  0.762E-01
  -4.720  0.274E+00  0.122E+00  0.760E-01  0.760E-01
  -4.710  0.263E+00  0.116E+00  0.737E-01  0.737E-01
  -4.700  0.251E+00  0.112E+00  0.695E-01  0.695E-01
  -4.690  0.238E+00  0.110E+00  0.642E-01  0.642E-01
  -4.680  0.229E+00  0.111E+00  0.588E-01  0.588E-01
  -4.670  0.225E+00  0.116E+00  0.543E-01  0.543E-01
  -4.660  0.228E+00  0.124E+00  0.518E-01  0.518E-01
  -4.650  0.239E+00  0.135E+00  0.518E-01  0.518E-01
  -4.640  0.258E+00  0.149E+00  0.544E-01  0.544E-01
  -4.630  0.283E+00  0.165E+00  0.593E-01  0.593E-01
  -4.620  0.311E+00  0.180E+00  0.655E-01  0.655E-01
  -4.610  0.338E+00  0.194E+00  0.719E-01  0.719E-01
  -4.600  0.360E+00  0.205E+00  0.773E-01  0.773E-01
  -4.590  0.372E+00  0.211E+00  0.806E-01  0.806E-01
  -4.580  0.374E+00  0.211E+00  0.812E-01  0.812E-01
  -4.570  0.363E+00  0.206E+00  0.789E-01  0.789E-01
  -4.560  0.343E+00  0.196E+00  0.739E-01  0.739E-01
  -4.550  0.317E+00  0.183E+00  0.670E-01  0.670E-01
  -4.540  0.288E+00  0.169E+00  0.592E-01  0.592E-01
  -4.530  0.261E+00  0.157E+00  0.519E-01  0.519E-01
  -4.520  0.239E+00  0.147E+00  0.462E-01  0.462E-01
  -4.510  0.226E+00  0.140E+00  0.429E-01  0.429E-01
  -4.500  0.222E+00  0.136E+00  0.427E-01  0.427E-01
  -4.490  0.225E+00  0.134E+00  0.454E-01  0.454E-01
  -4.480  0.234E+00  0.133E+00  0.507E-01  0.507E-01
  -4.470  0.247E+00  0.132E+00  0.576E-01  0.576E-01
  -4.460  0.260E+00  0.130E+00  0.649E-01  0.649E-01
  -4.450  0.271E+00  0.128E+00  0.714E-01  0.714E-01
  -4.440  0.278E+00  0.126E+00  0.762E-01  0.762E-01
  -4.430  0.282E+00  0.125E+00  0.783E-01  0.783E-01
  -4.420  0.282E+00  0.127E+00  0.777E-01  0.777E-01
  -4.410  0.280E+00  0.131E+00  0.746E-01  0.746E-01
  -4.400  0.277E+00  0.138E+00  0.695E-01  0.695E-01
  -4.390  0.274E+00  0.147E+00  0.635E-01  0.635E-01
  -4.380  0.274E+00  0.159E+00  0.575E-01  0.575E-01
  -4.370  0.276E+00  0.171E+00  0.526E-01  0.526E-01
  -4.360  0.281E+00  0.183E+00  0.493E-01  0.493E-01
  -4.350  0.289E+00  0.193E+00  0.481E-01  0.481E-01
  -4.340  0.298E+00  0.200E+00  0.489E-01  0.489E-01
  -4.330  0.307E+00  0.205E+00  0.513E-01  0.513E-01
  -4.320  0.315E+00  0.205E+00  0.546E-01  0.546E-01
  -4.310  0.318E+00  0.202E+00  0.582E-01  0.582E-01
  -4.300  0.318E+00  0.195E+00  0.613E-01  0.613E-01
  -4.290  0.313E+00  0.185E+00  0.636E-01  0.636E-01
  -4.280  0.304E+00  0.174E+00  0.648E-01  0.648E-01
  -4.270  0.293E+00  0.163E+00  0.648E-01  0.648E-01
  -4.260  0.281E+00  0.153E+00  0.640E-01  0.640E-01
  -4.250  0.271E+00  0.145E+00  0.626E-01  0.626E-01
  -4.240  0.263E+00  0.141E+00  0.609E-01  0.609E-01
  -4.230  0.258E+00  0.140E+00  0.593E-01  0.593E-01
  -4.220  0.257E+00  0.141E+00  0.579E-01  0.579E-01
  -4.210  0.257E+00  0.144E+00  0.568E-01  0.568E-01
  -4.200  0.259E+00  0.147E+00  0.560E-01  0.560E-01
  -4.190  0.261E+00  0.150E+00  0.555E-01  0.555E-01
  -4.180  0.262E+00  0.152E+00  0.552E-01  0.552E-01
  -4.170  0.262E+00  0.152E+00  0.550E-01  0.550E-01
  -4.160  0.262E+00  0.152E+00  0.551E-01  0.551E-01
  -4.150  0.261E+00  0.150E+00  0.555E-01  0.555E-01
  -4.140  0.262E+00  0.150E+00  0.561E-01  0.561E-01
  -4.130  0.264E+00  0.150E+00  0.570E-01  0.570E-01
  -4.120  0.268E+00  0.152E+00  0.578E-01  0.578E-01
  -4.110  0.273E+00  0.156E+00  0.586E-01  0.586E-01
  -4.100  0.280E+00  0.162E+00  0.589E-01  0.589E-01
  -4.090  0.287E+00  0.170E+00  0.587E-01  0.587E-01
  -4.080  0.294E+00  0.178E+00  0.579E-01  0.579E-01
  -4.070  0.301E+00  0.187E+00  0.568E-01  0.568E-01
  -4.060  0.305E+00  0.194E+00  0.556E-01  0.556E-01
  -4.050  0.308E+00  0.199E+00  0.546E-01  0.546E-01
  -4.040  0.309E+00  0.201E+00  0.539E-01  0.539E-01
  -4.030  0.307E+00  0.199E+00  0.536E-01  0.536E-01
  -4.020  0.302E+00  0.195E+00  0.537E-01  0.537E-01
  -4.010  0.296E+00  0.189E+00  0.537E-01  0.537E-01
  -4.000  0.288E+00  0.182E+00  0.533E-01  0.533E-01
  -3.990  0.280E+00  0.175E+00  0.523E-01  0.523E-01
  -3.980  0.272E+00  0.171E+00  0.505E-01  0.505E-01
  -3.970  0.263E+00  0.168E+00  0.477E-01  0.477E-01
  -3.960  0.255E+00  0.167E+00  0.440E-01  0.440E-01
  -3.950  0.246E+00  0.167E+00  0.395E-01  0.395E-01
  -3.940  0.236E+00  0.167E+00  0.342E-01  0.342E-01
  -3.930  0.224E+00  0.167E+00  0.285E-01  0.285E-01
  -3.920  0.209E+00  0.164E+00  0.225E-01  0.225E-01
  -3.910  0.193E+00  0.160E+00  0.165E-01  0.165E-01
  -3.900  0.176E+00  0.154E+00  0.109E-01  0.109E-01
  -3.890  0.160E+00  0.148E+00  0.592E-02  0.592E-02
  -3.880  0.146E+00  0.142E+00  0.183E-02  0.183E-02
  -3.870  0.137E+00  0.139E+00 -0.123E-02 -0.123E-02
  -3.860  0.132E+00  0.139E+00 -0.323E-02 -0.323E-02
  -3.850  0.134E+00  0.143E+00 -0.428E-02 -0.428E-02
  -3.840  0.141E+00  0.150E+00 -0.455E-02 -0.455E-02
  -3.830  0.152E+00  0.161E+00 -0.426E-02 -0.426E-02
  -3.820  0.166E+00  0.174E+00 -0.365E-02 -0.365E-02
  -3.810  0.182E+00  0.187E+00 -0.290E-02 -0.290E-02
  -3.800  0.196E+00  0.201E+00 -0.217E-02 -0.217E-02
  -3.790  0.209E+00  0.212E+00 -0.153E-02 -0.153E-02
  -3.780  0.218E+00  0.220E+00 -0.102E-02 -0.102E-02
  -3.770  0.224E+00  0.225E+00 -0.641E-03 -0.641E-03
  -3.760  0.225E+00  0.226E+00 -0.382E-03 -0.382E-03
  -3.750  0.224E+00  0.224E+00 -0.214E-03 -0.214E-03
  -3.740  0.219E+00  0.219E+00 -0.110E-03 -0.110E-03
  -3.730  0.213E+00  0.213E+00 -0.507E-04 -0.507E-04
  -3.720  0.206E+00  0.206E+00 -0.179E-04 -0.179E-04
  -3.710  0.198E+00  0.198E+00 -0.882E-06 -0.882E-06
  -3.700  0.190E+00  0.190E+00  0.730E-05  0.730E-05
  -3.690  0.182E+00  0.182E+00  0.109E-04  0.109E-04
  -3.680  0.174E+00  0.174E+00  0.121E-04  0.121E-04
  -3.670  0.166E+00  0.166E+00  0.123E-04  0.123E-04
  -3.660  0.158E+00  0.158E+00  0.121E-04  0.121E-04
  -3.650  0.151E+00  0.151E+00  0.116E-04  0.116E-04
  -3.640  0.146E+00  0.146E+00  0.111E-04  0.111E-04
  -3.630  0.142E+00  0.142E+00  0.105E-04  0.105E-04
  -3.620  0.142E+00  0.142E+00  0.978E-05  0.978E-05
  -3.610  0.144E+00  0.144E+00  0.901E-05  0.901E-05
  -3.600  0.150E+00  0.150E+00  0.815E-05  0.815E-05
  -3.590  0.158E+00  0.158E+00  0.721E-05  0.721E-05
  -3.580  0.169E+00  0.169E+00  0.624E-05  0.624E-05
  -3.570  0.183E+00  0.183E+00  0.527E-05  0.527E-05
  -3.560  0.198E+00  0.198E+00  0.435E-05  0.435E-05
  -3.550  0.214E+00  0.214E+00  0.354E-05  0.354E-05
  -3.540  0.229E+00  0.229E+00  0.287E-05  0.287E-05
  -3.530  0.243E+00  0.243E+00  0.235E-05  0.235E-05
  -3.520  0.253E+00  0.253E+00  0.199E-05  0.199E-05
  -3.510  0.259E+00  0.259E+00  0.177E-05  0.177E-05
  -3.500  0.261E+00  0.261E+00  0.167E-05  0.167E-05
  -3.490  0.257E+00  0.257E+00  0.165E-05  0.165E-05
  -3.480  0.249E+00  0.249E+00  0.167E-05  0.167E-05
  -3.470  0.237E+00  0.237E+00  0.171E-05  0.171E-05
  -3.460  0.224E+00  0.224E+00  0.176E-05  0.176E-05
  -3.450  0.210E+00  0.210E+00  0.179E-05  0.179E-05
  -3.440  0.198E+00  0.198E+00  0.182E-05  0.182E-05
  -3.430  0.187E+00  0.187E+00  0.183E-05  0.183E-05
  -3.420  0.179E+00  0.179E+00  0.185E-05  0.185E-05
  -3.410  0.174E+00  0.174E+00  0.186E-05  0.186E-05
  -3.400  0.171E+00  0.171E+00  0.188E-05  0.188E-05
  -3.390  0.171E+00  0.171E+00  0.192E-05  0.192E-05
  -3.380  0.173E+00  0.173E+00  0.196E-05  0.196E-05
  -3.370  0.178E+00  0.178E+00  0.203E-05  0.203E-05
  -3.360  0.186E+00  0.186E+00  0.212E-05  0.212E-05
  -3.350  0.196E+00  0.196E+00  0.223E-05  0.223E-05
  -3.340  0.209E+00  0.209E+00  0.237E-05  0.237E-05
  -3.330  0.224E+00  0.224E+00  0.255E-05  0.255E-05
  -3.320  0.240E+00  0.240E+00  0.276E-05  0.276E-05
  -3.310  0.256E+00  0.256E+00  0.299E-05  0.299E-05
  -3.300  0.272E+00  0.272E+00  0.323E-05  0.323E-05
  -3.290  0.286E+00  0.286E+00  0.347E-05  0.347E-05
  -3.280  0.296E+00  0.296E+00  0.368E-05  0.368E-05
  -3.270  0.301E+00  0.301E+00  0.385E-05  0.385E-05
  -3.260  0.302E+00  0.302E+00  0.395E-05  0.395E-05
  -3.250  0.297E+00  0.297E+00  0.398E-05  0.398E-05
  -3.240  0.288E+00  0.288E+00  0.394E-05  0.394E-05
  -3.230  0.275E+00  0.275E+00  0.383E-05  0.383E-05
  -3.220  0.261E+00  0.261E+00  0.368E-05  0.368E-05
  -3.210  0.247E+00  0.247E+00  0.351E-05  0.351E-05
  -3.200  0.234E+00  0.234E+00  0.333E-05  0.333E-05
  -3.190  0.225E+00  0.225E+00  0.316E-05  0.316E-05
  -3.180  0.220E+00  0.220E+00  0.302E-05  0.302E-05
  -3.170  0.221E+00  0.221E+00  0.289E-05  0.289E-05
  -3.160  0.226E+00  0.226E+00  0.277E-05  0.277E-05
  -3.150  0.236E+00  0.236E+00  0.267E-05  0.267E-05
  -3.140  0.250E+00  0.250E+00  0.258E-05  0.258E-05
  -3.130  0.268E+00  0.268E+00  0.251E-05  0.251E-05
  -3.120  0.287E+00  0.287E+00  0.248E-05  0.248E-05
  -3.110  0.306E+00  0.306E+00  0.249E-05  0.249E-05
  -3.100  0.324E+00  0.324E+00  0.257E-05  0.257E-05
  -3.090  0.339E+00  0.339E+00  0.272E-05  0.272E-05
  -3.080  0.349E+00  0.349E+00  0.293E-05  0.293E-05
  -3.070  0.352E+00  0.352E+00  0.318E-05  0.318E-05
  -3.060  0.349E+00  0.349E+00  0.345E-05  0.345E-05
  -3.050  0.339E+00  0.339E+00  0.370E-05  0.370E-05
  -3.040  0.322E+00  0.322E+00  0.388E-05  0.388E-05
  -3.030  0.301E+00  0.301E+00  0.396E-05  0.396E-05
  -3.020  0.277E+00  0.277E+00  0.392E-05  0.392E-05
  -3.010  0.252E+00  0.252E+00  0.374E-05  0.374E-05
  -3.000  0.228E+00  0.228E+00  0.345E-05  0.345E-05
  -2.990  0.207E+00  0.207E+00  0.307E-05  0.307E-05
  -2.980  0.191E+00  0.191E+00  0.265E-05  0.265E-05
  -2.970  0.181E+00  0.181E+00  0.224E-05  0.224E-05
  -2.960  0.178E+00  0.178E+00  0.189E-05  0.189E-05
  -2.950  0.180E+00  0.180E+00  0.164E-05  0.164E-05
  -2.940  0.188E+00  0.188E+00  0.150E-05  0.150E-05
  -2.930  0.198E+00  0.198E+00  0.147E-05  0.147E-05
  -2.920  0.208E+00  0.208E+00  0.153E-05  0.153E-05
  -2.910  0.215E+00  0.215E+00  0.165E-05  0.165E-05
  -2.900  0.218E+00  0.218E+00  0.181E-05  0.181E-05
  -2.890  0.216E+00  0.216E+00  0.199E-05  0.199E-05
  -2.880  0.209E+00  0.209E+00  0.216E-05  0.216E-05
  -2.870  0.197E+00  0.197E+00  0.231E-05  0.231E-05
  -2.860  0.184E+00  0.184E+00  0.245E-05  0.245E-05
  -2.850  0.171E+00  0.171E+00  0.256E-05  0.256E-05
  -2.840  0.160E+00  0.160E+00  0.265E-05  0.265E-05
  -2.830  0.153E+00  0.153E+00  0.269E-05  0.269E-05
  -2.820  0.148E+00  0.148E+00  0.268E-05  0.268E-05
  -2.810  0.147E+00  0.147E+00  0.261E-05  0.261E-05
  -2.800  0.148E+00  0.148E+00  0.249E-05  0.249E-05
  -2.790  0.151E+00  0.151E+00  0.232E-05  0.232E-05
  -2.780  0.154E+00  0.154E+00  0.211E-05  0.211E-05
  -2.770  0.158E+00  0.158E+00  0.190E-05  0.190E-05
  -2.760  0.162E+00  0.162E+00  0.171E-05  0.171E-05
  -2.750  0.167E+00  0.167E+00  0.157E-05  0.157E-05
  -2.740  0.171E+00  0.171E+00  0.148E-05  0.148E-05
  -2.730  0.175E+00  0.175E+00  0.145E-05  0.145E-05
  -2.720  0.178E+00  0.178E+00  0.147E-05  0.147E-05
  -2.710  0.179E+00  0.179E+00  0.155E-05  0.155E-05
  -2.700  0.176E+00  0.176E+00  0.165E-05  0.165E-05
  -2.690  0.170E+00  0.170E+00  0.176E-05  0.176E-05
  -2.680  0.161E+00  0.161E+00  0.187E-05  0.187E-05
  -2.670  0.149E+00  0.149E+00  0.196E-05  0.196E-05
  -2.660  0.137E+00  0.137E+00  0.203E-05  0.203E-05
  -2.650  0.126E+00  0.126E+00  0.207E-05  0.207E-05
  -2.640  0.117E+00  0.117E+00  0.207E-05  0.207E-05
  -2.630  0.111E+00  0.111E+00  0.204E-05  0.204E-05
  -2.620  0.108E+00  0.108E+00  0.196E-05  0.196E-05
  -2.610  0.109E+00  0.109E+00  0.186E-05  0.186E-05
  -2.600  0.112E+00  0.112E+00  0.174E-05  0.174E-05
  -2.590  0.116E+00  0.116E+00  0.162E-05  0.162E-05
  -2.580  0.121E+00  0.121E+00  0.150E-05  0.150E-05
  -2.570  0.126E+00  0.126E+00  0.142E-05  0.142E-05
  -2.560  0.131E+00  0.131E+00  0.138E-05  0.138E-05
  -2.550  0.136E+00  0.136E+00  0.139E-05  0.139E-05
  -2.540  0.142E+00  0.142E+00  0.143E-05  0.143E-05
  -2.530  0.147E+00  0.147E+00  0.151E-05  0.151E-05
  -2.520  0.151E+00  0.151E+00  0.161E-05  0.161E-05
  -2.510  0.153E+00  0.153E+00  0.169E-05  0.169E-05
  -2.500  0.152E+00  0.152E+00  0.175E-05  0.175E-05
  -2.490  0.148E+00  0.148E+00  0.178E-05  0.178E-05
  -2.480  0.141E+00  0.141E+00  0.177E-05  0.177E-05
  -2.470  0.130E+00  0.130E+00  0.171E-05  0.171E-05
  -2.460  0.117E+00  0.117E+00  0.163E-05  0.163E-05
  -2.450  0.103E+00  0.103E+00  0.153E-05  0.153E-05
  -2.440  0.911E-01  0.911E-01  0.143E-05  0.143E-05
  -2.430  0.814E-01  0.814E-01  0.135E-05  0.135E-05
  -2.420  0.757E-01  0.757E-01  0.130E-05  0.130E-05
  -2.410  0.743E-01  0.743E-01  0.128E-05  0.128E-05
  -2.400  0.774E-01  0.774E-01  0.129E-05  0.129E-05
  -2.390  0.841E-01  0.841E-01  0.132E-05  0.132E-05
  -2.380  0.932E-01  0.932E-01  0.137E-05  0.137E-05
  -2.370  0.103E+00  0.103E+00  0.141E-05  0.141E-05
  -2.360  0.113E+00  0.113E+00  0.144E-05  0.144E-05
  -2.350  0.122E+00  0.122E+00  0.145E-05  0.145E-05
  -2.340  0.128E+00  0.128E+00  0.144E-05  0.144E-05
  -2.330  0.131E+00  0.131E+00  0.142E-05  0.142E-05
  -2.320  0.132E+00  0.132E+00  0.138E-05  0.138E-05
  -2.310  0.130E+00  0.130E+00  0.133E-05  0.133E-05
  -2.300  0.125E+00  0.125E+00  0.127E-05  0.127E-05
  -2.290  0.119E+00  0.119E+00  0.119E-05  0.119E-05
  -2.280  0.112E+00  0.112E+00  0.110E-05  0.110E-05
  -2.270  0.103E+00  0.103E+00  0.996E-06  0.996E-06
  -2.260  0.944E-01  0.944E-01  0.872E-06  0.872E-06
  -2.250  0.865E-01  0.865E-01  0.737E-06  0.737E-06
  -2.240  0.799E-01  0.799E-01  0.597E-06  0.597E-06
  -2.230  0.751E-01  0.751E-01  0.462E-06  0.462E-06
  -2.220  0.722E-01  0.722E-01  0.338E-06  0.338E-06
  -2.210  0.710E-01  0.710E-01  0.234E-06  0.234E-06
  -2.200  0.709E-01  0.709E-01  0.153E-06  0.153E-06
  -2.190  0.714E-01  0.714E-01  0.963E-07  0.963E-07
  -2.180  0.722E-01  0.722E-01  0.623E-07  0.623E-07
  -2.170  0.731E-01  0.731E-01  0.482E-07  0.482E-07
  -2.160  0.745E-01  0.745E-01  0.502E-07  0.502E-07
  -2.150  0.769E-01  0.769E-01  0.643E-07  0.643E-07
  -2.140  0.809E-01  0.809E-01  0.867E-07  0.867E-07
  -2.130  0.866E-01  0.866E-01  0.114E-06  0.114E-06
  -2.120  0.938E-01  0.938E-01  0.144E-06  0.144E-06
  -2.110  0.102E+00  0.102E+00  0.172E-06  0.172E-06
  -2.100  0.109E+00  0.109E+00  0.196E-06  0.196E-06
  -2.090  0.114E+00  0.114E+00  0.213E-06  0.213E-06
  -2.080  0.116E+00  0.116E+00  0.221E-06  0.221E-06
  -2.070  0.114E+00  0.114E+00  0.220E-06  0.220E-06
  -2.060  0.108E+00  0.108E+00  0.209E-06  0.209E-06
  -2.050  0.979E-01  0.979E-01  0.191E-06  0.191E-06
  -2.040  0.856E-01  0.856E-01  0.168E-06  0.168E-06
  -2.030  0.726E-01  0.726E-01  0.143E-06  0.143E-06
  -2.020  0.603E-01  0.603E-01  0.120E-06  0.120E-06
  -2.010  0.500E-01  0.500E-01  0.101E-06  0.101E-06
  -2.000  0.426E-01  0.426E-01  0.870E-07  0.870E-07
  -1.990  0.384E-01  0.384E-01  0.796E-07  0.796E-07
  -1.980  0.372E-01  0.372E-01  0.781E-07  0.781E-07
  -1.970  0.387E-01  0.387E-01  0.818E-07  0.818E-07
  -1.960  0.423E-01  0.423E-01  0.898E-07  0.898E-07
  -1.950  0.477E-01  0.477E-01  0.101E-06  0.101E-06
  -1.940  0.546E-01  0.546E-01  0.116E-06  0.116E-06
  -1.930  0.627E-01  0.627E-01  0.133E-06  0.133E-06
  -1.920  0.714E-01  0.714E-01  0.152E-06  0.152E-06
  -1.910  0.801E-01  0.801E-01  0.170E-06  0.170E-06
  -1.900  0.879E-01  0.879E-01  0.187E-06  0.187E-06
  -1.890  0.939E-01  0.939E-01  0.199E-06  0.199E-06
  -1.880  0.971E-01  0.971E-01  0.206E-06  0.206E-06
  -1.870  0.970E-01  0.970E-01  0.205E-06  0.205E-06
  -1.860  0.933E-01  0.933E-01  0.197E-06  0.197E-06
  -1.850  0.866E-01  0.866E-01  0.182E-06  0.182E-06
  -1.840  0.775E-01  0.775E-01  0.163E-06  0.163E-06
  -1.830  0.673E-01  0.673E-01  0.142E-06  0.142E-06
  -1.820  0.572E-01  0.572E-01  0.121E-06  0.121E-06
  -1.810  0.482E-01  0.482E-01  0.104E-06  0.104E-06
  -1.800  0.413E-01  0.413E-01  0.904E-07  0.904E-07
  -1.790  0.368E-01  0.368E-01  0.826E-07  0.826E-07
  -1.780  0.347E-01  0.347E-01  0.801E-07  0.801E-07
  -1.770  0.348E-01  0.348E-01  0.819E-07  0.819E-07
  -1.760  0.363E-01  0.363E-01  0.867E-07  0.867E-07
  -1.750  0.386E-01  0.386E-01  0.928E-07  0.928E-07
  -1.740  0.410E-01  0.410E-01  0.990E-07  0.990E-07
  -1.730  0.432E-01  0.432E-01  0.104E-06  0.104E-06
  -1.720  0.450E-01  0.450E-01  0.109E-06  0.109E-06
  -1.710  0.465E-01  0.465E-01  0.113E-06  0.113E-06
  -1.700  0.480E-01  0.480E-01  0.116E-06  0.116E-06
  -1.690  0.496E-01  0.496E-01  0.120E-06  0.120E-06
  -1.680  0.514E-01  0.514E-01  0.124E-06  0.124E-06
  -1.670  0.532E-01  0.532E-01  0.128E-06  0.128E-06
  -1.660  0.549E-01  0.549E-01  0.132E-06  0.132E-06
  -1.650  0.563E-01  0.563E-01  0.135E-06  0.135E-06
  -1.640  0.570E-01  0.570E-01  0.137E-06  0.137E-06
  -1.630  0.569E-01  0.569E-01  0.137E-06  0.137E-06
  -1.620  0.560E-01  0.560E-01  0.135E-06  0.135E-06
  -1.610  0.544E-01  0.544E-01  0.131E-06  0.131E-06
  -1.600  0.522E-01  0.522E-01  0.127E-06  0.127E-06
  -1.590  0.498E-01  0.498E-01  0.122E-06  0.122E-06
  -1.580  0.474E-01  0.474E-01  0.118E-06  0.118E-06
  -1.570  0.450E-01  0.450E-01  0.113E-06  0.113E-06
  -1.560  0.428E-01  0.428E-01  0.109E-06  0.109E-06
  -1.550  0.406E-01  0.406E-01  0.105E-06  0.105E-06
  -1.540  0.383E-01  0.383E-01  0.101E-06  0.101E-06
  -1.530  0.357E-01  0.357E-01  0.951E-07  0.951E-07
  -1.520  0.325E-01  0.325E-01  0.875E-07  0.875E-07
  -1.510  0.288E-01  0.288E-01  0.782E-07  0.782E-07
  -1.500  0.248E-01  0.248E-01  0.677E-07  0.677E-07
  -1.490  0.208E-01  0.208E-01  0.573E-07  0.573E-07
  -1.480  0.175E-01  0.175E-01  0.487E-07  0.487E-07
  -1.470  0.156E-01  0.156E-01  0.436E-07  0.436E-07
  -1.460  0.154E-01  0.154E-01  0.435E-07  0.435E-07
  -1.450  0.172E-01  0.172E-01  0.488E-07  0.488E-07
  -1.440  0.210E-01  0.210E-01  0.595E-07  0.595E-07
  -1.430  0.262E-01  0.262E-01  0.740E-07  0.740E-07
  -1.420  0.321E-01  0.321E-01  0.905E-07  0.905E-07
  -1.410  0.379E-01  0.379E-01  0.107E-06  0.107E-06
  -1.400  0.428E-01  0.428E-01  0.121E-06  0.121E-06
  -1.390  0.462E-01  0.462E-01  0.130E-06  0.130E-06
  -1.380  0.478E-01  0.478E-01  0.135E-06  0.135E-06
  -1.370  0.476E-01  0.476E-01  0.135E-06  0.135E-06
  -1.360  0.458E-01  0.458E-01  0.130E-06  0.130E-06
  -1.350  0.428E-01  0.428E-01  0.122E-06  0.122E-06
  -1.340  0.389E-01  0.389E-01  0.112E-06  0.112E-06
  -1.330  0.344E-01  0.344E-01  0.999E-07  0.999E-07
  -1.320  0.297E-01  0.297E-01  0.869E-07  0.869E-07
  -1.310  0.248E-01  0.248E-01  0.733E-07  0.733E-07
  -1.300  0.199E-01  0.199E-01  0.595E-07  0.595E-07
  -1.290  0.152E-01  0.152E-01  0.457E-07  0.457E-07
  -1.280  0.107E-01  0.107E-01  0.327E-07  0.327E-07
  -1.270  0.675E-02  0.675E-02  0.212E-07  0.212E-07
  -1.260  0.360E-02  0.360E-02  0.119E-07  0.119E-07
  -1.250  0.148E-02  0.148E-02  0.573E-08  0.573E-08
  -1.240  0.586E-03  0.586E-03  0.329E-08  0.329E-08
  -1.230  0.103E-02  0.103E-02  0.504E-08  0.504E-08
  -1.220  0.283E-02  0.283E-02  0.111E-07  0.111E-07
  -1.210  0.592E-02  0.592E-02  0.213E-07  0.213E-07
  -1.200  0.101E-01  0.101E-01  0.351E-07  0.351E-07
  -1.190  0.151E-01  0.151E-01  0.515E-07  0.515E-07
  -1.180  0.204E-01  0.204E-01  0.691E-07  0.691E-07
  -1.170  0.256E-01  0.256E-01  0.861E-07  0.861E-07
  -1.160  0.299E-01  0.299E-01  0.100E-06  0.100E-06
  -1.150  0.328E-01  0.328E-01  0.110E-06  0.110E-06
  -1.140  0.339E-01  0.339E-01  0.113E-06  0.113E-06
  -1.130  0.328E-01  0.328E-01  0.110E-06  0.110E-06
  -1.120  0.296E-01  0.296E-01  0.991E-07  0.991E-07
  -1.110  0.248E-01  0.248E-01  0.831E-07  0.831E-07
  -1.100  0.190E-01  0.190E-01  0.636E-07  0.636E-07
  -1.090  0.129E-01  0.129E-01  0.432E-07  0.432E-07
  -1.080  0.723E-02  0.723E-02  0.242E-07  0.242E-07
  -1.070  0.250E-02  0.250E-02  0.838E-08  0.838E-08
  -1.060 -0.967E-03 -0.967E-03 -0.319E-08 -0.319E-08
  -1.050 -0.312E-02 -0.312E-02 -0.103E-07 -0.103E-07
  -1.040 -0.411E-02 -0.411E-02 -0.136E-07 -0.136E-07
  -1.030 -0.423E-02 -0.423E-02 -0.137E-07 -0.137E-07
  -1.020 -0.378E-02 -0.378E-02 -0.119E-07 -0.119E-07
  -1.010 -0.304E-02 -0.304E-02 -0.888E-08 -0.888E-08
  -1.000 -0.223E-02 -0.223E-02 -0.528E-08 -0.528E-08
  -0.990 -0.145E-02 -0.145E-02 -0.139E-08 -0.139E-08
  -0.980 -0.749E-03 -0.749E-03  0.274E-08  0.274E-08
  -0.970 -0.102E-03 -0.102E-03  0.719E-08  0.719E-08
  -0.960  0.556E-03  0.556E-03  0.121E-07  0.121E-07
  -0.950  0.130E-02  0.130E-02  0.174E-07  0.174E-07
  -0.940  0.222E-02  0.222E-02  0.230E-07  0.230E-07
  -0.930  0.337E-02  0.337E-02  0.285E-07  0.285E-07
  -0.920  0.475E-02  0.475E-02  0.334E-07  0.334E-07
  -0.910  0.634E-02  0.634E-02  0.370E-07  0.370E-07
  -0.900  0.804E-02  0.804E-02  0.387E-07  0.387E-07
  -0.890  0.967E-02  0.967E-02  0.382E-07  0.382E-07
  -0.880  0.110E-01  0.110E-01  0.354E-07  0.354E-07
  -0.870  0.120E-01  0.120E-01  0.305E-07  0.305E-07
  -0.860  0.122E-01  0.122E-01  0.242E-07  0.242E-07
  -0.850  0.118E-01  0.118E-01  0.173E-07  0.173E-07
  -0.840  0.106E-01  0.106E-01  0.105E-07  0.105E-07
  -0.830  0.886E-02  0.886E-02  0.471E-08  0.471E-08
  -0.820  0.677E-02  0.677E-02  0.214E-09  0.214E-09
  -0.810  0.459E-02  0.459E-02 -0.277E-08 -0.277E-08
  -0.800  0.256E-02  0.256E-02 -0.435E-08 -0.435E-08
  -0.790  0.891E-03  0.891E-03 -0.478E-08 -0.478E-08
  -0.780 -0.311E-03 -0.311E-03 -0.439E-08 -0.439E-08
  -0.770 -0.101E-02 -0.101E-02 -0.349E-08 -0.349E-08
  -0.760 -0.125E-02 -0.125E-02 -0.228E-08 -0.228E-08
  -0.750 -0.107E-02 -0.107E-02 -0.796E-09 -0.796E-09
  -0.740 -0.523E-03 -0.523E-03  0.105E-08  0.105E-08
  -0.730  0.390E-03  0.390E-03  0.354E-08  0.354E-08
  -0.720  0.172E-02  0.172E-02  0.707E-08  0.707E-08
  -0.710  0.359E-02  0.359E-02  0.121E-07  0.121E-07
  -0.700  0.611E-02  0.611E-02  0.192E-07  0.192E-07
  -0.690  0.943E-02  0.943E-02  0.288E-07  0.288E-07
  -0.680  0.136E-01  0.136E-01  0.410E-07  0.410E-07
  -0.670  0.185E-01  0.185E-01  0.554E-07  0.554E-07
  -0.660  0.238E-01  0.238E-01  0.713E-07  0.713E-07
  -0.650  0.292E-01  0.292E-01  0.873E-07  0.873E-07
  -0.640  0.339E-01  0.339E-01  0.102E-06  0.102E-06
  -0.630  0.374E-01  0.374E-01  0.112E-06  0.112E-06
  -0.620  0.390E-01  0.390E-01  0.117E-06  0.117E-06
  -0.610  0.384E-01  0.384E-01  0.115E-06  0.115E-06
  -0.600  0.355E-01  0.355E-01  0.106E-06  0.106E-06
  -0.590  0.305E-01  0.305E-01  0.914E-07  0.914E-07
  -0.580  0.243E-01  0.243E-01  0.727E-07  0.727E-07
  -0.570  0.175E-01  0.175E-01  0.526E-07  0.526E-07
  -0.560  0.112E-01  0.112E-01  0.338E-07  0.338E-07
  -0.550  0.607E-02  0.607E-02  0.185E-07  0.185E-07
  -0.540  0.263E-02  0.263E-02  0.851E-08  0.851E-08
  -0.530  0.117E-02  0.117E-02  0.449E-08  0.449E-08
  -0.520  0.166E-02  0.166E-02  0.647E-08  0.647E-08
  -0.510  0.389E-02  0.389E-02  0.138E-07  0.138E-07
  -0.500  0.752E-02  0.752E-02  0.256E-07  0.256E-07
  -0.490  0.122E-01  0.122E-01  0.406E-07  0.406E-07
  -0.480  0.174E-01  0.174E-01  0.576E-07  0.576E-07
  -0.470  0.229E-01  0.229E-01  0.755E-07  0.755E-07
  -0.460  0.282E-01  0.282E-01  0.932E-07  0.932E-07
  -0.450  0.333E-01  0.333E-01  0.110E-06  0.110E-06
  -0.440  0.378E-01  0.378E-01  0.126E-06  0.126E-06
  -0.430  0.418E-01  0.418E-01  0.139E-06  0.139E-06
  -0.420  0.450E-01  0.450E-01  0.151E-06  0.151E-06
  -0.410  0.476E-01  0.476E-01  0.160E-06  0.160E-06
  -0.400  0.494E-01  0.494E-01  0.167E-06  0.167E-06
  -0.390  0.503E-01  0.503E-01  0.170E-06  0.170E-06
  -0.380  0.501E-01  0.501E-01  0.170E-06  0.170E-06
  -0.370  0.487E-01  0.487E-01  0.166E-06  0.166E-06
  -0.360  0.459E-01  0.459E-01  0.156E-06  0.156E-06
  -0.350  0.419E-01  0.419E-01  0.143E-06  0.143E-06
  -0.340  0.370E-01  0.370E-01  0.126E-06  0.126E-06
  -0.330  0.316E-01  0.316E-01  0.108E-06  0.108E-06
  -0.320  0.267E-01  0.267E-01  0.910E-07  0.910E-07
  -0.310  0.228E-01  0.228E-01  0.778E-07  0.778E-07
  -0.300  0.207E-01  0.207E-01  0.704E-07  0.704E-07
  -0.290  0.205E-01  0.205E-01  0.699E-07  0.699E-07
  -0.280  0.223E-01  0.223E-01  0.760E-07  0.760E-07
  -0.270  0.256E-01  0.256E-01  0.873E-07  0.873E-07
  -0.260  0.296E-01  0.296E-01  0.101E-06  0.101E-06
  -0.250  0.336E-01  0.336E-01  0.115E-06  0.115E-06
  -0.240  0.368E-01  0.368E-01  0.126E-06  0.126E-06
  -0.230  0.389E-01  0.389E-01  0.134E-06  0.134E-06
  -0.220  0.399E-01  0.399E-01  0.139E-06  0.139E-06
  -0.210  0.402E-01  0.402E-01  0.142E-06  0.142E-06
  -0.200  0.407E-01  0.407E-01  0.145E-06  0.145E-06
  -0.190  0.420E-01  0.420E-01  0.152E-06  0.152E-06
  -0.180  0.446E-01  0.446E-01  0.163E-06  0.163E-06
  -0.170  0.488E-01  0.488E-01  0.180E-06  0.180E-06
  -0.160  0.543E-01  0.543E-01  0.201E-06  0.201E-06
  -0.150  0.606E-01  0.606E-01  0.224E-06  0.224E-06
  -0.140  0.668E-01  0.668E-01  0.247E-06  0.247E-06
  -0.130  0.720E-01  0.720E-01  0.265E-06  0.265E-06
  -0.120  0.755E-01  0.755E-01  0.276E-06  0.276E-06
  -0.110  0.767E-01  0.767E-01  0.279E-06  0.279E-06
  -0.100  0.756E-01  0.756E-01  0.274E-06  0.274E-06
  -0.090  0.724E-01  0.724E-01  0.261E-06  0.261E-06
  -0.080  0.675E-01  0.675E-01  0.242E-06  0.242E-06
  -0.070  0.618E-01  0.618E-01  0.220E-06  0.220E-06
  -0.060  0.557E-01  0.557E-01  0.198E-06  0.198E-06
  -0.050  0.500E-01  0.500E-01  0.177E-06  0.177E-06
  -0.040  0.448E-01  0.448E-01  0.158E-06  0.158E-06
  -0.030  0.404E-01  0.404E-01  0.142E-06  0.142E-06
  -0.020  0.367E-01  0.367E-01  0.129E-06  0.129E-06
  -0.010  0.337E-01  0.337E-01  0.119E-06  0.119E-06
   0.000  0.314E-01  0.314E-01  0.111E-06  0.111E-06
   0.010  0.301E-01  0.301E-01  0.107E-06  0.107E-06
   0.020  0.304E-01  0.304E-01  0.109E-06  0.109E-06
   0.030  0.329E-01  0.329E-01  0.119E-06  0.119E-06
   0.040  0.379E-01  0.379E-01  0.139E-06  0.139E-06
   0.050  0.458E-01  0.458E-01  0.170E-06  0.170E-06
   0.060  0.562E-01  0.562E-01  0.210E-06  0.210E-06
   0.070  0.684E-01  0.684E-01  0.258E-06  0.258E-06
   0.080  0.813E-01  0.813E-01  0.308E-06  0.308E-06
   0.090  0.935E-01  0.935E-01  0.356E-06  0.356E-06
   0.100  0.104E+00  0.104E+00  0.397E-06  0.397E-06
   0.110  0.111E+00  0.111E+00  0.427E-06  0.427E-06
   0.120  0.115E+00  0.115E+00  0.442E-06  0.442E-06
   0.130  0.115E+00  0.115E+00  0.443E-06  0.443E-06
   0.140  0.111E+00  0.111E+00  0.431E-06  0.431E-06
   0.150  0.106E+00  0.106E+00  0.409E-06  0.409E-06
   0.160  0.993E-01  0.993E-01  0.381E-06  0.381E-06
   0.170  0.922E-01  0.922E-01  0.350E-06  0.350E-06
   0.180  0.854E-01  0.854E-01  0.321E-06  0.321E-06
   0.190  0.793E-01  0.793E-01  0.294E-06  0.294E-06
   0.200  0.739E-01  0.739E-01  0.270E-06  0.270E-06
   0.210  0.692E-01  0.692E-01  0.249E-06  0.249E-06
   0.220  0.648E-01  0.648E-01  0.230E-06  0.230E-06
   0.230  0.607E-01  0.607E-01  0.214E-06  0.214E-06
   0.240  0.567E-01  0.567E-01  0.198E-06  0.198E-06
   0.250  0.531E-01  0.531E-01  0.185E-06  0.185E-06
   0.260  0.499E-01  0.499E-01  0.174E-06  0.174E-06
   0.270  0.478E-01  0.478E-01  0.168E-06  0.168E-06
   0.280  0.472E-01  0.472E-01  0.167E-06  0.167E-06
   0.290  0.486E-01  0.486E-01  0.175E-06  0.175E-06
   0.300  0.528E-01  0.528E-01  0.194E-06  0.194E-06
   0.310  0.601E-01  0.601E-01  0.225E-06  0.225E-06
   0.320  0.707E-01  0.707E-01  0.271E-06  0.271E-06
   0.330  0.847E-01  0.847E-01  0.330E-06  0.330E-06
   0.340  0.101E+00  0.101E+00  0.400E-06  0.400E-06
   0.350  0.120E+00  0.120E+00  0.477E-06  0.477E-06
   0.360  0.138E+00  0.138E+00  0.555E-06  0.555E-06
   0.370  0.155E+00  0.155E+00  0.627E-06  0.627E-06
   0.380  0.169E+00  0.169E+00  0.684E-06  0.684E-06
   0.390  0.179E+00  0.179E+00  0.722E-06  0.722E-06
   0.400  0.183E+00  0.183E+00  0.735E-06  0.735E-06
   0.410  0.181E+00  0.181E+00  0.722E-06  0.722E-06
   0.420  0.174E+00  0.174E+00  0.685E-06  0.685E-06
   0.430  0.161E+00  0.161E+00  0.628E-06  0.628E-06
   0.440  0.146E+00  0.146E+00  0.559E-06  0.559E-06
   0.450  0.129E+00  0.129E+00  0.483E-06  0.483E-06
   0.460  0.112E+00  0.112E+00  0.408E-06  0.408E-06
   0.470  0.958E-01  0.958E-01  0.340E-06  0.340E-06
   0.480  0.818E-01  0.818E-01  0.282E-06  0.282E-06
   0.490  0.705E-01  0.705E-01  0.237E-06  0.237E-06
   0.500  0.620E-01  0.620E-01  0.204E-06  0.204E-06
   0.510  0.564E-01  0.564E-01  0.184E-06  0.184E-06
   0.520  0.537E-01  0.537E-01  0.176E-06  0.176E-06
   0.530  0.540E-01  0.540E-01  0.180E-06  0.180E-06
   0.540  0.578E-01  0.578E-01  0.199E-06  0.199E-06
   0.550  0.657E-01  0.657E-01  0.234E-06  0.234E-06
   0.560  0.786E-01  0.786E-01  0.290E-06  0.290E-06
   0.570  0.974E-01  0.974E-01  0.370E-06  0.370E-06
   0.580  0.122E+00  0.122E+00  0.475E-06  0.475E-06
   0.590  0.153E+00  0.153E+00  0.604E-06  0.604E-06
   0.600  0.188E+00  0.188E+00  0.751E-06  0.751E-06
   0.610  0.225E+00  0.225E+00  0.904E-06  0.904E-06
   0.620  0.259E+00  0.259E+00  0.105E-05  0.105E-05
   0.630  0.287E+00  0.287E+00  0.116E-05  0.116E-05
   0.640  0.304E+00  0.304E+00  0.124E-05  0.124E-05
   0.650  0.308E+00  0.308E+00  0.125E-05  0.125E-05
   0.660  0.298E+00  0.298E+00  0.121E-05  0.121E-05
   0.670  0.276E+00  0.276E+00  0.112E-05  0.112E-05
   0.680  0.245E+00  0.245E+00  0.990E-06  0.990E-06
   0.690  0.212E+00  0.212E+00  0.845E-06  0.845E-06
   0.700  0.181E+00  0.181E+00  0.709E-06  0.709E-06
   0.710  0.158E+00  0.158E+00  0.604E-06  0.604E-06
   0.720  0.146E+00  0.146E+00  0.543E-06  0.543E-06
   0.730  0.147E+00  0.147E+00  0.535E-06  0.535E-06
   0.740  0.160E+00  0.160E+00  0.576E-06  0.576E-06
   0.750  0.182E+00  0.182E+00  0.658E-06  0.658E-06
   0.760  0.211E+00  0.211E+00  0.770E-06  0.770E-06
   0.770  0.242E+00  0.242E+00  0.898E-06  0.898E-06
   0.780  0.275E+00  0.275E+00  0.103E-05  0.103E-05
   0.790  0.306E+00  0.306E+00  0.116E-05  0.116E-05
   0.800  0.334E+00  0.334E+00  0.128E-05  0.128E-05
   0.810  0.358E+00  0.358E+00  0.139E-05  0.139E-05
   0.820  0.377E+00  0.377E+00  0.148E-05  0.148E-05
   0.830  0.391E+00  0.391E+00  0.156E-05  0.156E-05
   0.840  0.400E+00  0.400E+00  0.161E-05  0.161E-05
   0.850  0.404E+00  0.404E+00  0.165E-05  0.165E-05
   0.860  0.402E+00  0.402E+00  0.166E-05  0.166E-05
   0.870  0.396E+00  0.396E+00  0.167E-05  0.167E-05
   0.880  0.387E+00  0.387E+00  0.165E-05  0.165E-05
   0.890  0.376E+00  0.376E+00  0.163E-05  0.163E-05
   0.900  0.363E+00  0.363E+00  0.160E-05  0.160E-05
   0.910  0.349E+00  0.349E+00  0.157E-05  0.157E-05
   0.920  0.335E+00  0.335E+00  0.152E-05  0.152E-05
   0.930  0.320E+00  0.320E+00  0.147E-05  0.147E-05
   0.940  0.303E+00  0.303E+00  0.141E-05  0.141E-05
   0.950  0.286E+00  0.286E+00  0.134E-05  0.134E-05
   0.960  0.267E+00  0.267E+00  0.126E-05  0.126E-05
   0.970  0.247E+00  0.247E+00  0.117E-05  0.117E-05
   0.980  0.229E+00  0.229E+00  0.108E-05  0.108E-05
   0.990  0.212E+00  0.212E+00  0.101E-05  0.101E-05
   1.000  0.198E+00  0.198E+00  0.941E-06  0.941E-06
   1.010  0.186E+00  0.186E+00  0.890E-06  0.890E-06
   1.020  0.178E+00  0.178E+00  0.855E-06  0.855E-06
   1.030  0.173E+00  0.173E+00  0.835E-06  0.835E-06
   1.040  0.170E+00  0.170E+00  0.828E-06  0.828E-06
   1.050  0.170E+00  0.170E+00  0.834E-06  0.834E-06
   1.060  0.171E+00  0.171E+00  0.851E-06  0.851E-06
   1.070  0.175E+00  0.175E+00  0.877E-06  0.877E-06
   1.080  0.179E+00  0.179E+00  0.909E-06  0.909E-06
   1.090  0.185E+00  0.185E+00  0.945E-06  0.945E-06
   1.100  0.190E+00  0.190E+00  0.979E-06  0.979E-06
   1.110  0.194E+00  0.194E+00  0.101E-05  0.101E-05
   1.120  0.197E+00  0.197E+00  0.103E-05  0.103E-05
   1.130  0.198E+00  0.198E+00  0.104E-05  0.104E-05
   1.140  0.198E+00  0.198E+00  0.105E-05  0.105E-05
   1.150  0.199E+00  0.199E+00  0.106E-05  0.106E-05
   1.160  0.201E+00  0.201E+00  0.108E-05  0.108E-05
   1.170  0.205E+00  0.205E+00  0.111E-05  0.111E-05
   1.180  0.211E+00  0.211E+00  0.116E-05  0.116E-05
   1.190  0.219E+00  0.219E+00  0.121E-05  0.121E-05
   1.200  0.227E+00  0.227E+00  0.126E-05  0.126E-05
   1.210  0.233E+00  0.233E+00  0.130E-05  0.130E-05
   1.220  0.236E+00  0.236E+00  0.132E-05  0.132E-05
   1.230  0.235E+00  0.235E+00  0.132E-05  0.132E-05
   1.240  0.227E+00  0.227E+00  0.129E-05  0.129E-05
   1.250  0.215E+00  0.215E+00  0.122E-05  0.122E-05
   1.260  0.200E+00  0.200E+00  0.114E-05  0.114E-05
   1.270  0.181E+00  0.181E+00  0.104E-05  0.104E-05
   1.280  0.163E+00  0.163E+00  0.946E-06  0.946E-06
   1.290  0.147E+00  0.147E+00  0.862E-06  0.862E-06
   1.300  0.136E+00  0.136E+00  0.803E-06  0.803E-06
   1.310  0.129E+00  0.129E+00  0.775E-06  0.775E-06
   1.320  0.128E+00  0.128E+00  0.779E-06  0.779E-06
   1.330  0.131E+00  0.131E+00  0.809E-06  0.809E-06
   1.340  0.138E+00  0.138E+00  0.857E-06  0.857E-06
   1.350  0.146E+00  0.146E+00  0.909E-06  0.909E-06
   1.360  0.152E+00  0.152E+00  0.953E-06  0.953E-06
   1.370  0.156E+00  0.156E+00  0.979E-06  0.979E-06
   1.380  0.157E+00  0.157E+00  0.980E-06  0.980E-06
   1.390  0.153E+00  0.153E+00  0.960E-06  0.960E-06
   1.400  0.148E+00  0.148E+00  0.926E-06  0.926E-06
   1.410  0.142E+00  0.142E+00  0.889E-06  0.889E-06
   1.420  0.138E+00  0.138E+00  0.865E-06  0.865E-06
   1.430  0.137E+00  0.137E+00  0.863E-06  0.863E-06
   1.440  0.140E+00  0.140E+00  0.892E-06  0.892E-06
   1.450  0.149E+00  0.149E+00  0.952E-06  0.952E-06
   1.460  0.161E+00  0.161E+00  0.104E-05  0.104E-05
   1.470  0.175E+00  0.175E+00  0.114E-05  0.114E-05
   1.480  0.190E+00  0.190E+00  0.124E-05  0.124E-05
   1.490  0.203E+00  0.203E+00  0.133E-05  0.133E-05
   1.500  0.212E+00  0.212E+00  0.139E-05  0.139E-05
   1.510  0.215E+00  0.215E+00  0.142E-05  0.142E-05
   1.520  0.213E+00  0.213E+00  0.141E-05  0.141E-05
   1.530  0.206E+00  0.206E+00  0.136E-05  0.136E-05
   1.540  0.194E+00  0.194E+00  0.128E-05  0.128E-05
   1.550  0.179E+00  0.179E+00  0.118E-05  0.118E-05
   1.560  0.163E+00  0.163E+00  0.108E-05  0.108E-05
   1.570  0.148E+00  0.148E+00  0.984E-06  0.984E-06
   1.580  0.135E+00  0.135E+00  0.903E-06  0.903E-06
   1.590  0.124E+00  0.124E+00  0.845E-06  0.845E-06
   1.600  0.117E+00  0.117E+00  0.812E-06  0.812E-06
   1.610  0.113E+00  0.113E+00  0.807E-06  0.807E-06
   1.620  0.113E+00  0.113E+00  0.827E-06  0.827E-06
   1.630  0.116E+00  0.116E+00  0.868E-06  0.868E-06
   1.640  0.122E+00  0.122E+00  0.924E-06  0.924E-06
   1.650  0.129E+00  0.129E+00  0.984E-06  0.984E-06
   1.660  0.135E+00  0.135E+00  0.104E-05  0.104E-05
   1.670  0.141E+00  0.141E+00  0.108E-05  0.108E-05
   1.680  0.143E+00  0.143E+00  0.109E-05  0.109E-05
   1.690  0.142E+00  0.142E+00  0.108E-05  0.108E-05
   1.700  0.138E+00  0.138E+00  0.104E-05  0.104E-05
   1.710  0.131E+00  0.131E+00  0.973E-06  0.973E-06
   1.720  0.123E+00  0.123E+00  0.904E-06  0.904E-06
   1.730  0.116E+00  0.116E+00  0.844E-06  0.844E-06
   1.740  0.111E+00  0.111E+00  0.808E-06  0.808E-06
   1.750  0.111E+00  0.111E+00  0.807E-06  0.807E-06
   1.760  0.116E+00  0.116E+00  0.847E-06  0.847E-06
   1.770  0.125E+00  0.125E+00  0.928E-06  0.928E-06
   1.780  0.139E+00  0.139E+00  0.104E-05  0.104E-05
   1.790  0.156E+00  0.156E+00  0.118E-05  0.118E-05
   1.800  0.173E+00  0.173E+00  0.132E-05  0.132E-05
   1.810  0.188E+00  0.188E+00  0.145E-05  0.145E-05
   1.820  0.200E+00  0.200E+00  0.154E-05  0.154E-05
   1.830  0.206E+00  0.206E+00  0.160E-05  0.160E-05
   1.840  0.206E+00  0.206E+00  0.160E-05  0.160E-05
   1.850  0.199E+00  0.199E+00  0.154E-05  0.154E-05
   1.860  0.185E+00  0.185E+00  0.144E-05  0.144E-05
   1.870  0.168E+00  0.168E+00  0.130E-05  0.130E-05
   1.880  0.148E+00  0.148E+00  0.114E-05  0.114E-05
   1.890  0.128E+00  0.128E+00  0.993E-06  0.993E-06
   1.900  0.110E+00  0.110E+00  0.862E-06  0.862E-06
   1.910  0.972E-01  0.972E-01  0.766E-06  0.766E-06
   1.920  0.887E-01  0.887E-01  0.710E-06  0.710E-06
   1.930  0.850E-01  0.850E-01  0.695E-06  0.695E-06
   1.940  0.853E-01  0.853E-01  0.715E-06  0.715E-06
   1.950  0.890E-01  0.890E-01  0.765E-06  0.765E-06
   1.960  0.950E-01  0.950E-01  0.835E-06  0.835E-06
   1.970  0.103E+00  0.103E+00  0.919E-06  0.919E-06
   1.980  0.111E+00  0.111E+00  0.101E-05  0.101E-05
   1.990  0.120E+00  0.120E+00  0.110E-05  0.110E-05
   2.000  0.129E+00  0.129E+00  0.119E-05  0.119E-05
   2.010  0.136E+00  0.136E+00  0.126E-05  0.126E-05
   2.020  0.142E+00  0.141E+00  0.130E-05  0.130E-05
   2.030  0.144E+00  0.144E+00  0.131E-05  0.131E-05
   2.040  0.142E+00  0.142E+00  0.128E-05  0.128E-05
   2.050  0.137E+00  0.137E+00  0.121E-05  0.121E-05
   2.060  0.129E+00  0.129E+00  0.113E-05  0.113E-05
   2.070  0.121E+00  0.121E+00  0.103E-05  0.103E-05
   2.080  0.112E+00  0.112E+00  0.941E-06  0.941E-06
   2.090  0.107E+00  0.107E+00  0.878E-06  0.878E-06
   2.100  0.105E+00  0.105E+00  0.854E-06  0.854E-06
   2.110  0.108E+00  0.108E+00  0.877E-06  0.877E-06
   2.120  0.116E+00  0.116E+00  0.949E-06  0.949E-06
   2.130  0.128E+00  0.128E+00  0.106E-05  0.106E-05
   2.140  0.143E+00  0.143E+00  0.120E-05  0.120E-05
   2.150  0.158E+00  0.158E+00  0.136E-05  0.136E-05
   2.160  0.172E+00  0.172E+00  0.150E-05  0.150E-05
   2.170  0.183E+00  0.183E+00  0.163E-05  0.163E-05
   2.180  0.188E+00  0.188E+00  0.172E-05  0.172E-05
   2.190  0.187E+00  0.187E+00  0.177E-05  0.177E-05
   2.200  0.179E+00  0.179E+00  0.179E-05  0.179E-05
   2.210  0.165E+00  0.165E+00  0.181E-05  0.181E-05
   2.220  0.147E+00  0.147E+00  0.190E-05  0.190E-05
   2.230  0.126E+00  0.126E+00  0.213E-05  0.213E-05
   2.240  0.106E+00  0.106E+00  0.265E-05  0.265E-05
   2.250  0.888E-01  0.888E-01  0.364E-05  0.364E-05
   2.260  0.758E-01  0.758E-01  0.533E-05  0.533E-05
   2.270  0.681E-01  0.681E-01  0.800E-05  0.800E-05
   2.280  0.654E-01  0.654E-01  0.120E-04  0.120E-04
   2.290  0.669E-01  0.669E-01  0.176E-04  0.176E-04
   2.300  0.711E-01  0.711E-01  0.252E-04  0.252E-04
   2.310  0.769E-01  0.769E-01  0.350E-04  0.350E-04
   2.320  0.835E-01  0.834E-01  0.472E-04  0.472E-04
   2.330  0.905E-01  0.904E-01  0.618E-04  0.618E-04
   2.340  0.981E-01  0.979E-01  0.789E-04  0.789E-04
   2.350  0.107E+00  0.106E+00  0.980E-04  0.980E-04
   2.360  0.116E+00  0.116E+00  0.119E-03  0.119E-03
   2.370  0.126E+00  0.126E+00  0.141E-03  0.141E-03
   2.380  0.136E+00  0.136E+00  0.164E-03  0.164E-03
   2.390  0.145E+00  0.144E+00  0.187E-03  0.187E-03
   2.400  0.151E+00  0.151E+00  0.209E-03  0.209E-03
   2.410  0.154E+00  0.154E+00  0.232E-03  0.232E-03
   2.420  0.153E+00  0.153E+00  0.253E-03  0.253E-03
   2.430  0.149E+00  0.149E+00  0.274E-03  0.274E-03
   2.440  0.142E+00  0.142E+00  0.294E-03  0.294E-03
   2.450  0.134E+00  0.134E+00  0.313E-03  0.313E-03
   2.460  0.126E+00  0.126E+00  0.332E-03  0.332E-03
   2.470  0.120E+00  0.119E+00  0.350E-03  0.350E-03
   2.480  0.116E+00  0.115E+00  0.368E-03  0.368E-03
   2.490  0.115E+00  0.114E+00  0.385E-03  0.385E-03
   2.500  0.116E+00  0.115E+00  0.401E-03  0.401E-03
   2.510  0.119E+00  0.119E+00  0.418E-03  0.418E-03
   2.520  0.123E+00  0.123E+00  0.434E-03  0.434E-03
   2.530  0.127E+00  0.126E+00  0.451E-03  0.451E-03
   2.540  0.130E+00  0.129E+00  0.468E-03  0.468E-03
   2.550  0.131E+00  0.130E+00  0.486E-03  0.486E-03
   2.560  0.131E+00  0.130E+00  0.504E-03  0.504E-03
   2.570  0.128E+00  0.127E+00  0.522E-03  0.522E-03
   2.580  0.124E+00  0.123E+00  0.540E-03  0.540E-03
   2.590  0.118E+00  0.117E+00  0.558E-03  0.558E-03
   2.600  0.112E+00  0.111E+00  0.577E-03  0.577E-03
   2.610  0.105E+00  0.104E+00  0.597E-03  0.597E-03
   2.620  0.983E-01  0.970E-01  0.621E-03  0.621E-03
   2.630  0.922E-01  0.909E-01  0.647E-03  0.647E-03
   2.640  0.874E-01  0.860E-01  0.676E-03  0.676E-03
   2.650  0.839E-01  0.825E-01  0.705E-03  0.705E-03
   2.660  0.819E-01  0.804E-01  0.733E-03  0.733E-03
   2.670  0.810E-01  0.795E-01  0.757E-03  0.757E-03
   2.680  0.810E-01  0.794E-01  0.777E-03  0.777E-03
   2.690  0.816E-01  0.800E-01  0.792E-03  0.792E-03
   2.700  0.829E-01  0.813E-01  0.806E-03  0.806E-03
   2.710  0.852E-01  0.836E-01  0.820E-03  0.820E-03
   2.720  0.890E-01  0.874E-01  0.837E-03  0.837E-03
   2.730  0.950E-01  0.933E-01  0.856E-03  0.856E-03
   2.740  0.103E+00  0.102E+00  0.876E-03  0.876E-03
   2.750  0.114E+00  0.113E+00  0.893E-03  0.893E-03
   2.760  0.127E+00  0.126E+00  0.906E-03  0.906E-03
   2.770  0.142E+00  0.140E+00  0.909E-03  0.909E-03
   2.780  0.155E+00  0.154E+00  0.904E-03  0.904E-03
   2.790  0.167E+00  0.165E+00  0.891E-03  0.891E-03
   2.800  0.176E+00  0.174E+00  0.876E-03  0.876E-03
   2.810  0.180E+00  0.178E+00  0.865E-03  0.865E-03
   2.820  0.179E+00  0.177E+00  0.863E-03  0.863E-03
   2.830  0.172E+00  0.170E+00  0.874E-03  0.874E-03
   2.840  0.159E+00  0.157E+00  0.898E-03  0.898E-03
   2.850  0.142E+00  0.141E+00  0.932E-03  0.932E-03
   2.860  0.123E+00  0.121E+00  0.970E-03  0.970E-03
   2.870  0.104E+00  0.102E+00  0.100E-02  0.100E-02
   2.880  0.868E-01  0.847E-01  0.103E-02  0.103E-02
   2.890  0.735E-01  0.715E-01  0.103E-02  0.103E-02
   2.900  0.654E-01  0.634E-01  0.103E-02  0.103E-02
   2.910  0.628E-01  0.607E-01  0.101E-02  0.101E-02
   2.920  0.650E-01  0.630E-01  0.990E-03  0.990E-03
   2.930  0.709E-01  0.689E-01  0.974E-03  0.974E-03
   2.940  0.789E-01  0.770E-01  0.970E-03  0.970E-03
   2.950  0.875E-01  0.856E-01  0.984E-03  0.984E-03
   2.960  0.956E-01  0.936E-01  0.102E-02  0.102E-02
   2.970  0.102E+00  0.100E+00  0.106E-02  0.106E-02
   2.980  0.108E+00  0.105E+00  0.111E-02  0.111E-02
   2.990  0.112E+00  0.109E+00  0.116E-02  0.116E-02
   3.000  0.114E+00  0.112E+00  0.119E-02  0.119E-02
   3.010  0.116E+00  0.113E+00  0.121E-02  0.121E-02
   3.020  0.117E+00  0.114E+00  0.121E-02  0.121E-02
   3.030  0.116E+00  0.114E+00  0.118E-02  0.118E-02
   3.040  0.115E+00  0.113E+00  0.115E-02  0.115E-02
   3.050  0.113E+00  0.111E+00  0.111E-02  0.111E-02
   3.060  0.110E+00  0.107E+00  0.108E-02  0.108E-02
   3.070  0.105E+00  0.103E+00  0.106E-02  0.106E-02
   3.080  0.101E+00  0.988E-01  0.106E-02  0.106E-02
   3.090  0.969E-01  0.948E-01  0.109E-02  0.109E-02
   3.100  0.942E-01  0.919E-01  0.114E-02  0.114E-02
   3.110  0.934E-01  0.910E-01  0.120E-02  0.120E-02
   3.120  0.953E-01  0.927E-01  0.126E-02  0.126E-02
   3.130  0.100E+00  0.974E-01  0.132E-02  0.132E-02
   3.140  0.108E+00  0.105E+00  0.136E-02  0.136E-02
   3.150  0.117E+00  0.115E+00  0.137E-02  0.137E-02
   3.160  0.128E+00  0.126E+00  0.135E-02  0.135E-02
   3.170  0.139E+00  0.137E+00  0.132E-02  0.132E-02
   3.180  0.149E+00  0.147E+00  0.126E-02  0.126E-02
   3.190  0.157E+00  0.154E+00  0.121E-02  0.121E-02
   3.200  0.160E+00  0.158E+00  0.116E-02  0.116E-02
   3.210  0.159E+00  0.157E+00  0.113E-02  0.113E-02
   3.220  0.153E+00  0.151E+00  0.112E-02  0.112E-02
   3.230  0.142E+00  0.140E+00  0.114E-02  0.114E-02
   3.240  0.128E+00  0.125E+00  0.117E-02  0.117E-02
   3.250  0.111E+00  0.108E+00  0.123E-02  0.123E-02
   3.260  0.925E-01  0.899E-01  0.129E-02  0.129E-02
   3.270  0.757E-01  0.730E-01  0.137E-02  0.137E-02
   3.280  0.620E-01  0.591E-01  0.143E-02  0.143E-02
   3.290  0.527E-01  0.497E-01  0.148E-02  0.148E-02
   3.300  0.486E-01  0.456E-01  0.151E-02  0.151E-02
   3.310  0.495E-01  0.465E-01  0.150E-02  0.150E-02
   3.320  0.544E-01  0.514E-01  0.146E-02  0.146E-02
   3.330  0.618E-01  0.590E-01  0.140E-02  0.140E-02
   3.340  0.702E-01  0.675E-01  0.132E-02  0.132E-02
   3.350  0.781E-01  0.756E-01  0.124E-02  0.124E-02
   3.360  0.848E-01  0.824E-01  0.118E-02  0.118E-02
   3.370  0.901E-01  0.878E-01  0.113E-02  0.113E-02
   3.380  0.945E-01  0.923E-01  0.112E-02  0.112E-02
   3.390  0.989E-01  0.967E-01  0.114E-02  0.114E-02
   3.400  0.104E+00  0.102E+00  0.120E-02  0.120E-02
   3.410  0.110E+00  0.108E+00  0.128E-02  0.128E-02
   3.420  0.118E+00  0.115E+00  0.137E-02  0.137E-02
   3.430  0.126E+00  0.123E+00  0.146E-02  0.146E-02
   3.440  0.133E+00  0.130E+00  0.154E-02  0.154E-02
   3.450  0.139E+00  0.136E+00  0.160E-02  0.160E-02
   3.460  0.143E+00  0.140E+00  0.163E-02  0.163E-02
   3.470  0.144E+00  0.140E+00  0.162E-02  0.162E-02
   3.480  0.141E+00  0.138E+00  0.157E-02  0.157E-02
   3.490  0.136E+00  0.133E+00  0.150E-02  0.150E-02
   3.500  0.130E+00  0.127E+00  0.140E-02  0.140E-02
   3.510  0.122E+00  0.119E+00  0.130E-02  0.130E-02
   3.520  0.113E+00  0.111E+00  0.122E-02  0.122E-02
   3.530  0.105E+00  0.102E+00  0.115E-02  0.115E-02
   3.540  0.966E-01  0.944E-01  0.111E-02  0.111E-02
   3.550  0.899E-01  0.877E-01  0.112E-02  0.112E-02
   3.560  0.849E-01  0.826E-01  0.116E-02  0.116E-02
   3.570  0.820E-01  0.795E-01  0.124E-02  0.124E-02
   3.580  0.814E-01  0.787E-01  0.133E-02  0.133E-02
   3.590  0.831E-01  0.802E-01  0.143E-02  0.143E-02
   3.600  0.866E-01  0.836E-01  0.153E-02  0.153E-02
   3.610  0.915E-01  0.883E-01  0.160E-02  0.160E-02
   3.620  0.966E-01  0.933E-01  0.164E-02  0.164E-02
   3.630  0.101E+00  0.979E-01  0.165E-02  0.165E-02
   3.640  0.104E+00  0.101E+00  0.163E-02  0.163E-02
   3.650  0.105E+00  0.102E+00  0.158E-02  0.158E-02
   3.660  0.103E+00  0.100E+00  0.152E-02  0.152E-02
   3.670  0.991E-01  0.962E-01  0.145E-02  0.145E-02
   3.680  0.934E-01  0.906E-01  0.138E-02  0.138E-02
   3.690  0.870E-01  0.843E-01  0.132E-02  0.132E-02
   3.700  0.809E-01  0.784E-01  0.127E-02  0.127E-02
   3.710  0.762E-01  0.737E-01  0.124E-02  0.124E-02
   3.720  0.734E-01  0.710E-01  0.121E-02  0.121E-02
   3.730  0.726E-01  0.702E-01  0.121E-02  0.121E-02
   3.740  0.737E-01  0.712E-01  0.121E-02  0.121E-02
   3.750  0.758E-01  0.734E-01  0.123E-02  0.123E-02
   3.760  0.786E-01  0.761E-01  0.127E-02  0.127E-02
   3.770  0.815E-01  0.789E-01  0.133E-02  0.133E-02
   3.780  0.846E-01  0.818E-01  0.140E-02  0.140E-02
   3.790  0.881E-01  0.852E-01  0.147E-02  0.147E-02
   3.800  0.928E-01  0.897E-01  0.154E-02  0.154E-02
   3.810  0.990E-01  0.958E-01  0.160E-02  0.160E-02
   3.820  0.107E+00  0.104E+00  0.164E-02  0.164E-02
   3.830  0.117E+00  0.114E+00  0.165E-02  0.165E-02
   3.840  0.129E+00  0.125E+00  0.163E-02  0.163E-02
   3.850  0.140E+00  0.137E+00  0.159E-02  0.159E-02
   3.860  0.150E+00  0.147E+00  0.153E-02  0.153E-02
   3.870  0.157E+00  0.154E+00  0.146E-02  0.146E-02
   3.880  0.160E+00  0.157E+00  0.139E-02  0.139E-02
   3.890  0.157E+00  0.155E+00  0.133E-02  0.133E-02
   3.900  0.149E+00  0.147E+00  0.128E-02  0.128E-02
   3.910  0.136E+00  0.133E+00  0.124E-02  0.124E-02
   3.920  0.118E+00  0.115E+00  0.120E-02  0.120E-02
   3.930  0.973E-01  0.950E-01  0.118E-02  0.118E-02
   3.940  0.766E-01  0.743E-01  0.117E-02  0.117E-02
   3.950  0.579E-01  0.556E-01  0.117E-02  0.117E-02
   3.960  0.434E-01  0.410E-01  0.119E-02  0.119E-02
   3.970  0.345E-01  0.320E-01  0.123E-02  0.123E-02
   3.980  0.319E-01  0.293E-01  0.130E-02  0.130E-02
   3.990  0.352E-01  0.324E-01  0.139E-02  0.139E-02
   4.000  0.433E-01  0.403E-01  0.150E-02  0.150E-02
   4.010  0.546E-01  0.514E-01  0.160E-02  0.160E-02
   4.020  0.672E-01  0.638E-01  0.169E-02  0.169E-02
   4.030  0.791E-01  0.756E-01  0.175E-02  0.175E-02
   4.040  0.892E-01  0.857E-01  0.177E-02  0.177E-02
   4.050  0.966E-01  0.931E-01  0.175E-02  0.175E-02
   4.060  0.101E+00  0.979E-01  0.168E-02  0.168E-02
   4.070  0.104E+00  0.100E+00  0.159E-02  0.159E-02
   4.080  0.104E+00  0.101E+00  0.147E-02  0.147E-02
   4.090  0.104E+00  0.101E+00  0.135E-02  0.135E-02
   4.100  0.103E+00  0.101E+00  0.124E-02  0.124E-02
   4.110  0.103E+00  0.100E+00  0.115E-02  0.115E-02
   4.120  0.102E+00  0.100E+00  0.109E-02  0.109E-02
   4.130  0.102E+00  0.995E-01  0.106E-02  0.106E-02
   4.140  0.101E+00  0.989E-01  0.105E-02  0.105E-02
   4.150  0.100E+00  0.982E-01  0.108E-02  0.108E-02
   4.160  0.997E-01  0.975E-01  0.112E-02  0.112E-02
   4.170  0.992E-01  0.968E-01  0.118E-02  0.118E-02
   4.180  0.990E-01  0.965E-01  0.126E-02  0.126E-02
   4.190  0.993E-01  0.966E-01  0.136E-02  0.136E-02
   4.200  0.100E+00  0.972E-01  0.146E-02  0.146E-02
   4.210  0.101E+00  0.980E-01  0.156E-02  0.156E-02
   4.220  0.102E+00  0.990E-01  0.165E-02  0.165E-02
   4.230  0.103E+00  0.100E+00  0.172E-02  0.172E-02
   4.240  0.104E+00  0.101E+00  0.177E-02  0.177E-02
   4.250  0.105E+00  0.101E+00  0.178E-02  0.178E-02
   4.260  0.105E+00  0.102E+00  0.174E-02  0.174E-02
   4.270  0.106E+00  0.102E+00  0.168E-02  0.168E-02
   4.280  0.106E+00  0.103E+00  0.159E-02  0.159E-02
   4.290  0.106E+00  0.103E+00  0.147E-02  0.147E-02
   4.300  0.106E+00  0.103E+00  0.135E-02  0.135E-02
   4.310  0.104E+00  0.102E+00  0.124E-02  0.124E-02
   4.320  0.101E+00  0.992E-01  0.113E-02  0.113E-02
   4.330  0.965E-01  0.944E-01  0.105E-02  0.105E-02
   4.340  0.892E-01  0.872E-01  0.985E-03  0.985E-03
   4.350  0.799E-01  0.780E-01  0.955E-03  0.955E-03
   4.360  0.694E-01  0.675E-01  0.958E-03  0.958E-03
   4.370  0.589E-01  0.569E-01  0.995E-03  0.995E-03
   4.380  0.500E-01  0.479E-01  0.106E-02  0.106E-02
   4.390  0.440E-01  0.417E-01  0.116E-02  0.116E-02
   4.400  0.420E-01  0.394E-01  0.128E-02  0.128E-02
   4.410  0.442E-01  0.414E-01  0.140E-02  0.140E-02
   4.420  0.501E-01  0.471E-01  0.152E-02  0.152E-02
   4.430  0.588E-01  0.555E-01  0.163E-02  0.163E-02
   4.440  0.686E-01  0.652E-01  0.170E-02  0.170E-02
   4.450  0.781E-01  0.746E-01  0.174E-02  0.174E-02
   4.460  0.862E-01  0.828E-01  0.175E-02  0.175E-02
   4.470  0.926E-01  0.892E-01  0.171E-02  0.171E-02
   4.480  0.972E-01  0.940E-01  0.163E-02  0.163E-02
   4.490  0.101E+00  0.978E-01  0.154E-02  0.154E-02
   4.500  0.104E+00  0.101E+00  0.143E-02  0.143E-02
   4.510  0.108E+00  0.106E+00  0.132E-02  0.132E-02
   4.520  0.113E+00  0.110E+00  0.123E-02  0.123E-02
   4.530  0.118E+00  0.115E+00  0.115E-02  0.115E-02
   4.540  0.123E+00  0.120E+00  0.109E-02  0.109E-02
   4.550  0.127E+00  0.124E+00  0.106E-02  0.106E-02
   4.560  0.129E+00  0.127E+00  0.103E-02  0.103E-02
   4.570  0.128E+00  0.126E+00  0.102E-02  0.102E-02
   4.580  0.126E+00  0.124E+00  0.103E-02  0.103E-02
   4.590  0.120E+00  0.118E+00  0.104E-02  0.104E-02
   4.600  0.112E+00  0.110E+00  0.107E-02  0.107E-02
   4.610  0.102E+00  0.100E+00  0.111E-02  0.111E-02
   4.620  0.911E-01  0.888E-01  0.117E-02  0.117E-02
   4.630  0.794E-01  0.769E-01  0.124E-02  0.124E-02
   4.640  0.684E-01  0.658E-01  0.133E-02  0.133E-02
   4.650  0.593E-01  0.564E-01  0.141E-02  0.141E-02
   4.660  0.531E-01  0.501E-01  0.149E-02  0.149E-02
   4.670  0.508E-01  0.477E-01  0.154E-02  0.154E-02
   4.680  0.526E-01  0.494E-01  0.157E-02  0.157E-02
   4.690  0.582E-01  0.550E-01  0.157E-02  0.157E-02
   4.700  0.665E-01  0.635E-01  0.154E-02  0.154E-02
   4.710  0.763E-01  0.733E-01  0.148E-02  0.148E-02
   4.720  0.856E-01  0.828E-01  0.141E-02  0.141E-02
   4.730  0.929E-01  0.903E-01  0.132E-02  0.132E-02
   4.740  0.970E-01  0.945E-01  0.124E-02  0.124E-02
   4.750  0.970E-01  0.947E-01  0.117E-02  0.117E-02
   4.760  0.932E-01  0.909E-01  0.112E-02  0.112E-02
   4.770  0.862E-01  0.841E-01  0.108E-02  0.108E-02
   4.780  0.776E-01  0.755E-01  0.107E-02  0.107E-02
   4.790  0.691E-01  0.670E-01  0.108E-02  0.108E-02
   4.800  0.624E-01  0.602E-01  0.109E-02  0.109E-02
   4.810  0.588E-01  0.566E-01  0.111E-02  0.111E-02
   4.820  0.590E-01  0.568E-01  0.112E-02  0.112E-02
   4.830  0.630E-01  0.608E-01  0.112E-02  0.112E-02
   4.840  0.702E-01  0.680E-01  0.112E-02  0.112E-02
   4.850  0.794E-01  0.772E-01  0.111E-02  0.111E-02
   4.860  0.893E-01  0.871E-01  0.110E-02  0.110E-02
   4.870  0.988E-01  0.967E-01  0.109E-02  0.109E-02
   4.880  0.107E+00  0.105E+00  0.109E-02  0.109E-02
   4.890  0.114E+00  0.112E+00  0.112E-02  0.112E-02
   4.900  0.119E+00  0.117E+00  0.116E-02  0.116E-02
   4.910  0.123E+00  0.120E+00  0.121E-02  0.121E-02
   4.920  0.125E+00  0.122E+00  0.127E-02  0.127E-02
   4.930  0.125E+00  0.123E+00  0.133E-02  0.133E-02
   4.940  0.125E+00  0.122E+00  0.139E-02  0.139E-02
   4.950  0.123E+00  0.120E+00  0.143E-02  0.143E-02
   4.960  0.120E+00  0.117E+00  0.146E-02  0.146E-02
   4.970  0.116E+00  0.113E+00  0.148E-02  0.148E-02
   4.980  0.111E+00  0.108E+00  0.148E-02  0.148E-02
   4.990  0.105E+00  0.102E+00  0.148E-02  0.148E-02
   5.000  0.974E-01  0.945E-01  0.146E-02  0.146E-02
   5.010  0.896E-01  0.867E-01  0.144E-02  0.144E-02
   5.020  0.815E-01  0.787E-01  0.141E-02  0.141E-02
   5.030  0.734E-01  0.707E-01  0.136E-02  0.136E-02
   5.040  0.656E-01  0.630E-01  0.130E-02  0.130E-02
   5.050  0.586E-01  0.561E-01  0.123E-02  0.123E-02
   5.060  0.524E-01  0.501E-01  0.115E-02  0.115E-02
   5.070  0.474E-01  0.452E-01  0.107E-02  0.107E-02
   5.080  0.434E-01  0.415E-01  0.981E-03  0.981E-03
   5.090  0.405E-01  0.387E-01  0.902E-03  0.902E-03
   5.100  0.385E-01  0.368E-01  0.836E-03  0.836E-03
   5.110  0.371E-01  0.355E-01  0.787E-03  0.787E-03
   5.120  0.361E-01  0.346E-01  0.760E-03  0.760E-03
   5.130  0.353E-01  0.338E-01  0.755E-03  0.755E-03
   5.140  0.344E-01  0.329E-01  0.769E-03  0.769E-03
   5.150  0.334E-01  0.318E-01  0.796E-03  0.796E-03
   5.160  0.321E-01  0.304E-01  0.828E-03  0.828E-03
   5.170  0.304E-01  0.287E-01  0.855E-03  0.855E-03
   5.180  0.285E-01  0.268E-01  0.866E-03  0.866E-03
   5.190  0.264E-01  0.247E-01  0.855E-03  0.855E-03
   5.200  0.244E-01  0.228E-01  0.818E-03  0.818E-03
   5.210  0.230E-01  0.215E-01  0.760E-03  0.760E-03
   5.220  0.229E-01  0.215E-01  0.689E-03  0.689E-03
   5.230  0.248E-01  0.236E-01  0.617E-03  0.617E-03
   5.240  0.295E-01  0.283E-01  0.560E-03  0.560E-03
   5.250  0.375E-01  0.364E-01  0.532E-03  0.532E-03
   5.260  0.492E-01  0.481E-01  0.543E-03  0.543E-03
   5.270  0.645E-01  0.633E-01  0.599E-03  0.599E-03
   5.280  0.827E-01  0.813E-01  0.696E-03  0.696E-03
   5.290  0.103E+00  0.101E+00  0.827E-03  0.827E-03
   5.300  0.122E+00  0.120E+00  0.978E-03  0.978E-03
   5.310  0.140E+00  0.138E+00  0.113E-02  0.113E-02
   5.320  0.154E+00  0.152E+00  0.126E-02  0.126E-02
   5.330  0.162E+00  0.160E+00  0.136E-02  0.136E-02
   5.340  0.164E+00  0.161E+00  0.141E-02  0.141E-02
   5.350  0.159E+00  0.156E+00  0.140E-02  0.140E-02
   5.360  0.149E+00  0.146E+00  0.134E-02  0.134E-02
   5.370  0.134E+00  0.131E+00  0.124E-02  0.124E-02
   5.380  0.116E+00  0.114E+00  0.111E-02  0.111E-02
   5.390  0.973E-01  0.954E-01  0.975E-03  0.975E-03
   5.400  0.795E-01  0.778E-01  0.847E-03  0.847E-03
   5.410  0.637E-01  0.622E-01  0.741E-03  0.741E-03
   5.420  0.509E-01  0.496E-01  0.667E-03  0.667E-03
   5.430  0.419E-01  0.406E-01  0.629E-03  0.629E-03
   5.440  0.368E-01  0.356E-01  0.626E-03  0.626E-03
   5.450  0.360E-01  0.347E-01  0.651E-03  0.651E-03
   5.460  0.390E-01  0.376E-01  0.698E-03  0.698E-03
   5.470  0.453E-01  0.438E-01  0.755E-03  0.755E-03
   5.480  0.540E-01  0.523E-01  0.815E-03  0.815E-03
   5.490  0.637E-01  0.620E-01  0.869E-03  0.869E-03
   5.500  0.731E-01  0.713E-01  0.911E-03  0.911E-03
   5.510  0.809E-01  0.791E-01  0.935E-03  0.935E-03
   5.520  0.862E-01  0.843E-01  0.941E-03  0.941E-03
   5.530  0.885E-01  0.866E-01  0.925E-03  0.925E-03
   5.540  0.880E-01  0.862E-01  0.891E-03  0.891E-03
   5.550  0.853E-01  0.836E-01  0.840E-03  0.840E-03
   5.560  0.815E-01  0.799E-01  0.779E-03  0.779E-03
   5.570  0.776E-01  0.762E-01  0.712E-03  0.712E-03
   5.580  0.746E-01  0.733E-01  0.645E-03  0.645E-03
   5.590  0.733E-01  0.721E-01  0.584E-03  0.584E-03
   5.600  0.739E-01  0.728E-01  0.531E-03  0.531E-03
   5.610  0.766E-01  0.756E-01  0.488E-03  0.488E-03
   5.620  0.809E-01  0.800E-01  0.456E-03  0.456E-03
   5.630  0.865E-01  0.856E-01  0.432E-03  0.432E-03
   5.640  0.924E-01  0.916E-01  0.414E-03  0.414E-03
   5.650  0.980E-01  0.972E-01  0.401E-03  0.401E-03
   5.660  0.102E+00  0.102E+00  0.391E-03  0.391E-03
   5.670  0.105E+00  0.104E+00  0.384E-03  0.384E-03
   5.680  0.106E+00  0.105E+00  0.381E-03  0.381E-03
   5.690  0.105E+00  0.104E+00  0.384E-03  0.384E-03
   5.700  0.102E+00  0.101E+00  0.397E-03  0.397E-03
   5.710  0.976E-01  0.967E-01  0.422E-03  0.422E-03
   5.720  0.924E-01  0.914E-01  0.461E-03  0.461E-03
   5.730  0.867E-01  0.857E-01  0.512E-03  0.512E-03
   5.740  0.808E-01  0.796E-01  0.571E-03  0.571E-03
   5.750  0.747E-01  0.734E-01  0.634E-03  0.634E-03
   5.760  0.685E-01  0.671E-01  0.691E-03  0.691E-03
   5.770  0.620E-01  0.605E-01  0.737E-03  0.737E-03
   5.780  0.552E-01  0.537E-01  0.764E-03  0.764E-03
   5.790  0.484E-01  0.468E-01  0.771E-03  0.771E-03
   5.800  0.418E-01  0.403E-01  0.757E-03  0.757E-03
   5.810  0.362E-01  0.348E-01  0.726E-03  0.726E-03
   5.820  0.323E-01  0.309E-01  0.682E-03  0.682E-03
   5.830  0.308E-01  0.296E-01  0.631E-03  0.631E-03
   5.840  0.324E-01  0.312E-01  0.578E-03  0.578E-03
   5.850  0.371E-01  0.360E-01  0.527E-03  0.527E-03
   5.860  0.447E-01  0.438E-01  0.480E-03  0.480E-03
   5.870  0.545E-01  0.536E-01  0.438E-03  0.438E-03
   5.880  0.652E-01  0.644E-01  0.400E-03  0.400E-03
   5.890  0.755E-01  0.748E-01  0.368E-03  0.368E-03
   5.900  0.843E-01  0.836E-01  0.340E-03  0.340E-03
   5.910  0.905E-01  0.898E-01  0.317E-03  0.317E-03
   5.920  0.938E-01  0.932E-01  0.298E-03  0.298E-03
   5.930  0.943E-01  0.937E-01  0.284E-03  0.284E-03
   5.940  0.926E-01  0.920E-01  0.274E-03  0.274E-03
   5.950  0.895E-01  0.890E-01  0.268E-03  0.268E-03
   5.960  0.860E-01  0.854E-01  0.265E-03  0.265E-03
   5.970  0.826E-01  0.821E-01  0.266E-03  0.266E-03
   5.980  0.799E-01  0.793E-01  0.271E-03  0.271E-03
   5.990  0.779E-01  0.774E-01  0.282E-03  0.282E-03
   6.000  0.767E-01  0.761E-01  0.300E-03  0.300E-03
   6.010  0.759E-01  0.753E-01  0.328E-03  0.328E-03
   6.020  0.754E-01  0.747E-01  0.367E-03  0.367E-03
   6.030  0.748E-01  0.740E-01  0.419E-03  0.419E-03
   6.040  0.740E-01  0.730E-01  0.483E-03  0.483E-03
   6.050  0.727E-01  0.716E-01  0.559E-03  0.559E-03
   6.060  0.711E-01  0.698E-01  0.643E-03  0.643E-03
   6.070  0.692E-01  0.677E-01  0.734E-03  0.734E-03
   6.080  0.671E-01  0.655E-01  0.831E-03  0.831E-03
   6.090  0.653E-01  0.634E-01  0.933E-03  0.933E-03
   6.100  0.640E-01  0.619E-01  0.104E-02  0.104E-02
   6.110  0.637E-01  0.614E-01  0.116E-02  0.116E-02
   6.120  0.646E-01  0.620E-01  0.130E-02  0.130E-02
   6.130  0.668E-01  0.639E-01  0.145E-02  0.145E-02
   6.140  0.699E-01  0.667E-01  0.161E-02  0.161E-02
   6.150  0.735E-01  0.699E-01  0.178E-02  0.178E-02
   6.160  0.767E-01  0.728E-01  0.194E-02  0.194E-02
   6.170  0.787E-01  0.745E-01  0.209E-02  0.209E-02
   6.180  0.788E-01  0.744E-01  0.221E-02  0.221E-02
   6.190  0.765E-01  0.719E-01  0.229E-02  0.229E-02
   6.200  0.721E-01  0.674E-01  0.234E-02  0.234E-02
   6.210  0.662E-01  0.615E-01  0.237E-02  0.237E-02
   6.220  0.600E-01  0.552E-01  0.238E-02  0.238E-02
   6.230  0.546E-01  0.498E-01  0.240E-02  0.240E-02
   6.240  0.515E-01  0.466E-01  0.246E-02  0.246E-02
   6.250  0.515E-01  0.463E-01  0.262E-02  0.262E-02
   6.260  0.552E-01  0.493E-01  0.295E-02  0.295E-02
   6.270  0.623E-01  0.553E-01  0.351E-02  0.351E-02
   6.280  0.724E-01  0.636E-01  0.440E-02  0.440E-02
   6.290  0.845E-01  0.731E-01  0.568E-02  0.568E-02
   6.300  0.974E-01  0.826E-01  0.742E-02  0.742E-02
   6.310  0.110E+00  0.911E-01  0.963E-02  0.963E-02
   6.320  0.122E+00  0.978E-01  0.123E-01  0.123E-01
   6.330  0.133E+00  0.102E+00  0.153E-01  0.153E-01
   6.340  0.142E+00  0.104E+00  0.186E-01  0.186E-01
   6.350  0.148E+00  0.104E+00  0.219E-01  0.219E-01
   6.360  0.153E+00  0.103E+00  0.250E-01  0.250E-01
   6.370  0.155E+00  0.990E-01  0.278E-01  0.278E-01
   6.380  0.154E+00  0.939E-01  0.302E-01  0.302E-01
   6.390  0.152E+00  0.877E-01  0.322E-01  0.322E-01
   6.400  0.148E+00  0.807E-01  0.337E-01  0.337E-01
   6.410  0.143E+00  0.733E-01  0.350E-01  0.350E-01
   6.420  0.138E+00  0.659E-01  0.360E-01  0.360E-01
   6.430  0.133E+00  0.590E-01  0.368E-01  0.368E-01
   6.440  0.128E+00  0.530E-01  0.375E-01  0.375E-01
   6.450  0.124E+00  0.481E-01  0.378E-01  0.378E-01
   6.460  0.120E+00  0.445E-01  0.378E-01  0.378E-01
   6.470  0.117E+00  0.424E-01  0.371E-01  0.371E-01
   6.480  0.113E+00  0.419E-01  0.358E-01  0.358E-01
   6.490  0.110E+00  0.428E-01  0.338E-01  0.338E-01
   6.500  0.108E+00  0.452E-01  0.312E-01  0.312E-01
   6.510  0.106E+00  0.489E-01  0.284E-01  0.284E-01
   6.520  0.105E+00  0.537E-01  0.257E-01  0.257E-01
   6.530  0.106E+00  0.593E-01  0.234E-01  0.234E-01
   6.540  0.109E+00  0.652E-01  0.218E-01  0.218E-01
   6.550  0.113E+00  0.711E-01  0.211E-01  0.211E-01
   6.560  0.119E+00  0.762E-01  0.213E-01  0.213E-01
   6.570  0.125E+00  0.800E-01  0.223E-01  0.223E-01
   6.580  0.130E+00  0.820E-01  0.241E-01  0.241E-01
   6.590  0.134E+00  0.819E-01  0.263E-01  0.263E-01
   6.600  0.137E+00  0.795E-01  0.286E-01  0.286E-01
   6.610  0.137E+00  0.751E-01  0.309E-01  0.309E-01
   6.620  0.135E+00  0.692E-01  0.329E-01  0.329E-01
   6.630  0.131E+00  0.622E-01  0.345E-01  0.345E-01
   6.640  0.126E+00  0.550E-01  0.357E-01  0.357E-01
   6.650  0.121E+00  0.482E-01  0.365E-01  0.365E-01
   6.660  0.116E+00  0.424E-01  0.369E-01  0.369E-01
   6.670  0.112E+00  0.378E-01  0.370E-01  0.370E-01
   6.680  0.108E+00  0.345E-01  0.368E-01  0.368E-01
   6.690  0.106E+00  0.325E-01  0.365E-01  0.365E-01
   6.700  0.104E+00  0.317E-01  0.361E-01  0.361E-01
   6.710  0.103E+00  0.320E-01  0.357E-01  0.357E-01
   6.720  0.104E+00  0.335E-01  0.352E-01  0.352E-01
   6.730  0.106E+00  0.363E-01  0.349E-01  0.349E-01
   6.740  0.110E+00  0.406E-01  0.349E-01  0.349E-01
   6.750  0.117E+00  0.465E-01  0.353E-01  0.353E-01
   6.760  0.127E+00  0.540E-01  0.363E-01  0.363E-01
   6.770  0.138E+00  0.626E-01  0.379E-01  0.379E-01
   6.780  0.152E+00  0.717E-01  0.400E-01  0.400E-01
   6.790  0.165E+00  0.801E-01  0.425E-01  0.425E-01
   6.800  0.177E+00  0.868E-01  0.450E-01  0.450E-01
   6.810  0.186E+00  0.911E-01  0.472E-01  0.472E-01
   6.820  0.190E+00  0.925E-01  0.489E-01  0.489E-01
   6.830  0.191E+00  0.910E-01  0.499E-01  0.499E-01
   6.840  0.187E+00  0.871E-01  0.500E-01  0.500E-01
   6.850  0.180E+00  0.818E-01  0.493E-01  0.493E-01
   6.860  0.172E+00  0.759E-01  0.478E-01  0.478E-01
   6.870  0.162E+00  0.704E-01  0.458E-01  0.458E-01
   6.880  0.153E+00  0.657E-01  0.435E-01  0.435E-01
   6.890  0.144E+00  0.619E-01  0.411E-01  0.411E-01
   6.900  0.136E+00  0.588E-01  0.387E-01  0.387E-01
   6.910  0.129E+00  0.561E-01  0.366E-01  0.366E-01
   6.920  0.123E+00  0.533E-01  0.349E-01  0.349E-01
   6.930  0.118E+00  0.503E-01  0.339E-01  0.339E-01
   6.940  0.115E+00  0.474E-01  0.337E-01  0.337E-01
   6.950  0.114E+00  0.451E-01  0.344E-01  0.344E-01
   6.960  0.116E+00  0.440E-01  0.359E-01  0.359E-01
   6.970  0.121E+00  0.448E-01  0.382E-01  0.382E-01
   6.980  0.130E+00  0.481E-01  0.412E-01  0.412E-01
   6.990  0.143E+00  0.540E-01  0.445E-01  0.445E-01
   7.000  0.158E+00  0.621E-01  0.480E-01  0.480E-01
   7.010  0.175E+00  0.718E-01  0.514E-01  0.514E-01
   7.020  0.191E+00  0.818E-01  0.546E-01  0.546E-01
   7.030  0.206E+00  0.910E-01  0.575E-01  0.575E-01
   7.040  0.218E+00  0.986E-01  0.599E-01  0.599E-01
   7.050  0.227E+00  0.104E+00  0.617E-01  0.617E-01
   7.060  0.232E+00  0.106E+00  0.630E-01  0.630E-01
   7.070  0.233E+00  0.106E+00  0.637E-01  0.637E-01
   7.080  0.231E+00  0.103E+00  0.638E-01  0.638E-01
   7.090  0.225E+00  0.984E-01  0.634E-01  0.634E-01
   7.100  0.217E+00  0.924E-01  0.624E-01  0.624E-01
   7.110  0.208E+00  0.854E-01  0.611E-01  0.611E-01
   7.120  0.197E+00  0.780E-01  0.594E-01  0.594E-01
   7.130  0.186E+00  0.706E-01  0.576E-01  0.576E-01
   7.140  0.175E+00  0.635E-01  0.558E-01  0.558E-01
   7.150  0.165E+00  0.571E-01  0.541E-01  0.541E-01
   7.160  0.157E+00  0.516E-01  0.528E-01  0.528E-01
   7.170  0.151E+00  0.472E-01  0.519E-01  0.519E-01
   7.180  0.147E+00  0.439E-01  0.517E-01  0.517E-01
   7.190  0.146E+00  0.418E-01  0.522E-01  0.522E-01
   7.200  0.148E+00  0.408E-01  0.534E-01  0.534E-01
   7.210  0.152E+00  0.410E-01  0.555E-01  0.555E-01
   7.220  0.159E+00  0.424E-01  0.585E-01  0.585E-01
   7.230  0.169E+00  0.449E-01  0.622E-01  0.622E-01
   7.240  0.182E+00  0.482E-01  0.667E-01  0.667E-01
   7.250  0.196E+00  0.521E-01  0.720E-01  0.720E-01
   7.260  0.211E+00  0.557E-01  0.778E-01  0.778E-01
   7.270  0.227E+00  0.586E-01  0.841E-01  0.841E-01
   7.280  0.242E+00  0.601E-01  0.909E-01  0.909E-01
   7.290  0.256E+00  0.598E-01  0.981E-01  0.981E-01
   7.300  0.270E+00  0.578E-01  0.106E+00  0.106E+00
   7.310  0.284E+00  0.547E-01  0.115E+00  0.115E+00
   7.320  0.300E+00  0.512E-01  0.125E+00  0.125E+00
   7.330  0.320E+00  0.484E-01  0.136E+00  0.136E+00
   7.340  0.344E+00  0.473E-01  0.148E+00  0.148E+00
   7.350  0.374E+00  0.489E-01  0.162E+00  0.162E+00
   7.360  0.408E+00  0.534E-01  0.177E+00  0.177E+00
   7.370  0.447E+00  0.609E-01  0.193E+00  0.193E+00
   7.380  0.487E+00  0.705E-01  0.208E+00  0.208E+00
   7.390  0.527E+00  0.813E-01  0.223E+00  0.223E+00
   7.400  0.564E+00  0.919E-01  0.236E+00  0.236E+00
   7.410  0.594E+00  0.101E+00  0.247E+00  0.247E+00
   7.420  0.616E+00  0.107E+00  0.255E+00  0.255E+00
   7.430  0.629E+00  0.109E+00  0.260E+00  0.260E+00
   7.440  0.631E+00  0.107E+00  0.262E+00  0.262E+00
   7.450  0.623E+00  0.100E+00  0.261E+00  0.261E+00
   7.460  0.606E+00  0.899E-01  0.258E+00  0.258E+00
   7.470  0.581E+00  0.771E-01  0.252E+00  0.252E+00
   7.480  0.550E+00  0.633E-01  0.243E+00  0.243E+00
   7.490  0.516E+00  0.502E-01  0.233E+00  0.233E+00
   7.500  0.481E+00  0.390E-01  0.221E+00  0.221E+00
   7.510  0.447E+00  0.309E-01  0.208E+00  0.208E+00
   7.520  0.416E+00  0.263E-01  0.195E+00  0.195E+00
   7.530  0.389E+00  0.251E-01  0.182E+00  0.182E+00
   7.540  0.365E+00  0.268E-01  0.169E+00  0.169E+00
   7.550  0.347E+00  0.304E-01  0.158E+00  0.158E+00
   7.560  0.333E+00  0.350E-01  0.149E+00  0.149E+00
   7.570  0.323E+00  0.398E-01  0.141E+00  0.141E+00
   7.580  0.316E+00  0.442E-01  0.136E+00  0.136E+00
   7.590  0.312E+00  0.480E-01  0.132E+00  0.132E+00
   7.600  0.310E+00  0.511E-01  0.130E+00  0.130E+00
   7.610  0.309E+00  0.535E-01  0.128E+00  0.128E+00
   7.620  0.308E+00  0.553E-01  0.126E+00  0.126E+00
   7.630  0.306E+00  0.565E-01  0.125E+00  0.125E+00
   7.640  0.303E+00  0.572E-01  0.123E+00  0.123E+00
   7.650  0.298E+00  0.574E-01  0.120E+00  0.120E+00
   7.660  0.292E+00  0.572E-01  0.118E+00  0.118E+00
   7.670  0.286E+00  0.568E-01  0.115E+00  0.115E+00
   7.680  0.280E+00  0.566E-01  0.112E+00  0.112E+00
   7.690  0.275E+00  0.567E-01  0.109E+00  0.109E+00
   7.700  0.272E+00  0.576E-01  0.107E+00  0.107E+00
   7.710  0.271E+00  0.593E-01  0.106E+00  0.106E+00
   7.720  0.270E+00  0.621E-01  0.104E+00  0.104E+00
   7.730  0.270E+00  0.659E-01  0.102E+00  0.102E+00
   7.740  0.269E+00  0.704E-01  0.992E-01  0.992E-01
   7.750  0.267E+00  0.754E-01  0.956E-01  0.956E-01
   7.760  0.263E+00  0.803E-01  0.913E-01  0.913E-01
   7.770  0.258E+00  0.847E-01  0.869E-01  0.869E-01
   7.780  0.254E+00  0.879E-01  0.829E-01  0.829E-01
   7.790  0.250E+00  0.895E-01  0.801E-01  0.801E-01
   7.800  0.247E+00  0.892E-01  0.791E-01  0.791E-01
   7.810  0.246E+00  0.866E-01  0.799E-01  0.799E-01
   7.820  0.247E+00  0.819E-01  0.824E-01  0.824E-01
   7.830  0.248E+00  0.753E-01  0.862E-01  0.862E-01
   7.840  0.248E+00  0.673E-01  0.906E-01  0.906E-01
   7.850  0.248E+00  0.585E-01  0.948E-01  0.948E-01
   7.860  0.246E+00  0.499E-01  0.979E-01  0.979E-01
   7.870  0.241E+00  0.420E-01  0.994E-01  0.994E-01
   7.880  0.233E+00  0.357E-01  0.988E-01  0.988E-01
   7.890  0.223E+00  0.314E-01  0.958E-01  0.958E-01
   7.900  0.210E+00  0.292E-01  0.906E-01  0.906E-01
   7.910  0.196E+00  0.291E-01  0.836E-01  0.836E-01
   7.920  0.182E+00  0.306E-01  0.755E-01  0.755E-01
   7.930  0.167E+00  0.333E-01  0.670E-01  0.670E-01
   7.940  0.155E+00  0.366E-01  0.593E-01  0.593E-01
   7.950  0.147E+00  0.401E-01  0.533E-01  0.533E-01
   7.960  0.144E+00  0.438E-01  0.499E-01  0.499E-01
   7.970  0.147E+00  0.477E-01  0.497E-01  0.497E-01
   7.980  0.158E+00  0.521E-01  0.530E-01  0.530E-01
   7.990  0.176E+00  0.573E-01  0.596E-01  0.596E-01
   8.000  0.201E+00  0.634E-01  0.689E-01  0.689E-01
   8.010  0.230E+00  0.702E-01  0.799E-01  0.799E-01
   8.020  0.260E+00  0.771E-01  0.914E-01  0.914E-01
   8.030  0.287E+00  0.835E-01  0.102E+00  0.102E+00
   8.040  0.309E+00  0.884E-01  0.110E+00  0.110E+00
   8.050  0.321E+00  0.912E-01  0.115E+00  0.115E+00
   8.060  0.323E+00  0.914E-01  0.116E+00  0.116E+00
   8.070  0.314E+00  0.891E-01  0.113E+00  0.113E+00
   8.080  0.296E+00  0.846E-01  0.106E+00  0.106E+00
   8.090  0.271E+00  0.786E-01  0.960E-01  0.960E-01
   8.100  0.241E+00  0.719E-01  0.844E-01  0.844E-01
   8.110  0.210E+00  0.651E-01  0.722E-01  0.722E-01
   8.120  0.180E+00  0.588E-01  0.606E-01  0.606E-01
   8.130  0.155E+00  0.535E-01  0.506E-01  0.506E-01
   8.140  0.135E+00  0.493E-01  0.428E-01  0.428E-01
   8.150  0.122E+00  0.465E-01  0.378E-01  0.378E-01
   8.160  0.116E+00  0.447E-01  0.355E-01  0.355E-01
   8.170  0.115E+00  0.439E-01  0.357E-01  0.357E-01
   8.180  0.120E+00  0.435E-01  0.382E-01  0.382E-01
   8.190  0.128E+00  0.432E-01  0.423E-01  0.423E-01
   8.200  0.138E+00  0.426E-01  0.475E-01  0.475E-01
   8.210  0.148E+00  0.418E-01  0.532E-01  0.532E-01
   8.220  0.159E+00  0.407E-01  0.591E-01  0.591E-01
   8.230  0.169E+00  0.397E-01  0.647E-01  0.647E-01
   8.240  0.179E+00  0.391E-01  0.698E-01  0.698E-01
   8.250  0.187E+00  0.391E-01  0.741E-01  0.741E-01
   8.260  0.195E+00  0.399E-01  0.775E-01  0.775E-01
   8.270  0.202E+00  0.416E-01  0.800E-01  0.800E-01
   8.280  0.207E+00  0.441E-01  0.815E-01  0.815E-01
   8.290  0.212E+00  0.473E-01  0.822E-01  0.822E-01
   8.300  0.215E+00  0.512E-01  0.820E-01  0.820E-01
   8.310  0.218E+00  0.558E-01  0.810E-01  0.810E-01
   8.320  0.220E+00  0.613E-01  0.793E-01  0.793E-01
   8.330  0.221E+00  0.675E-01  0.769E-01  0.769E-01
   8.340  0.222E+00  0.743E-01  0.740E-01  0.740E-01
   8.350  0.223E+00  0.811E-01  0.707E-01  0.707E-01
   8.360  0.222E+00  0.872E-01  0.672E-01  0.672E-01
   8.370  0.219E+00  0.915E-01  0.636E-01  0.636E-01
   8.380  0.213E+00  0.931E-01  0.600E-01  0.600E-01
   8.390  0.204E+00  0.913E-01  0.566E-01  0.566E-01
   8.400  0.193E+00  0.858E-01  0.535E-01  0.535E-01
   8.410  0.179E+00  0.769E-01  0.509E-01  0.509E-01
   8.420  0.163E+00  0.655E-01  0.487E-01  0.487E-01
   8.430  0.147E+00  0.528E-01  0.472E-01  0.472E-01
   8.440  0.133E+00  0.402E-01  0.465E-01  0.465E-01
   8.450  0.122E+00  0.290E-01  0.467E-01  0.467E-01
   8.460  0.116E+00  0.202E-01  0.480E-01  0.480E-01
   8.470  0.115E+00  0.147E-01  0.503E-01  0.503E-01
   8.480  0.120E+00  0.127E-01  0.535E-01  0.535E-01
   8.490  0.128E+00  0.140E-01  0.571E-01  0.571E-01
   8.500  0.140E+00  0.182E-01  0.608E-01  0.608E-01
   8.510  0.153E+00  0.245E-01  0.641E-01  0.641E-01
   8.520  0.165E+00  0.320E-01  0.667E-01  0.667E-01
   8.530  0.176E+00  0.398E-01  0.682E-01  0.682E-01
   8.540  0.185E+00  0.472E-01  0.688E-01  0.688E-01
   8.550  0.191E+00  0.536E-01  0.686E-01  0.686E-01
   8.560  0.194E+00  0.588E-01  0.678E-01  0.678E-01
   8.570  0.196E+00  0.626E-01  0.665E-01  0.665E-01
   8.580  0.195E+00  0.653E-01  0.651E-01  0.651E-01
   8.590  0.194E+00  0.673E-01  0.635E-01  0.635E-01
   8.600  0.193E+00  0.688E-01  0.619E-01  0.619E-01
   8.610  0.191E+00  0.700E-01  0.605E-01  0.605E-01
   8.620  0.190E+00  0.713E-01  0.592E-01  0.592E-01
   8.630  0.189E+00  0.727E-01  0.584E-01  0.584E-01
   8.640  0.190E+00  0.742E-01  0.578E-01  0.578E-01
   8.650  0.191E+00  0.757E-01  0.575E-01  0.575E-01
   8.660  0.191E+00  0.770E-01  0.572E-01  0.572E-01
   8.670  0.191E+00  0.780E-01  0.565E-01  0.565E-01
   8.680  0.188E+00  0.782E-01  0.551E-01  0.551E-01
   8.690  0.183E+00  0.773E-01  0.528E-01  0.528E-01
   8.700  0.175E+00  0.750E-01  0.498E-01  0.498E-01
   8.710  0.163E+00  0.710E-01  0.462E-01  0.462E-01
   8.720  0.151E+00  0.654E-01  0.427E-01  0.427E-01
   8.730  0.138E+00  0.584E-01  0.397E-01  0.397E-01
   8.740  0.126E+00  0.504E-01  0.380E-01  0.380E-01
   8.750  0.118E+00  0.422E-01  0.379E-01  0.379E-01
   8.760  0.114E+00  0.346E-01  0.395E-01  0.395E-01
   8.770  0.114E+00  0.284E-01  0.428E-01  0.428E-01
   8.780  0.119E+00  0.243E-01  0.472E-01  0.472E-01
   8.790  0.127E+00  0.228E-01  0.523E-01  0.523E-01
   8.800  0.138E+00  0.240E-01  0.572E-01  0.572E-01
   8.810  0.150E+00  0.276E-01  0.613E-01  0.613E-01
   8.820  0.161E+00  0.330E-01  0.640E-01  0.640E-01
   8.830  0.170E+00  0.396E-01  0.653E-01  0.653E-01
   8.840  0.177E+00  0.465E-01  0.653E-01  0.653E-01
   8.850  0.182E+00  0.533E-01  0.643E-01  0.643E-01
   8.860  0.185E+00  0.594E-01  0.630E-01  0.630E-01
   8.870  0.188E+00  0.648E-01  0.618E-01  0.618E-01
   8.880  0.192E+00  0.693E-01  0.611E-01  0.611E-01
   8.890  0.195E+00  0.729E-01  0.611E-01  0.611E-01
   8.900  0.199E+00  0.758E-01  0.617E-01  0.617E-01
   8.910  0.203E+00  0.776E-01  0.625E-01  0.625E-01
   8.920  0.204E+00  0.782E-01  0.630E-01  0.630E-01
   8.930  0.203E+00  0.774E-01  0.630E-01  0.630E-01
   8.940  0.199E+00  0.750E-01  0.620E-01  0.620E-01
   8.950  0.192E+00  0.711E-01  0.602E-01  0.602E-01
   8.960  0.181E+00  0.660E-01  0.577E-01  0.577E-01
   8.970  0.169E+00  0.602E-01  0.546E-01  0.546E-01
   8.980  0.157E+00  0.544E-01  0.514E-01  0.514E-01
   8.990  0.145E+00  0.490E-01  0.482E-01  0.482E-01
   9.000  0.135E+00  0.445E-01  0.455E-01  0.455E-01
   9.010  0.127E+00  0.409E-01  0.432E-01  0.432E-01
   9.020  0.121E+00  0.383E-01  0.416E-01  0.416E-01
   9.030  0.117E+00  0.363E-01  0.406E-01  0.406E-01
   9.040  0.115E+00  0.346E-01  0.403E-01  0.403E-01
   9.050  0.114E+00  0.333E-01  0.406E-01  0.406E-01
   9.060  0.115E+00  0.324E-01  0.413E-01  0.413E-01
   9.070  0.117E+00  0.322E-01  0.422E-01  0.422E-01
   9.080  0.119E+00  0.330E-01  0.432E-01  0.432E-01
   9.090  0.123E+00  0.353E-01  0.439E-01  0.439E-01
   9.100  0.128E+00  0.392E-01  0.444E-01  0.444E-01
   9.110  0.134E+00  0.446E-01  0.445E-01  0.445E-01
   9.120  0.140E+00  0.511E-01  0.445E-01  0.445E-01
   9.130  0.147E+00  0.582E-01  0.445E-01  0.445E-01
   9.140  0.155E+00  0.652E-01  0.449E-01  0.449E-01
   9.150  0.163E+00  0.713E-01  0.460E-01  0.460E-01
   9.160  0.172E+00  0.758E-01  0.481E-01  0.481E-01
   9.170  0.181E+00  0.782E-01  0.513E-01  0.513E-01
   9.180  0.189E+00  0.782E-01  0.553E-01  0.553E-01
   9.190  0.195E+00  0.754E-01  0.598E-01  0.598E-01
   9.200  0.198E+00  0.702E-01  0.642E-01  0.642E-01
   9.210  0.198E+00  0.629E-01  0.678E-01  0.678E-01
   9.220  0.195E+00  0.544E-01  0.701E-01  0.701E-01
   9.230  0.187E+00  0.458E-01  0.706E-01  0.706E-01
   9.240  0.176E+00  0.380E-01  0.690E-01  0.690E-01
   9.250  0.164E+00  0.322E-01  0.657E-01  0.657E-01
   9.260  0.150E+00  0.286E-01  0.609E-01  0.609E-01
   9.270  0.138E+00  0.276E-01  0.554E-01  0.554E-01
   9.280  0.128E+00  0.286E-01  0.499E-01  0.499E-01
   9.290  0.121E+00  0.311E-01  0.452E-01  0.452E-01
   9.300  0.118E+00  0.343E-01  0.420E-01  0.420E-01
   9.310  0.119E+00  0.377E-01  0.405E-01  0.405E-01
   9.320  0.122E+00  0.410E-01  0.407E-01  0.407E-01
   9.330  0.129E+00  0.443E-01  0.422E-01  0.422E-01
   9.340  0.137E+00  0.475E-01  0.445E-01  0.445E-01
   9.350  0.145E+00  0.510E-01  0.470E-01  0.470E-01
   9.360  0.153E+00  0.549E-01  0.491E-01  0.491E-01
   9.370  0.160E+00  0.588E-01  0.505E-01  0.505E-01
   9.380  0.165E+00  0.624E-01  0.511E-01  0.511E-01
   9.390  0.167E+00  0.650E-01  0.511E-01  0.511E-01
   9.400  0.167E+00  0.661E-01  0.506E-01  0.506E-01
   9.410  0.165E+00  0.652E-01  0.499E-01  0.499E-01
   9.420  0.161E+00  0.623E-01  0.492E-01  0.492E-01
   9.430  0.155E+00  0.576E-01  0.485E-01  0.485E-01
   9.440  0.148E+00  0.518E-01  0.479E-01  0.479E-01
   9.450  0.140E+00  0.458E-01  0.470E-01  0.470E-01
   9.460  0.132E+00  0.405E-01  0.459E-01  0.459E-01
   9.470  0.125E+00  0.366E-01  0.444E-01  0.444E-01
   9.480  0.120E+00  0.346E-01  0.427E-01  0.427E-01
   9.490  0.117E+00  0.346E-01  0.411E-01  0.411E-01
   9.500  0.116E+00  0.363E-01  0.398E-01  0.398E-01
   9.510  0.118E+00  0.392E-01  0.392E-01  0.392E-01
   9.520  0.122E+00  0.429E-01  0.398E-01  0.398E-01
   9.530  0.130E+00  0.467E-01  0.416E-01  0.416E-01
   9.540  0.139E+00  0.501E-01  0.447E-01  0.447E-01
   9.550  0.151E+00  0.530E-01  0.489E-01  0.489E-01
   9.560  0.163E+00  0.553E-01  0.538E-01  0.538E-01
   9.570  0.175E+00  0.570E-01  0.589E-01  0.589E-01
   9.580  0.186E+00  0.582E-01  0.637E-01  0.637E-01
   9.590  0.194E+00  0.591E-01  0.675E-01  0.675E-01
   9.600  0.199E+00  0.598E-01  0.698E-01  0.698E-01
   9.610  0.201E+00  0.605E-01  0.702E-01  0.702E-01
   9.620  0.198E+00  0.611E-01  0.686E-01  0.686E-01
   9.630  0.191E+00  0.615E-01  0.649E-01  0.649E-01
   9.640  0.181E+00  0.616E-01  0.596E-01  0.596E-01
   9.650  0.168E+00  0.613E-01  0.534E-01  0.534E-01
   9.660  0.154E+00  0.603E-01  0.470E-01  0.470E-01
   9.670  0.141E+00  0.585E-01  0.413E-01  0.413E-01
   9.680  0.130E+00  0.559E-01  0.371E-01  0.371E-01
   9.690  0.122E+00  0.527E-01  0.349E-01  0.349E-01
   9.700  0.119E+00  0.491E-01  0.348E-01  0.348E-01
   9.710  0.119E+00  0.456E-01  0.366E-01  0.366E-01
   9.720  0.123E+00  0.429E-01  0.398E-01  0.398E-01
   9.730  0.129E+00  0.415E-01  0.437E-01  0.437E-01
   9.740  0.137E+00  0.417E-01  0.475E-01  0.475E-01
   9.750  0.145E+00  0.436E-01  0.505E-01  0.505E-01
   9.760  0.152E+00  0.471E-01  0.523E-01  0.523E-01
   9.770  0.157E+00  0.514E-01  0.528E-01  0.528E-01
   9.780  0.160E+00  0.559E-01  0.522E-01  0.522E-01
   9.790  0.161E+00  0.596E-01  0.508E-01  0.508E-01
   9.800  0.160E+00  0.618E-01  0.493E-01  0.493E-01
   9.810  0.158E+00  0.621E-01  0.481E-01  0.481E-01
   9.820  0.155E+00  0.605E-01  0.474E-01  0.474E-01
   9.830  0.152E+00  0.572E-01  0.474E-01  0.474E-01
   9.840  0.149E+00  0.528E-01  0.480E-01  0.480E-01
   9.850  0.146E+00  0.481E-01  0.487E-01  0.487E-01
   9.860  0.143E+00  0.437E-01  0.494E-01  0.494E-01
   9.870  0.140E+00  0.402E-01  0.499E-01  0.499E-01
   9.880  0.138E+00  0.379E-01  0.502E-01  0.502E-01
   9.890  0.138E+00  0.368E-01  0.504E-01  0.504E-01
   9.900  0.139E+00  0.367E-01  0.510E-01  0.510E-01
   9.910  0.141E+00  0.372E-01  0.521E-01  0.521E-01
   9.920  0.145E+00  0.377E-01  0.539E-01  0.539E-01
   9.930  0.150E+00  0.376E-01  0.563E-01  0.563E-01
   9.940  0.154E+00  0.365E-01  0.590E-01  0.590E-01
   9.950  0.157E+00  0.341E-01  0.616E-01  0.616E-01
   9.960  0.158E+00  0.304E-01  0.638E-01  0.638E-01
   9.970  0.156E+00  0.256E-01  0.651E-01  0.651E-01
   9.980  0.151E+00  0.202E-01  0.655E-01  0.655E-01
   9.990  0.144E+00  0.145E-01  0.648E-01  0.648E-01
  10.000  0.136E+00  0.918E-02  0.633E-01  0.633E-01
  10.010  0.127E+00  0.467E-02  0.611E-01  0.611E-01
  10.020  0.118E+00  0.125E-02  0.585E-01  0.585E-01
  10.030  0.110E+00 -0.977E-03  0.555E-01  0.555E-01
  10.040  0.102E+00 -0.210E-02  0.521E-01  0.521E-01
  10.050  0.944E-01 -0.232E-02  0.484E-01  0.484E-01
  10.060  0.865E-01 -0.192E-02  0.442E-01  0.442E-01
  10.070  0.784E-01 -0.118E-02  0.398E-01  0.398E-01
  10.080  0.704E-01 -0.316E-03  0.354E-01  0.354E-01
  10.090  0.630E-01  0.505E-03  0.312E-01  0.312E-01
  10.100  0.567E-01  0.120E-02  0.278E-01  0.278E-01
  10.110  0.524E-01  0.173E-02  0.253E-01  0.253E-01
  10.120  0.504E-01  0.212E-02  0.242E-01  0.242E-01
  10.130  0.510E-01  0.239E-02  0.243E-01  0.243E-01
  10.140  0.540E-01  0.259E-02  0.257E-01  0.257E-01
  10.150  0.588E-01  0.273E-02  0.280E-01  0.280E-01
  10.160  0.648E-01  0.285E-02  0.310E-01  0.310E-01
  10.170  0.712E-01  0.293E-02  0.341E-01  0.341E-01
  10.180  0.773E-01  0.297E-02  0.371E-01  0.371E-01
  10.190  0.827E-01  0.296E-02  0.399E-01  0.399E-01
  10.200  0.875E-01  0.290E-02  0.423E-01  0.423E-01
  10.210  0.922E-01  0.278E-02  0.447E-01  0.447E-01
  10.220  0.977E-01  0.260E-02  0.476E-01  0.476E-01
  10.230  0.105E+00  0.239E-02  0.513E-01  0.513E-01
  10.240  0.114E+00  0.216E-02  0.561E-01  0.561E-01
  10.250  0.126E+00  0.195E-02  0.623E-01  0.623E-01
  10.260  0.140E+00  0.178E-02  0.693E-01  0.693E-01
  10.270  0.154E+00  0.167E-02  0.764E-01  0.764E-01
  10.280  0.167E+00  0.164E-02  0.826E-01  0.826E-01
  10.290  0.175E+00  0.168E-02  0.868E-01  0.868E-01
  10.300  0.178E+00  0.178E-02  0.879E-01  0.879E-01
  10.310  0.173E+00  0.191E-02  0.856E-01  0.856E-01
  10.320  0.162E+00  0.205E-02  0.798E-01  0.798E-01
  10.330  0.144E+00  0.217E-02  0.711E-01  0.711E-01
  10.340  0.123E+00  0.226E-02  0.606E-01  0.606E-01
  10.350  0.102E+00  0.230E-02  0.496E-01  0.496E-01
  10.360  0.813E-01  0.230E-02  0.395E-01  0.395E-01
  10.370  0.648E-01  0.227E-02  0.313E-01  0.313E-01
  10.380  0.534E-01  0.222E-02  0.256E-01  0.256E-01
  10.390  0.474E-01  0.218E-02  0.226E-01  0.226E-01
  10.400  0.461E-01  0.214E-02  0.220E-01  0.220E-01
  10.410  0.483E-01  0.212E-02  0.231E-01  0.231E-01
  10.420  0.526E-01  0.211E-02  0.252E-01  0.252E-01
  10.430  0.576E-01  0.210E-02  0.277E-01  0.277E-01
  10.440  0.624E-01  0.208E-02  0.301E-01  0.301E-01
  10.450  0.663E-01  0.206E-02  0.321E-01  0.321E-01
  10.460  0.692E-01  0.203E-02  0.336E-01  0.336E-01
  10.470  0.712E-01  0.198E-02  0.346E-01  0.346E-01
  10.480  0.723E-01  0.193E-02  0.352E-01  0.352E-01
  10.490  0.728E-01  0.188E-02  0.355E-01  0.355E-01
  10.500  0.726E-01  0.182E-02  0.354E-01  0.354E-01
  10.510  0.720E-01  0.177E-02  0.351E-01  0.351E-01
  10.520  0.711E-01  0.172E-02  0.347E-01  0.347E-01
  10.530  0.702E-01  0.167E-02  0.343E-01  0.343E-01
  10.540  0.698E-01  0.163E-02  0.341E-01  0.341E-01
  10.550  0.706E-01  0.158E-02  0.345E-01  0.345E-01
  10.560  0.730E-01  0.154E-02  0.357E-01  0.357E-01
  10.570  0.774E-01  0.150E-02  0.380E-01  0.380E-01
  10.580  0.841E-01  0.147E-02  0.413E-01  0.413E-01
  10.590  0.927E-01  0.145E-02  0.456E-01  0.456E-01
  10.600  0.103E+00  0.144E-02  0.508E-01  0.508E-01
  10.610  0.114E+00  0.146E-02  0.563E-01  0.563E-01
  10.620  0.125E+00  0.149E-02  0.620E-01  0.620E-01
  10.630  0.136E+00  0.154E-02  0.674E-01  0.674E-01
  10.640  0.146E+00  0.160E-02  0.724E-01  0.724E-01
  10.650  0.155E+00  0.166E-02  0.766E-01  0.766E-01
  10.660  0.162E+00  0.171E-02  0.801E-01  0.801E-01
  10.670  0.167E+00  0.174E-02  0.825E-01  0.825E-01
  10.680  0.170E+00  0.175E-02  0.839E-01  0.839E-01
  10.690  0.170E+00  0.174E-02  0.840E-01  0.840E-01
  10.700  0.167E+00  0.171E-02  0.827E-01  0.827E-01
  10.710  0.161E+00  0.166E-02  0.797E-01  0.797E-01
  10.720  0.152E+00  0.160E-02  0.751E-01  0.751E-01
  10.730  0.140E+00  0.155E-02  0.692E-01  0.692E-01
  10.740  0.126E+00  0.152E-02  0.622E-01  0.622E-01
  10.750  0.111E+00  0.151E-02  0.550E-01  0.550E-01
  10.760  0.977E-01  0.155E-02  0.481E-01  0.481E-01
  10.770  0.858E-01  0.163E-02  0.421E-01  0.421E-01
  10.780  0.766E-01  0.176E-02  0.374E-01  0.374E-01
  10.790  0.706E-01  0.193E-02  0.343E-01  0.343E-01
  10.800  0.675E-01  0.213E-02  0.327E-01  0.327E-01
  10.810  0.666E-01  0.235E-02  0.321E-01  0.321E-01
  10.820  0.671E-01  0.258E-02  0.323E-01  0.323E-01
  10.830  0.681E-01  0.280E-02  0.327E-01  0.327E-01
  10.840  0.689E-01  0.300E-02  0.329E-01  0.329E-01
  10.850  0.690E-01  0.316E-02  0.329E-01  0.329E-01
  10.860  0.685E-01  0.328E-02  0.326E-01  0.326E-01
  10.870  0.675E-01  0.336E-02  0.321E-01  0.321E-01
  10.880  0.665E-01  0.339E-02  0.315E-01  0.315E-01
  10.890  0.658E-01  0.338E-02  0.312E-01  0.312E-01
  10.900  0.659E-01  0.334E-02  0.313E-01  0.313E-01
  10.910  0.671E-01  0.328E-02  0.319E-01  0.319E-01
  10.920  0.696E-01  0.322E-02  0.332E-01  0.332E-01
  10.930  0.734E-01  0.317E-02  0.351E-01  0.351E-01
  10.940  0.782E-01  0.312E-02  0.375E-01  0.375E-01
  10.950  0.837E-01  0.309E-02  0.403E-01  0.403E-01
  10.960  0.895E-01  0.307E-02  0.432E-01  0.432E-01
  10.970  0.953E-01  0.305E-02  0.461E-01  0.461E-01
  10.980  0.101E+00  0.302E-02  0.488E-01  0.488E-01
  10.990  0.105E+00  0.296E-02  0.512E-01  0.512E-01
  11.000  0.110E+00  0.287E-02  0.533E-01  0.533E-01
  11.010  0.113E+00  0.274E-02  0.553E-01  0.553E-01
  11.020  0.117E+00  0.258E-02  0.573E-01  0.573E-01
  11.030  0.121E+00  0.239E-02  0.595E-01  0.595E-01
  11.040  0.126E+00  0.218E-02  0.618E-01  0.618E-01
  11.050  0.131E+00  0.199E-02  0.643E-01  0.643E-01
  11.060  0.136E+00  0.181E-02  0.669E-01  0.669E-01
  11.070  0.140E+00  0.168E-02  0.693E-01  0.693E-01
  11.080  0.144E+00  0.161E-02  0.714E-01  0.714E-01
  11.090  0.147E+00  0.159E-02  0.728E-01  0.728E-01
  11.100  0.148E+00  0.164E-02  0.732E-01  0.732E-01
  11.110  0.147E+00  0.172E-02  0.725E-01  0.725E-01
  11.120  0.143E+00  0.183E-02  0.704E-01  0.704E-01
  11.130  0.136E+00  0.193E-02  0.669E-01  0.669E-01
  11.140  0.126E+00  0.201E-02  0.622E-01  0.622E-01
  11.150  0.115E+00  0.204E-02  0.566E-01  0.566E-01
  11.160  0.103E+00  0.203E-02  0.505E-01  0.505E-01
  11.170  0.909E-01  0.198E-02  0.445E-01  0.445E-01
  11.180  0.800E-01  0.191E-02  0.391E-01  0.391E-01
  11.190  0.714E-01  0.184E-02  0.348E-01  0.348E-01
  11.200  0.657E-01  0.179E-02  0.320E-01  0.320E-01
  11.210  0.633E-01  0.179E-02  0.308E-01  0.308E-01
  11.220  0.641E-01  0.184E-02  0.311E-01  0.311E-01
  11.230  0.674E-01  0.193E-02  0.327E-01  0.327E-01
  11.240  0.722E-01  0.205E-02  0.351E-01  0.351E-01
  11.250  0.773E-01  0.219E-02  0.376E-01  0.376E-01
  11.260  0.817E-01  0.231E-02  0.397E-01  0.397E-01
  11.270  0.843E-01  0.239E-02  0.410E-01  0.410E-01
  11.280  0.847E-01  0.243E-02  0.412E-01  0.412E-01
  11.290  0.831E-01  0.240E-02  0.403E-01  0.403E-01
  11.300  0.799E-01  0.230E-02  0.388E-01  0.388E-01
  11.310  0.759E-01  0.216E-02  0.369E-01  0.369E-01
  11.320  0.722E-01  0.197E-02  0.351E-01  0.351E-01
  11.330  0.693E-01  0.177E-02  0.338E-01  0.338E-01
  11.340  0.678E-01  0.158E-02  0.331E-01  0.331E-01
  11.350  0.677E-01  0.141E-02  0.332E-01  0.332E-01
  11.360  0.690E-01  0.128E-02  0.339E-01  0.339E-01
  11.370  0.714E-01  0.120E-02  0.351E-01  0.351E-01
  11.380  0.746E-01  0.117E-02  0.367E-01  0.367E-01
  11.390  0.784E-01  0.119E-02  0.386E-01  0.386E-01
  11.400  0.829E-01  0.124E-02  0.408E-01  0.408E-01
  11.410  0.878E-01  0.131E-02  0.433E-01  0.433E-01
  11.420  0.931E-01  0.140E-02  0.459E-01  0.459E-01
  11.430  0.985E-01  0.148E-02  0.485E-01  0.485E-01
  11.440  0.104E+00  0.155E-02  0.510E-01  0.510E-01
  11.450  0.108E+00  0.161E-02  0.532E-01  0.532E-01
  11.460  0.112E+00  0.166E-02  0.549E-01  0.549E-01
  11.470  0.114E+00  0.171E-02  0.560E-01  0.560E-01
  11.480  0.115E+00  0.177E-02  0.565E-01  0.565E-01
  11.490  0.115E+00  0.184E-02  0.566E-01  0.566E-01
  11.500  0.115E+00  0.194E-02  0.564E-01  0.564E-01
  11.510  0.114E+00  0.206E-02  0.561E-01  0.561E-01
  11.520  0.115E+00  0.220E-02  0.562E-01  0.562E-01
  11.530  0.116E+00  0.235E-02  0.567E-01  0.567E-01
  11.540  0.118E+00  0.250E-02  0.577E-01  0.577E-01
  11.550  0.121E+00  0.264E-02  0.591E-01  0.591E-01
  11.560  0.124E+00  0.276E-02  0.606E-01  0.606E-01
  11.570  0.127E+00  0.284E-02  0.619E-01  0.619E-01
  11.580  0.128E+00  0.287E-02  0.626E-01  0.626E-01
  11.590  0.128E+00  0.284E-02  0.624E-01  0.624E-01
  11.600  0.125E+00  0.275E-02  0.610E-01  0.610E-01
  11.610  0.120E+00  0.261E-02  0.585E-01  0.585E-01
  11.620  0.112E+00  0.243E-02  0.550E-01  0.550E-01
  11.630  0.104E+00  0.224E-02  0.509E-01  0.509E-01
  11.640  0.953E-01  0.206E-02  0.466E-01  0.466E-01
  11.650  0.871E-01  0.191E-02  0.426E-01  0.426E-01
  11.660  0.802E-01  0.181E-02  0.392E-01  0.392E-01
  11.670  0.751E-01  0.179E-02  0.367E-01  0.367E-01
  11.680  0.720E-01  0.184E-02  0.351E-01  0.351E-01
  11.690  0.706E-01  0.196E-02  0.343E-01  0.343E-01
  11.700  0.708E-01  0.211E-02  0.343E-01  0.343E-01
  11.710  0.719E-01  0.229E-02  0.348E-01  0.348E-01
  11.720  0.734E-01  0.245E-02  0.355E-01  0.355E-01
  11.730  0.749E-01  0.259E-02  0.362E-01  0.362E-01
  11.740  0.760E-01  0.270E-02  0.366E-01  0.366E-01
  11.750  0.763E-01  0.278E-02  0.368E-01  0.368E-01
  11.760  0.758E-01  0.284E-02  0.365E-01  0.365E-01
  11.770  0.743E-01  0.291E-02  0.357E-01  0.357E-01
  11.780  0.721E-01  0.302E-02  0.345E-01  0.345E-01
  11.790  0.693E-01  0.317E-02  0.331E-01  0.331E-01
  11.800  0.663E-01  0.338E-02  0.314E-01  0.314E-01
  11.810  0.633E-01  0.364E-02  0.298E-01  0.298E-01
  11.820  0.608E-01  0.392E-02  0.284E-01  0.284E-01
  11.830  0.590E-01  0.421E-02  0.274E-01  0.274E-01
  11.840  0.581E-01  0.445E-02  0.268E-01  0.268E-01
  11.850  0.582E-01  0.464E-02  0.268E-01  0.268E-01
  11.860  0.596E-01  0.472E-02  0.275E-01  0.275E-01
  11.870  0.624E-01  0.470E-02  0.288E-01  0.288E-01
  11.880  0.667E-01  0.457E-02  0.311E-01  0.311E-01
  11.890  0.726E-01  0.433E-02  0.341E-01  0.341E-01
  11.900  0.803E-01  0.403E-02  0.381E-01  0.381E-01
  11.910  0.895E-01  0.369E-02  0.429E-01  0.429E-01
  11.920  0.999E-01  0.338E-02  0.483E-01  0.483E-01
  11.930  0.111E+00  0.313E-02  0.539E-01  0.539E-01
  11.940  0.122E+00  0.297E-02  0.595E-01  0.595E-01
  11.950  0.132E+00  0.293E-02  0.645E-01  0.645E-01
  11.960  0.140E+00  0.298E-02  0.686E-01  0.686E-01
  11.970  0.146E+00  0.311E-02  0.714E-01  0.714E-01
  11.980  0.149E+00  0.325E-02  0.729E-01  0.729E-01
  11.990  0.149E+00  0.337E-02  0.730E-01  0.730E-01
  12.000  0.147E+00  0.340E-02  0.720E-01  0.720E-01
  12.010  0.143E+00  0.333E-02  0.699E-01  0.699E-01
  12.020  0.138E+00  0.314E-02  0.672E-01  0.672E-01
  12.030  0.131E+00  0.285E-02  0.642E-01  0.642E-01
  12.040  0.125E+00  0.249E-02  0.610E-01  0.610E-01
  12.050  0.118E+00  0.211E-02  0.579E-01  0.579E-01
  12.060  0.111E+00  0.175E-02  0.549E-01  0.549E-01
  12.070  0.105E+00  0.145E-02  0.519E-01  0.519E-01
  12.080  0.990E-01  0.125E-02  0.489E-01  0.489E-01
  12.090  0.928E-01  0.117E-02  0.458E-01  0.458E-01
  12.100  0.867E-01  0.120E-02  0.427E-01  0.427E-01
  12.110  0.807E-01  0.134E-02  0.397E-01  0.397E-01
  12.120  0.753E-01  0.157E-02  0.368E-01  0.368E-01
  12.130  0.705E-01  0.186E-02  0.343E-01  0.343E-01
  12.140  0.665E-01  0.219E-02  0.322E-01  0.322E-01
  12.150  0.634E-01  0.251E-02  0.304E-01  0.304E-01
  12.160  0.611E-01  0.281E-02  0.291E-01  0.291E-01
  12.170  0.595E-01  0.303E-02  0.282E-01  0.282E-01
  12.180  0.586E-01  0.316E-02  0.277E-01  0.277E-01
  12.190  0.583E-01  0.319E-02  0.276E-01  0.276E-01
  12.200  0.589E-01  0.311E-02  0.279E-01  0.279E-01
  12.210  0.605E-01  0.293E-02  0.288E-01  0.288E-01
  12.220  0.631E-01  0.268E-02  0.302E-01  0.302E-01
  12.230  0.668E-01  0.239E-02  0.322E-01  0.322E-01
  12.240  0.712E-01  0.210E-02  0.345E-01  0.345E-01
  12.250  0.760E-01  0.184E-02  0.371E-01  0.371E-01
  12.260  0.807E-01  0.164E-02  0.395E-01  0.395E-01
  12.270  0.849E-01  0.150E-02  0.417E-01  0.417E-01
  12.280  0.885E-01  0.144E-02  0.435E-01  0.435E-01
  12.290  0.911E-01  0.144E-02  0.448E-01  0.448E-01
  12.300  0.928E-01  0.148E-02  0.456E-01  0.456E-01
  12.310  0.935E-01  0.156E-02  0.460E-01  0.460E-01
  12.320  0.933E-01  0.164E-02  0.458E-01  0.458E-01
  12.330  0.921E-01  0.173E-02  0.452E-01  0.452E-01
  12.340  0.899E-01  0.180E-02  0.440E-01  0.440E-01
  12.350  0.867E-01  0.185E-02  0.424E-01  0.424E-01
  12.360  0.826E-01  0.189E-02  0.404E-01  0.404E-01
  12.370  0.779E-01  0.190E-02  0.380E-01  0.380E-01
  12.380  0.732E-01  0.189E-02  0.357E-01  0.357E-01
  12.390  0.690E-01  0.185E-02  0.336E-01  0.336E-01
  12.400  0.662E-01  0.179E-02  0.322E-01  0.322E-01
  12.410  0.652E-01  0.171E-02  0.318E-01  0.318E-01
  12.420  0.668E-01  0.159E-02  0.326E-01  0.326E-01
  12.430  0.709E-01  0.145E-02  0.347E-01  0.347E-01
  12.440  0.775E-01  0.130E-02  0.381E-01  0.381E-01
  12.450  0.860E-01  0.114E-02  0.424E-01  0.424E-01
  12.460  0.955E-01  0.974E-03  0.472E-01  0.472E-01
  12.470  0.105E+00  0.826E-03  0.520E-01  0.520E-01
  12.480  0.113E+00  0.698E-03  0.563E-01  0.563E-01
  12.490  0.119E+00  0.595E-03  0.594E-01  0.594E-01
  12.500  0.123E+00  0.518E-03  0.611E-01  0.611E-01
  12.510  0.123E+00  0.464E-03  0.612E-01  0.612E-01
  12.520  0.120E+00  0.429E-03  0.596E-01  0.596E-01
  12.530  0.114E+00  0.407E-03  0.567E-01  0.567E-01
  12.540  0.106E+00  0.394E-03  0.527E-01  0.527E-01
  12.550  0.968E-01  0.387E-03  0.482E-01  0.482E-01
  12.560  0.877E-01  0.390E-03  0.437E-01  0.437E-01
  12.570  0.795E-01  0.404E-03  0.395E-01  0.395E-01
  12.580  0.726E-01  0.436E-03  0.361E-01  0.361E-01
  12.590  0.676E-01  0.491E-03  0.335E-01  0.335E-01
  12.600  0.643E-01  0.576E-03  0.318E-01  0.318E-01
  12.610  0.624E-01  0.695E-03  0.309E-01  0.309E-01
  12.620  0.617E-01  0.852E-03  0.304E-01  0.304E-01
  12.630  0.615E-01  0.105E-02  0.302E-01  0.302E-01
  12.640  0.614E-01  0.128E-02  0.301E-01  0.301E-01
  12.650  0.611E-01  0.154E-02  0.298E-01  0.298E-01
  12.660  0.603E-01  0.182E-02  0.292E-01  0.292E-01
  12.670  0.592E-01  0.212E-02  0.285E-01  0.285E-01
  12.680  0.579E-01  0.242E-02  0.277E-01  0.277E-01
  12.690  0.566E-01  0.272E-02  0.270E-01  0.270E-01
  12.700  0.558E-01  0.300E-02  0.264E-01  0.264E-01
  12.710  0.557E-01  0.325E-02  0.262E-01  0.262E-01
  12.720  0.565E-01  0.347E-02  0.265E-01  0.265E-01
  12.730  0.582E-01  0.365E-02  0.273E-01  0.273E-01
  12.740  0.609E-01  0.377E-02  0.286E-01  0.286E-01
  12.750  0.643E-01  0.384E-02  0.302E-01  0.302E-01
  12.760  0.683E-01  0.386E-02  0.322E-01  0.322E-01
  12.770  0.725E-01  0.381E-02  0.343E-01  0.343E-01
  12.780  0.767E-01  0.370E-02  0.365E-01  0.365E-01
  12.790  0.806E-01  0.353E-02  0.385E-01  0.385E-01
  12.800  0.838E-01  0.332E-02  0.403E-01  0.403E-01
  12.810  0.861E-01  0.306E-02  0.415E-01  0.415E-01
  12.820  0.871E-01  0.277E-02  0.422E-01  0.422E-01
  12.830  0.868E-01  0.247E-02  0.422E-01  0.422E-01
  12.840  0.851E-01  0.218E-02  0.414E-01  0.414E-01
  12.850  0.820E-01  0.191E-02  0.400E-01  0.400E-01
  12.860  0.779E-01  0.168E-02  0.381E-01  0.381E-01
  12.870  0.729E-01  0.150E-02  0.357E-01  0.357E-01
  12.880  0.676E-01  0.138E-02  0.331E-01  0.331E-01
  12.890  0.620E-01  0.131E-02  0.304E-01  0.304E-01
  12.900  0.565E-01  0.128E-02  0.276E-01  0.276E-01
  12.910  0.511E-01  0.127E-02  0.249E-01  0.249E-01
  12.920  0.460E-01  0.126E-02  0.224E-01  0.224E-01
  12.930  0.411E-01  0.125E-02  0.199E-01  0.199E-01
  12.940  0.367E-01  0.122E-02  0.177E-01  0.177E-01
  12.950  0.329E-01  0.116E-02  0.159E-01  0.159E-01
  12.960  0.300E-01  0.109E-02  0.144E-01  0.144E-01
  12.970  0.280E-01  0.102E-02  0.135E-01  0.135E-01
  12.980  0.272E-01  0.958E-03  0.131E-01  0.131E-01
  12.990  0.274E-01  0.914E-03  0.132E-01  0.132E-01
  13.000  0.284E-01  0.898E-03  0.137E-01  0.137E-01
  13.010  0.298E-01  0.910E-03  0.144E-01  0.144E-01
  13.020  0.313E-01  0.946E-03  0.152E-01  0.152E-01
  13.030  0.325E-01  0.100E-02  0.157E-01  0.157E-01
  13.040  0.333E-01  0.107E-02  0.161E-01  0.161E-01
  13.050  0.336E-01  0.115E-02  0.162E-01  0.162E-01
  13.060  0.336E-01  0.124E-02  0.162E-01  0.162E-01
  13.070  0.335E-01  0.133E-02  0.161E-01  0.161E-01
  13.080  0.336E-01  0.144E-02  0.161E-01  0.161E-01
  13.090  0.341E-01  0.156E-02  0.163E-01  0.163E-01
  13.100  0.350E-01  0.168E-02  0.166E-01  0.166E-01
  13.110  0.362E-01  0.180E-02  0.172E-01  0.172E-01
  13.120  0.376E-01  0.189E-02  0.179E-01  0.179E-01
  13.130  0.388E-01  0.196E-02  0.184E-01  0.184E-01
  13.140  0.393E-01  0.198E-02  0.187E-01  0.187E-01
  13.150  0.391E-01  0.194E-02  0.186E-01  0.186E-01
  13.160  0.377E-01  0.183E-02  0.180E-01  0.180E-01
  13.170  0.355E-01  0.168E-02  0.169E-01  0.169E-01
  13.180  0.324E-01  0.147E-02  0.155E-01  0.155E-01
  13.190  0.291E-01  0.125E-02  0.139E-01  0.139E-01
  13.200  0.259E-01  0.102E-02  0.124E-01  0.124E-01
  13.210  0.232E-01  0.813E-03  0.112E-01  0.112E-01
  13.220  0.213E-01  0.640E-03  0.103E-01  0.103E-01
  13.230  0.202E-01  0.514E-03  0.984E-02  0.984E-02
  13.240  0.198E-01  0.438E-03  0.970E-02  0.970E-02
  13.250  0.200E-01  0.410E-03  0.978E-02  0.978E-02
  13.260  0.203E-01  0.422E-03  0.992E-02  0.992E-02
  13.270  0.205E-01  0.462E-03  0.100E-01  0.100E-01
  13.280  0.205E-01  0.518E-03  0.100E-01  0.100E-01
  13.290  0.203E-01  0.581E-03  0.985E-02  0.985E-02
  13.300  0.200E-01  0.643E-03  0.965E-02  0.965E-02
  13.310  0.197E-01  0.698E-03  0.950E-02  0.950E-02
  13.320  0.197E-01  0.745E-03  0.949E-02  0.949E-02
  13.330  0.201E-01  0.785E-03  0.968E-02  0.968E-02
  13.340  0.210E-01  0.819E-03  0.101E-01  0.101E-01
  13.350  0.220E-01  0.847E-03  0.106E-01  0.106E-01
  13.360  0.230E-01  0.867E-03  0.110E-01  0.110E-01
  13.370  0.235E-01  0.876E-03  0.113E-01  0.113E-01
  13.380  0.233E-01  0.870E-03  0.112E-01  0.112E-01
  13.390  0.221E-01  0.847E-03  0.106E-01  0.106E-01
  13.400  0.202E-01  0.808E-03  0.968E-02  0.968E-02
  13.410  0.176E-01  0.757E-03  0.840E-02  0.840E-02
  13.420  0.147E-01  0.701E-03  0.701E-02  0.701E-02
  13.430  0.121E-01  0.652E-03  0.573E-02  0.573E-02
  13.440  0.101E-01  0.620E-03  0.474E-02  0.474E-02
  13.450  0.897E-02  0.612E-03  0.418E-02  0.418E-02
  13.460  0.880E-02  0.635E-03  0.408E-02  0.408E-02
  13.470  0.948E-02  0.684E-03  0.440E-02  0.440E-02
  13.480  0.107E-01  0.754E-03  0.498E-02  0.498E-02
  13.490  0.122E-01  0.832E-03  0.567E-02  0.567E-02
  13.500  0.135E-01  0.905E-03  0.629E-02  0.629E-02
  13.510  0.144E-01  0.959E-03  0.670E-02  0.670E-02
  13.520  0.146E-01  0.986E-03  0.683E-02  0.683E-02
  13.530  0.143E-01  0.982E-03  0.665E-02  0.665E-02
  13.540  0.134E-01  0.951E-03  0.621E-02  0.621E-02
  13.550  0.122E-01  0.903E-03  0.563E-02  0.563E-02
  13.560  0.109E-01  0.851E-03  0.502E-02  0.502E-02
  13.570  0.977E-02  0.808E-03  0.448E-02  0.448E-02
  13.580  0.900E-02  0.785E-03  0.411E-02  0.411E-02
  13.590  0.863E-02  0.787E-03  0.392E-02  0.392E-02
  13.600  0.865E-02  0.811E-03  0.392E-02  0.392E-02
  13.610  0.895E-02  0.852E-03  0.405E-02  0.405E-02
  13.620  0.936E-02  0.898E-03  0.423E-02  0.423E-02
  13.630  0.972E-02  0.939E-03  0.439E-02  0.439E-02
  13.640  0.990E-02  0.964E-03  0.447E-02  0.447E-02
  13.650  0.980E-02  0.969E-03  0.441E-02  0.441E-02
  13.660  0.939E-02  0.951E-03  0.422E-02  0.422E-02
  13.670  0.872E-02  0.911E-03  0.390E-02  0.390E-02
  13.680  0.783E-02  0.854E-03  0.349E-02  0.349E-02
  13.690  0.681E-02  0.781E-03  0.301E-02  0.301E-02
  13.700  0.573E-02  0.697E-03  0.252E-02  0.252E-02
  13.710  0.466E-02  0.605E-03  0.203E-02  0.203E-02
  13.720  0.365E-02  0.507E-03  0.157E-02  0.157E-02
  13.730  0.271E-02  0.406E-03  0.115E-02  0.115E-02
  13.740  0.188E-02  0.305E-03  0.786E-03  0.786E-03
  13.750  0.116E-02  0.209E-03  0.475E-03  0.475E-03
  13.760  0.569E-03  0.122E-03  0.224E-03  0.224E-03
  13.770  0.121E-03  0.481E-04  0.363E-04  0.363E-04
  13.780 -0.176E-03 -0.920E-05 -0.834E-04 -0.834E-04
  13.790 -0.317E-03 -0.487E-04 -0.134E-03 -0.134E-03
  13.800 -0.307E-03 -0.711E-04 -0.118E-03 -0.118E-03
  13.810 -0.159E-03 -0.791E-04 -0.401E-04 -0.401E-04
  13.820  0.108E-03 -0.762E-04  0.919E-04  0.919E-04
  13.830  0.470E-03 -0.665E-04  0.268E-03  0.268E-03
  13.840  0.903E-03 -0.537E-04  0.479E-03  0.479E-03
  13.850  0.138E-02 -0.403E-04  0.712E-03  0.712E-03
  13.860  0.189E-02 -0.284E-04  0.960E-03  0.960E-03
  13.870  0.241E-02 -0.187E-04  0.121E-02  0.121E-02
  13.880  0.291E-02 -0.113E-04  0.146E-02  0.146E-02
  13.890  0.339E-02 -0.612E-05  0.170E-02  0.170E-02
  13.900  0.383E-02 -0.260E-05  0.191E-02  0.191E-02
  13.910  0.420E-02 -0.285E-06  0.210E-02  0.210E-02
  13.920  0.450E-02  0.120E-05  0.225E-02  0.225E-02
  13.930  0.470E-02  0.217E-05  0.235E-02  0.235E-02
  13.940  0.481E-02  0.281E-05  0.240E-02  0.240E-02
  13.950  0.482E-02  0.329E-05  0.241E-02  0.241E-02
  13.960  0.476E-02  0.370E-05  0.238E-02  0.238E-02
  13.970  0.464E-02  0.413E-05  0.232E-02  0.232E-02
  13.980  0.451E-02  0.468E-05  0.225E-02  0.225E-02
  13.990  0.440E-02  0.540E-05  0.220E-02  0.220E-02
  14.000  0.432E-02  0.632E-05  0.216E-02  0.216E-02
  14.010  0.429E-02  0.743E-05  0.214E-02  0.214E-02
  14.020  0.429E-02  0.864E-05  0.214E-02  0.214E-02
  14.030  0.428E-02  0.980E-05  0.214E-02  0.214E-02
  14.040  0.423E-02  0.107E-04  0.211E-02  0.211E-02
  14.050  0.409E-02  0.112E-04  0.204E-02  0.204E-02
  14.060  0.383E-02  0.112E-04  0.191E-02  0.191E-02
  14.070  0.344E-02  0.105E-04  0.172E-02  0.172E-02
  14.080  0.296E-02  0.920E-05  0.148E-02  0.148E-02
  14.090  0.244E-02  0.750E-05  0.122E-02  0.122E-02
  14.100  0.194E-02  0.558E-05  0.969E-03  0.969E-03
  14.110  0.157E-02  0.370E-05  0.782E-03  0.782E-03
  14.120  0.140E-02  0.208E-05  0.697E-03  0.697E-03
  14.130  0.150E-02  0.892E-06  0.751E-03  0.751E-03
  14.140  0.193E-02  0.206E-06  0.967E-03  0.967E-03
  14.150  0.270E-02  0.194E-07  0.135E-02  0.135E-02
  14.160  0.376E-02  0.258E-06  0.188E-02  0.188E-02
  14.170  0.505E-02  0.803E-06  0.252E-02  0.252E-02
  14.180  0.644E-02  0.152E-05  0.322E-02  0.322E-02
  14.190  0.778E-02  0.228E-05  0.389E-02  0.389E-02
  14.200  0.892E-02  0.297E-05  0.446E-02  0.446E-02
  14.210  0.970E-02  0.351E-05  0.485E-02  0.485E-02
  14.220  0.100E-01  0.386E-05  0.501E-02  0.501E-02
  14.230  0.983E-02  0.401E-05  0.491E-02  0.491E-02
  14.240  0.916E-02  0.395E-05  0.458E-02  0.458E-02
  14.250  0.809E-02  0.372E-05  0.404E-02  0.404E-02
  14.260  0.676E-02  0.337E-05  0.338E-02  0.338E-02
  14.270  0.531E-02  0.292E-05  0.265E-02  0.265E-02
  14.280  0.388E-02  0.243E-05  0.194E-02  0.194E-02
  14.290  0.259E-02  0.192E-05  0.129E-02  0.129E-02
  14.300  0.150E-02  0.142E-05  0.751E-03  0.751E-03
  14.310  0.650E-03  0.955E-06  0.325E-03  0.325E-03
  14.320  0.293E-04  0.545E-06  0.144E-04  0.144E-04
  14.330 -0.383E-03  0.206E-06 -0.191E-03 -0.191E-03
  14.340 -0.620E-03 -0.519E-07 -0.310E-03 -0.310E-03
  14.350 -0.720E-03 -0.226E-06 -0.360E-03 -0.360E-03
  14.360 -0.721E-03 -0.322E-06 -0.360E-03 -0.360E-03
  14.370 -0.657E-03 -0.354E-06 -0.328E-03 -0.328E-03
  14.380 -0.557E-03 -0.338E-06 -0.278E-03 -0.278E-03
  14.390 -0.444E-03 -0.292E-06 -0.222E-03 -0.222E-03
  14.400 -0.335E-03 -0.234E-06 -0.167E-03 -0.167E-03
  14.410 -0.240E-03 -0.175E-06 -0.120E-03 -0.120E-03
  14.420 -0.163E-03 -0.123E-06 -0.815E-04 -0.815E-04
  14.430 -0.106E-03 -0.817E-07 -0.528E-04 -0.528E-04
  14.440 -0.651E-04 -0.514E-07 -0.325E-04 -0.325E-04
  14.450 -0.383E-04 -0.306E-07 -0.191E-04 -0.191E-04
  14.460 -0.214E-04 -0.174E-07 -0.107E-04 -0.107E-04
