#  E (eV)   dos(E)     Int dos(E) EFermi =   -1.133 eV
 -10.000  0.4647E+00  0.4647E-02
  -9.990  0.4640E+00  0.9287E-02
  -9.980  0.4633E+00  0.1392E-01
  -9.970  0.4625E+00  0.1854E-01
  -9.960  0.4618E+00  0.2316E-01
  -9.950  0.4614E+00  0.2778E-01
  -9.940  0.4612E+00  0.3239E-01
  -9.930  0.4615E+00  0.3700E-01
  -9.920  0.4622E+00  0.4163E-01
  -9.910  0.4634E+00  0.4626E-01
  -9.900  0.4651E+00  0.5091E-01
  -9.890  0.4671E+00  0.5558E-01
  -9.880  0.4694E+00  0.6028E-01
  -9.870  0.4718E+00  0.6499E-01
  -9.860  0.4742E+00  0.6974E-01
  -9.850  0.4765E+00  0.7450E-01
  -9.840  0.4784E+00  0.7928E-01
  -9.830  0.4800E+00  0.8408E-01
  -9.820  0.4811E+00  0.8890E-01
  -9.810  0.4816E+00  0.9371E-01
  -9.800  0.4816E+00  0.9853E-01
  -9.790  0.4810E+00  0.1033E+00
  -9.780  0.4799E+00  0.1081E+00
  -9.770  0.4784E+00  0.1129E+00
  -9.760  0.4767E+00  0.1177E+00
  -9.750  0.4749E+00  0.1224E+00
  -9.740  0.4731E+00  0.1272E+00
  -9.730  0.4716E+00  0.1319E+00
  -9.720  0.4704E+00  0.1366E+00
  -9.710  0.4696E+00  0.1413E+00
  -9.700  0.4694E+00  0.1460E+00
  -9.690  0.4698E+00  0.1507E+00
  -9.680  0.4707E+00  0.1554E+00
  -9.670  0.4723E+00  0.1601E+00
  -9.660  0.4743E+00  0.1648E+00
  -9.650  0.4768E+00  0.1696E+00
  -9.640  0.4796E+00  0.1744E+00
  -9.630  0.4826E+00  0.1792E+00
  -9.620  0.4857E+00  0.1841E+00
  -9.610  0.4886E+00  0.1890E+00
  -9.600  0.4914E+00  0.1939E+00
  -9.590  0.4938E+00  0.1988E+00
  -9.580  0.4959E+00  0.2038E+00
  -9.570  0.4974E+00  0.2088E+00
  -9.560  0.4985E+00  0.2138E+00
  -9.550  0.4991E+00  0.2187E+00
  -9.540  0.4992E+00  0.2237E+00
  -9.530  0.4989E+00  0.2287E+00
  -9.520  0.4981E+00  0.2337E+00
  -9.510  0.4971E+00  0.2387E+00
  -9.500  0.4957E+00  0.2436E+00
  -9.490  0.4942E+00  0.2486E+00
  -9.480  0.4927E+00  0.2535E+00
  -9.470  0.4911E+00  0.2584E+00
  -9.460  0.4896E+00  0.2633E+00
  -9.450  0.4884E+00  0.2682E+00
  -9.440  0.4874E+00  0.2731E+00
  -9.430  0.4867E+00  0.2779E+00
  -9.420  0.4864E+00  0.2828E+00
  -9.410  0.4865E+00  0.2877E+00
  -9.400  0.4871E+00  0.2925E+00
  -9.390  0.4883E+00  0.2974E+00
  -9.380  0.4899E+00  0.3023E+00
  -9.370  0.4920E+00  0.3072E+00
  -9.360  0.4946E+00  0.3122E+00
  -9.350  0.4976E+00  0.3172E+00
  -9.340  0.5010E+00  0.3222E+00
  -9.330  0.5046E+00  0.3272E+00
  -9.320  0.5083E+00  0.3323E+00
  -9.310  0.5120E+00  0.3374E+00
  -9.300  0.5156E+00  0.3426E+00
  -9.290  0.5189E+00  0.3478E+00
  -9.280  0.5217E+00  0.3530E+00
  -9.270  0.5240E+00  0.3582E+00
  -9.260  0.5256E+00  0.3635E+00
  -9.250  0.5265E+00  0.3687E+00
  -9.240  0.5266E+00  0.3740E+00
  -9.230  0.5259E+00  0.3793E+00
  -9.220  0.5245E+00  0.3845E+00
  -9.210  0.5224E+00  0.3897E+00
  -9.200  0.5197E+00  0.3949E+00
  -9.190  0.5167E+00  0.4001E+00
  -9.180  0.5136E+00  0.4052E+00
  -9.170  0.5105E+00  0.4103E+00
  -9.160  0.5076E+00  0.4154E+00
  -9.150  0.5053E+00  0.4205E+00
  -9.140  0.5037E+00  0.4255E+00
  -9.130  0.5029E+00  0.4305E+00
  -9.120  0.5031E+00  0.4356E+00
  -9.110  0.5045E+00  0.4406E+00
  -9.100  0.5070E+00  0.4457E+00
  -9.090  0.5105E+00  0.4508E+00
  -9.080  0.5151E+00  0.4559E+00
  -9.070  0.5206E+00  0.4611E+00
  -9.060  0.5268E+00  0.4664E+00
  -9.050  0.5336E+00  0.4717E+00
  -9.040  0.5406E+00  0.4772E+00
  -9.030  0.5477E+00  0.4826E+00
  -9.020  0.5547E+00  0.4882E+00
  -9.010  0.5613E+00  0.4938E+00
  -9.000  0.5675E+00  0.4995E+00
  -8.990  0.5732E+00  0.5052E+00
  -8.980  0.5783E+00  0.5110E+00
  -8.970  0.5829E+00  0.5168E+00
  -8.960  0.5871E+00  0.5227E+00
  -8.950  0.5910E+00  0.5286E+00
  -8.940  0.5949E+00  0.5345E+00
  -8.930  0.5989E+00  0.5405E+00
  -8.920  0.6034E+00  0.5466E+00
  -8.910  0.6086E+00  0.5526E+00
  -8.900  0.6147E+00  0.5588E+00
  -8.890  0.6218E+00  0.5650E+00
  -8.880  0.6303E+00  0.5713E+00
  -8.870  0.6400E+00  0.5777E+00
  -8.860  0.6510E+00  0.5842E+00
  -8.850  0.6634E+00  0.5909E+00
  -8.840  0.6768E+00  0.5976E+00
  -8.830  0.6911E+00  0.6045E+00
  -8.820  0.7061E+00  0.6116E+00
  -8.810  0.7215E+00  0.6188E+00
  -8.800  0.7369E+00  0.6262E+00
  -8.790  0.7521E+00  0.6337E+00
  -8.780  0.7668E+00  0.6414E+00
  -8.770  0.7807E+00  0.6492E+00
  -8.760  0.7936E+00  0.6571E+00
  -8.750  0.8052E+00  0.6652E+00
  -8.740  0.8156E+00  0.6733E+00
  -8.730  0.8247E+00  0.6816E+00
  -8.720  0.8324E+00  0.6899E+00
  -8.710  0.8389E+00  0.6983E+00
  -8.700  0.8443E+00  0.7067E+00
  -8.690  0.8487E+00  0.7152E+00
  -8.680  0.8523E+00  0.7237E+00
  -8.670  0.8553E+00  0.7323E+00
  -8.660  0.8579E+00  0.7409E+00
  -8.650  0.8602E+00  0.7495E+00
  -8.640  0.8624E+00  0.7581E+00
  -8.630  0.8645E+00  0.7667E+00
  -8.620  0.8667E+00  0.7754E+00
  -8.610  0.8689E+00  0.7841E+00
  -8.600  0.8712E+00  0.7928E+00
  -8.590  0.8736E+00  0.8015E+00
  -8.580  0.8759E+00  0.8103E+00
  -8.570  0.8780E+00  0.8191E+00
  -8.560  0.8801E+00  0.8279E+00
  -8.550  0.8819E+00  0.8367E+00
  -8.540  0.8834E+00  0.8455E+00
  -8.530  0.8847E+00  0.8544E+00
  -8.520  0.8857E+00  0.8632E+00
  -8.510  0.8865E+00  0.8721E+00
  -8.500  0.8872E+00  0.8810E+00
  -8.490  0.8880E+00  0.8899E+00
  -8.480  0.8888E+00  0.8987E+00
  -8.470  0.8900E+00  0.9076E+00
  -8.460  0.8916E+00  0.9166E+00
  -8.450  0.8937E+00  0.9255E+00
  -8.440  0.8964E+00  0.9345E+00
  -8.430  0.8998E+00  0.9435E+00
  -8.420  0.9039E+00  0.9525E+00
  -8.410  0.9086E+00  0.9616E+00
  -8.400  0.9139E+00  0.9707E+00
  -8.390  0.9196E+00  0.9799E+00
  -8.380  0.9256E+00  0.9892E+00
  -8.370  0.9316E+00  0.9985E+00
  -8.360  0.9375E+00  0.1008E+01
  -8.350  0.9430E+00  0.1017E+01
  -8.340  0.9481E+00  0.1027E+01
  -8.330  0.9525E+00  0.1036E+01
  -8.320  0.9561E+00  0.1046E+01
  -8.310  0.9588E+00  0.1055E+01
  -8.300  0.9608E+00  0.1065E+01
  -8.290  0.9620E+00  0.1075E+01
  -8.280  0.9625E+00  0.1084E+01
  -8.270  0.9626E+00  0.1094E+01
  -8.260  0.9623E+00  0.1104E+01
  -8.250  0.9620E+00  0.1113E+01
  -8.240  0.9619E+00  0.1123E+01
  -8.230  0.9621E+00  0.1132E+01
  -8.220  0.9629E+00  0.1142E+01
  -8.210  0.9645E+00  0.1152E+01
  -8.200  0.9669E+00  0.1161E+01
  -8.190  0.9703E+00  0.1171E+01
  -8.180  0.9746E+00  0.1181E+01
  -8.170  0.9800E+00  0.1191E+01
  -8.160  0.9861E+00  0.1200E+01
  -8.150  0.9931E+00  0.1210E+01
  -8.140  0.1001E+01  0.1220E+01
  -8.130  0.1009E+01  0.1230E+01
  -8.120  0.1017E+01  0.1241E+01
  -8.110  0.1025E+01  0.1251E+01
  -8.100  0.1034E+01  0.1261E+01
  -8.090  0.1042E+01  0.1272E+01
  -8.080  0.1051E+01  0.1282E+01
  -8.070  0.1059E+01  0.1293E+01
  -8.060  0.1067E+01  0.1303E+01
  -8.050  0.1075E+01  0.1314E+01
  -8.040  0.1082E+01  0.1325E+01
  -8.030  0.1090E+01  0.1336E+01
  -8.020  0.1098E+01  0.1347E+01
  -8.010  0.1106E+01  0.1358E+01
  -8.000  0.1115E+01  0.1369E+01
  -7.990  0.1124E+01  0.1380E+01
  -7.980  0.1134E+01  0.1392E+01
  -7.970  0.1144E+01  0.1403E+01
  -7.960  0.1155E+01  0.1415E+01
  -7.950  0.1166E+01  0.1426E+01
  -7.940  0.1178E+01  0.1438E+01
  -7.930  0.1190E+01  0.1450E+01
  -7.920  0.1202E+01  0.1462E+01
  -7.910  0.1215E+01  0.1474E+01
  -7.900  0.1227E+01  0.1486E+01
  -7.890  0.1240E+01  0.1499E+01
  -7.880  0.1252E+01  0.1511E+01
  -7.870  0.1263E+01  0.1524E+01
  -7.860  0.1274E+01  0.1537E+01
  -7.850  0.1284E+01  0.1550E+01
  -7.840  0.1293E+01  0.1563E+01
  -7.830  0.1301E+01  0.1576E+01
  -7.820  0.1307E+01  0.1589E+01
  -7.810  0.1312E+01  0.1602E+01
  -7.800  0.1316E+01  0.1615E+01
  -7.790  0.1319E+01  0.1628E+01
  -7.780  0.1320E+01  0.1641E+01
  -7.770  0.1319E+01  0.1654E+01
  -7.760  0.1317E+01  0.1668E+01
  -7.750  0.1313E+01  0.1681E+01
  -7.740  0.1308E+01  0.1694E+01
  -7.730  0.1302E+01  0.1707E+01
  -7.720  0.1294E+01  0.1720E+01
  -7.710  0.1285E+01  0.1733E+01
  -7.700  0.1275E+01  0.1745E+01
  -7.690  0.1264E+01  0.1758E+01
  -7.680  0.1252E+01  0.1771E+01
  -7.670  0.1239E+01  0.1783E+01
  -7.660  0.1225E+01  0.1795E+01
  -7.650  0.1211E+01  0.1807E+01
  -7.640  0.1196E+01  0.1819E+01
  -7.630  0.1181E+01  0.1831E+01
  -7.620  0.1166E+01  0.1843E+01
  -7.610  0.1151E+01  0.1854E+01
  -7.600  0.1136E+01  0.1866E+01
  -7.590  0.1121E+01  0.1877E+01
  -7.580  0.1107E+01  0.1888E+01
  -7.570  0.1093E+01  0.1899E+01
  -7.560  0.1080E+01  0.1910E+01
  -7.550  0.1068E+01  0.1920E+01
  -7.540  0.1056E+01  0.1931E+01
  -7.530  0.1046E+01  0.1941E+01
  -7.520  0.1036E+01  0.1952E+01
  -7.510  0.1027E+01  0.1962E+01
  -7.500  0.1019E+01  0.1972E+01
  -7.490  0.1013E+01  0.1982E+01
  -7.480  0.1007E+01  0.1992E+01
  -7.470  0.1002E+01  0.2002E+01
  -7.460  0.9977E+00  0.2012E+01
  -7.450  0.9942E+00  0.2022E+01
  -7.440  0.9913E+00  0.2032E+01
  -7.430  0.9888E+00  0.2042E+01
  -7.420  0.9865E+00  0.2052E+01
  -7.410  0.9843E+00  0.2062E+01
  -7.400  0.9820E+00  0.2072E+01
  -7.390  0.9794E+00  0.2081E+01
  -7.380  0.9765E+00  0.2091E+01
  -7.370  0.9731E+00  0.2101E+01
  -7.360  0.9691E+00  0.2111E+01
  -7.350  0.9646E+00  0.2120E+01
  -7.340  0.9594E+00  0.2130E+01
  -7.330  0.9538E+00  0.2139E+01
  -7.320  0.9476E+00  0.2149E+01
  -7.310  0.9411E+00  0.2158E+01
  -7.300  0.9344E+00  0.2168E+01
  -7.290  0.9275E+00  0.2177E+01
  -7.280  0.9208E+00  0.2186E+01
  -7.270  0.9143E+00  0.2195E+01
  -7.260  0.9082E+00  0.2204E+01
  -7.250  0.9025E+00  0.2213E+01
  -7.240  0.8975E+00  0.2222E+01
  -7.230  0.8930E+00  0.2231E+01
  -7.220  0.8893E+00  0.2240E+01
  -7.210  0.8862E+00  0.2249E+01
  -7.200  0.8837E+00  0.2258E+01
  -7.190  0.8817E+00  0.2267E+01
  -7.180  0.8802E+00  0.2275E+01
  -7.170  0.8789E+00  0.2284E+01
  -7.160  0.8779E+00  0.2293E+01
  -7.150  0.8769E+00  0.2302E+01
  -7.140  0.8760E+00  0.2311E+01
  -7.130  0.8748E+00  0.2319E+01
  -7.120  0.8735E+00  0.2328E+01
  -7.110  0.8720E+00  0.2337E+01
  -7.100  0.8702E+00  0.2345E+01
  -7.090  0.8682E+00  0.2354E+01
  -7.080  0.8660E+00  0.2363E+01
  -7.070  0.8637E+00  0.2371E+01
  -7.060  0.8612E+00  0.2380E+01
  -7.050  0.8587E+00  0.2389E+01
  -7.040  0.8562E+00  0.2397E+01
  -7.030  0.8538E+00  0.2406E+01
  -7.020  0.8515E+00  0.2414E+01
  -7.010  0.8492E+00  0.2423E+01
  -7.000  0.8470E+00  0.2431E+01
  -6.990  0.8449E+00  0.2440E+01
  -6.980  0.8427E+00  0.2448E+01
  -6.970  0.8404E+00  0.2457E+01
  -6.960  0.8381E+00  0.2465E+01
  -6.950  0.8355E+00  0.2473E+01
  -6.940  0.8328E+00  0.2482E+01
  -6.930  0.8298E+00  0.2490E+01
  -6.920  0.8265E+00  0.2498E+01
  -6.910  0.8230E+00  0.2506E+01
  -6.900  0.8194E+00  0.2515E+01
  -6.890  0.8156E+00  0.2523E+01
  -6.880  0.8118E+00  0.2531E+01
  -6.870  0.8081E+00  0.2539E+01
  -6.860  0.8046E+00  0.2547E+01
  -6.850  0.8014E+00  0.2555E+01
  -6.840  0.7986E+00  0.2563E+01
  -6.830  0.7964E+00  0.2571E+01
  -6.820  0.7948E+00  0.2579E+01
  -6.810  0.7939E+00  0.2587E+01
  -6.800  0.7936E+00  0.2595E+01
  -6.790  0.7940E+00  0.2603E+01
  -6.780  0.7948E+00  0.2611E+01
  -6.770  0.7962E+00  0.2619E+01
  -6.760  0.7978E+00  0.2627E+01
  -6.750  0.7996E+00  0.2635E+01
  -6.740  0.8012E+00  0.2643E+01
  -6.730  0.8027E+00  0.2651E+01
  -6.720  0.8036E+00  0.2659E+01
  -6.710  0.8039E+00  0.2667E+01
  -6.700  0.8035E+00  0.2675E+01
  -6.690  0.8021E+00  0.2683E+01
  -6.680  0.7998E+00  0.2691E+01
  -6.670  0.7966E+00  0.2699E+01
  -6.660  0.7925E+00  0.2707E+01
  -6.650  0.7877E+00  0.2714E+01
  -6.640  0.7824E+00  0.2722E+01
  -6.630  0.7767E+00  0.2730E+01
  -6.620  0.7710E+00  0.2738E+01
  -6.610  0.7655E+00  0.2745E+01
  -6.600  0.7605E+00  0.2753E+01
  -6.590  0.7562E+00  0.2761E+01
  -6.580  0.7529E+00  0.2768E+01
  -6.570  0.7506E+00  0.2776E+01
  -6.560  0.7494E+00  0.2783E+01
  -6.550  0.7494E+00  0.2791E+01
  -6.540  0.7505E+00  0.2798E+01
  -6.530  0.7525E+00  0.2806E+01
  -6.520  0.7551E+00  0.2813E+01
  -6.510  0.7582E+00  0.2821E+01
  -6.500  0.7614E+00  0.2828E+01
  -6.490  0.7644E+00  0.2836E+01
  -6.480  0.7671E+00  0.2844E+01
  -6.470  0.7691E+00  0.2851E+01
  -6.460  0.7702E+00  0.2859E+01
  -6.450  0.7703E+00  0.2867E+01
  -6.440  0.7694E+00  0.2875E+01
  -6.430  0.7675E+00  0.2882E+01
  -6.420  0.7647E+00  0.2890E+01
  -6.410  0.7611E+00  0.2897E+01
  -6.400  0.7570E+00  0.2905E+01
  -6.390  0.7526E+00  0.2913E+01
  -6.380  0.7481E+00  0.2920E+01
  -6.370  0.7438E+00  0.2927E+01
  -6.360  0.7399E+00  0.2935E+01
  -6.350  0.7365E+00  0.2942E+01
  -6.340  0.7339E+00  0.2950E+01
  -6.330  0.7319E+00  0.2957E+01
  -6.320  0.7307E+00  0.2964E+01
  -6.310  0.7302E+00  0.2972E+01
  -6.300  0.7304E+00  0.2979E+01
  -6.290  0.7310E+00  0.2986E+01
  -6.280  0.7319E+00  0.2993E+01
  -6.270  0.7331E+00  0.3001E+01
  -6.260  0.7343E+00  0.3008E+01
  -6.250  0.7355E+00  0.3015E+01
  -6.240  0.7364E+00  0.3023E+01
  -6.230  0.7370E+00  0.3030E+01
  -6.220  0.7374E+00  0.3038E+01
  -6.210  0.7373E+00  0.3045E+01
  -6.200  0.7369E+00  0.3052E+01
  -6.190  0.7361E+00  0.3060E+01
  -6.180  0.7351E+00  0.3067E+01
  -6.170  0.7338E+00  0.3074E+01
  -6.160  0.7323E+00  0.3082E+01
  -6.150  0.7307E+00  0.3089E+01
  -6.140  0.7290E+00  0.3096E+01
  -6.130  0.7273E+00  0.3104E+01
  -6.120  0.7256E+00  0.3111E+01
  -6.110  0.7239E+00  0.3118E+01
  -6.100  0.7223E+00  0.3125E+01
  -6.090  0.7209E+00  0.3132E+01
  -6.080  0.7196E+00  0.3140E+01
  -6.070  0.7185E+00  0.3147E+01
  -6.060  0.7175E+00  0.3154E+01
  -6.050  0.7169E+00  0.3161E+01
  -6.040  0.7165E+00  0.3168E+01
  -6.030  0.7163E+00  0.3176E+01
  -6.020  0.7164E+00  0.3183E+01
  -6.010  0.7167E+00  0.3190E+01
  -6.000  0.7172E+00  0.3197E+01
  -5.990  0.7178E+00  0.3204E+01
  -5.980  0.7184E+00  0.3211E+01
  -5.970  0.7190E+00  0.3219E+01
  -5.960  0.7195E+00  0.3226E+01
  -5.950  0.7198E+00  0.3233E+01
  -5.940  0.7198E+00  0.3240E+01
  -5.930  0.7195E+00  0.3247E+01
  -5.920  0.7188E+00  0.3255E+01
  -5.910  0.7178E+00  0.3262E+01
  -5.900  0.7164E+00  0.3269E+01
  -5.890  0.7148E+00  0.3276E+01
  -5.880  0.7129E+00  0.3283E+01
  -5.870  0.7110E+00  0.3290E+01
  -5.860  0.7091E+00  0.3297E+01
  -5.850  0.7074E+00  0.3304E+01
  -5.840  0.7059E+00  0.3312E+01
  -5.830  0.7047E+00  0.3319E+01
  -5.820  0.7040E+00  0.3326E+01
  -5.810  0.7037E+00  0.3333E+01
  -5.800  0.7040E+00  0.3340E+01
  -5.790  0.7047E+00  0.3347E+01
  -5.780  0.7058E+00  0.3354E+01
  -5.770  0.7072E+00  0.3361E+01
  -5.760  0.7088E+00  0.3368E+01
  -5.750  0.7105E+00  0.3375E+01
  -5.740  0.7121E+00  0.3382E+01
  -5.730  0.7135E+00  0.3389E+01
  -5.720  0.7147E+00  0.3396E+01
  -5.710  0.7154E+00  0.3404E+01
  -5.700  0.7157E+00  0.3411E+01
  -5.690  0.7155E+00  0.3418E+01
  -5.680  0.7148E+00  0.3425E+01
  -5.670  0.7136E+00  0.3432E+01
  -5.660  0.7121E+00  0.3439E+01
  -5.650  0.7102E+00  0.3446E+01
  -5.640  0.7081E+00  0.3454E+01
  -5.630  0.7060E+00  0.3461E+01
  -5.620  0.7039E+00  0.3468E+01
  -5.610  0.7021E+00  0.3475E+01
  -5.600  0.7005E+00  0.3482E+01
  -5.590  0.6994E+00  0.3489E+01
  -5.580  0.6988E+00  0.3496E+01
  -5.570  0.6988E+00  0.3503E+01
  -5.560  0.6993E+00  0.3510E+01
  -5.550  0.7004E+00  0.3517E+01
  -5.540  0.7019E+00  0.3524E+01
  -5.530  0.7039E+00  0.3531E+01
  -5.520  0.7062E+00  0.3538E+01
  -5.510  0.7087E+00  0.3545E+01
  -5.500  0.7113E+00  0.3552E+01
  -5.490  0.7137E+00  0.3559E+01
  -5.480  0.7158E+00  0.3566E+01
  -5.470  0.7176E+00  0.3573E+01
  -5.460  0.7190E+00  0.3581E+01
  -5.450  0.7197E+00  0.3588E+01
  -5.440  0.7199E+00  0.3595E+01
  -5.430  0.7195E+00  0.3602E+01
  -5.420  0.7185E+00  0.3609E+01
  -5.410  0.7171E+00  0.3617E+01
  -5.400  0.7153E+00  0.3624E+01
  -5.390  0.7133E+00  0.3631E+01
  -5.380  0.7112E+00  0.3638E+01
  -5.370  0.7092E+00  0.3645E+01
  -5.360  0.7075E+00  0.3652E+01
  -5.350  0.7061E+00  0.3659E+01
  -5.340  0.7053E+00  0.3666E+01
  -5.330  0.7051E+00  0.3673E+01
  -5.320  0.7056E+00  0.3680E+01
  -5.310  0.7067E+00  0.3687E+01
  -5.300  0.7084E+00  0.3694E+01
  -5.290  0.7106E+00  0.3702E+01
  -5.280  0.7133E+00  0.3709E+01
  -5.270  0.7162E+00  0.3716E+01
  -5.260  0.7191E+00  0.3723E+01
  -5.250  0.7220E+00  0.3730E+01
  -5.240  0.7245E+00  0.3738E+01
  -5.230  0.7266E+00  0.3745E+01
  -5.220  0.7281E+00  0.3752E+01
  -5.210  0.7287E+00  0.3759E+01
  -5.200  0.7285E+00  0.3767E+01
  -5.190  0.7273E+00  0.3774E+01
  -5.180  0.7252E+00  0.3781E+01
  -5.170  0.7220E+00  0.3788E+01
  -5.160  0.7180E+00  0.3796E+01
  -5.150  0.7130E+00  0.3803E+01
  -5.140  0.7073E+00  0.3810E+01
  -5.130  0.7010E+00  0.3817E+01
  -5.120  0.6942E+00  0.3824E+01
  -5.110  0.6870E+00  0.3831E+01
  -5.100  0.6795E+00  0.3837E+01
  -5.090  0.6720E+00  0.3844E+01
  -5.080  0.6644E+00  0.3851E+01
  -5.070  0.6570E+00  0.3857E+01
  -5.060  0.6497E+00  0.3864E+01
  -5.050  0.6426E+00  0.3870E+01
  -5.040  0.6356E+00  0.3877E+01
  -5.030  0.6289E+00  0.3883E+01
  -5.020  0.6224E+00  0.3889E+01
  -5.010  0.6161E+00  0.3895E+01
  -5.000  0.6098E+00  0.3901E+01
  -4.990  0.6036E+00  0.3907E+01
  -4.980  0.5975E+00  0.3913E+01
  -4.970  0.5914E+00  0.3919E+01
  -4.960  0.5854E+00  0.3925E+01
  -4.950  0.5794E+00  0.3931E+01
  -4.940  0.5735E+00  0.3937E+01
  -4.930  0.5679E+00  0.3942E+01
  -4.920  0.5625E+00  0.3948E+01
  -4.910  0.5576E+00  0.3954E+01
  -4.900  0.5532E+00  0.3959E+01
  -4.890  0.5496E+00  0.3965E+01
  -4.880  0.5468E+00  0.3970E+01
  -4.870  0.5450E+00  0.3976E+01
  -4.860  0.5443E+00  0.3981E+01
  -4.850  0.5449E+00  0.3986E+01
  -4.840  0.5468E+00  0.3992E+01
  -4.830  0.5499E+00  0.3997E+01
  -4.820  0.5544E+00  0.4003E+01
  -4.810  0.5600E+00  0.4009E+01
  -4.800  0.5669E+00  0.4014E+01
  -4.790  0.5747E+00  0.4020E+01
  -4.780  0.5834E+00  0.4026E+01
  -4.770  0.5928E+00  0.4032E+01
  -4.760  0.6028E+00  0.4038E+01
  -4.750  0.6131E+00  0.4044E+01
  -4.740  0.6235E+00  0.4050E+01
  -4.730  0.6341E+00  0.4056E+01
  -4.720  0.6446E+00  0.4063E+01
  -4.710  0.6550E+00  0.4069E+01
  -4.700  0.6653E+00  0.4076E+01
  -4.690  0.6754E+00  0.4083E+01
  -4.680  0.6854E+00  0.4090E+01
  -4.670  0.6954E+00  0.4097E+01
  -4.660  0.7055E+00  0.4104E+01
  -4.650  0.7155E+00  0.4111E+01
  -4.640  0.7257E+00  0.4118E+01
  -4.630  0.7360E+00  0.4125E+01
  -4.620  0.7465E+00  0.4133E+01
  -4.610  0.7569E+00  0.4141E+01
  -4.600  0.7672E+00  0.4148E+01
  -4.590  0.7773E+00  0.4156E+01
  -4.580  0.7868E+00  0.4164E+01
  -4.570  0.7956E+00  0.4172E+01
  -4.560  0.8033E+00  0.4180E+01
  -4.550  0.8097E+00  0.4188E+01
  -4.540  0.8144E+00  0.4196E+01
  -4.530  0.8173E+00  0.4204E+01
  -4.520  0.8181E+00  0.4212E+01
  -4.510  0.8168E+00  0.4221E+01
  -4.500  0.8131E+00  0.4229E+01
  -4.490  0.8073E+00  0.4237E+01
  -4.480  0.7993E+00  0.4245E+01
  -4.470  0.7895E+00  0.4253E+01
  -4.460  0.7779E+00  0.4260E+01
  -4.450  0.7650E+00  0.4268E+01
  -4.440  0.7511E+00  0.4276E+01
  -4.430  0.7366E+00  0.4283E+01
  -4.420  0.7217E+00  0.4290E+01
  -4.410  0.7068E+00  0.4297E+01
  -4.400  0.6921E+00  0.4304E+01
  -4.390  0.6779E+00  0.4311E+01
  -4.380  0.6644E+00  0.4318E+01
  -4.370  0.6515E+00  0.4324E+01
  -4.360  0.6393E+00  0.4331E+01
  -4.350  0.6277E+00  0.4337E+01
  -4.340  0.6168E+00  0.4343E+01
  -4.330  0.6064E+00  0.4349E+01
  -4.320  0.5963E+00  0.4355E+01
  -4.310  0.5866E+00  0.4361E+01
  -4.300  0.5771E+00  0.4367E+01
  -4.290  0.5677E+00  0.4372E+01
  -4.280  0.5585E+00  0.4378E+01
  -4.270  0.5494E+00  0.4383E+01
  -4.260  0.5405E+00  0.4389E+01
  -4.250  0.5318E+00  0.4394E+01
  -4.240  0.5233E+00  0.4399E+01
  -4.230  0.5152E+00  0.4404E+01
  -4.220  0.5075E+00  0.4410E+01
  -4.210  0.5003E+00  0.4415E+01
  -4.200  0.4934E+00  0.4419E+01
  -4.190  0.4871E+00  0.4424E+01
  -4.180  0.4811E+00  0.4429E+01
  -4.170  0.4756E+00  0.4434E+01
  -4.160  0.4704E+00  0.4439E+01
  -4.150  0.4655E+00  0.4443E+01
  -4.140  0.4608E+00  0.4448E+01
  -4.130  0.4562E+00  0.4452E+01
  -4.120  0.4517E+00  0.4457E+01
  -4.110  0.4472E+00  0.4461E+01
  -4.100  0.4427E+00  0.4466E+01
  -4.090  0.4382E+00  0.4470E+01
  -4.080  0.4337E+00  0.4475E+01
  -4.070  0.4292E+00  0.4479E+01
  -4.060  0.4248E+00  0.4483E+01
  -4.050  0.4204E+00  0.4487E+01
  -4.040  0.4161E+00  0.4491E+01
  -4.030  0.4119E+00  0.4496E+01
  -4.020  0.4078E+00  0.4500E+01
  -4.010  0.4038E+00  0.4504E+01
  -4.000  0.4000E+00  0.4508E+01
  -3.990  0.3963E+00  0.4512E+01
  -3.980  0.3928E+00  0.4516E+01
  -3.970  0.3893E+00  0.4520E+01
  -3.960  0.3859E+00  0.4523E+01
  -3.950  0.3826E+00  0.4527E+01
  -3.940  0.3793E+00  0.4531E+01
  -3.930  0.3760E+00  0.4535E+01
  -3.920  0.3727E+00  0.4538E+01
  -3.910  0.3694E+00  0.4542E+01
  -3.900  0.3661E+00  0.4546E+01
  -3.890  0.3627E+00  0.4549E+01
  -3.880  0.3593E+00  0.4553E+01
  -3.870  0.3558E+00  0.4557E+01
  -3.860  0.3521E+00  0.4560E+01
  -3.850  0.3484E+00  0.4564E+01
  -3.840  0.3445E+00  0.4567E+01
  -3.830  0.3403E+00  0.4570E+01
  -3.820  0.3359E+00  0.4574E+01
  -3.810  0.3312E+00  0.4577E+01
  -3.800  0.3262E+00  0.4580E+01
  -3.790  0.3207E+00  0.4584E+01
  -3.780  0.3147E+00  0.4587E+01
  -3.770  0.3082E+00  0.4590E+01
  -3.760  0.3010E+00  0.4593E+01
  -3.750  0.2933E+00  0.4596E+01
  -3.740  0.2848E+00  0.4599E+01
  -3.730  0.2757E+00  0.4601E+01
  -3.720  0.2659E+00  0.4604E+01
  -3.710  0.2554E+00  0.4607E+01
  -3.700  0.2442E+00  0.4609E+01
  -3.690  0.2325E+00  0.4611E+01
  -3.680  0.2202E+00  0.4614E+01
  -3.670  0.2074E+00  0.4616E+01
  -3.660  0.1943E+00  0.4618E+01
  -3.650  0.1809E+00  0.4619E+01
  -3.640  0.1674E+00  0.4621E+01
  -3.630  0.1539E+00  0.4623E+01
  -3.620  0.1405E+00  0.4624E+01
  -3.610  0.1274E+00  0.4625E+01
  -3.600  0.1147E+00  0.4626E+01
  -3.590  0.1025E+00  0.4627E+01
  -3.580  0.9092E-01  0.4628E+01
  -3.570  0.7999E-01  0.4629E+01
  -3.560  0.6982E-01  0.4630E+01
  -3.550  0.6044E-01  0.4630E+01
  -3.540  0.5189E-01  0.4631E+01
  -3.530  0.4416E-01  0.4631E+01
  -3.520  0.3727E-01  0.4632E+01
  -3.510  0.3117E-01  0.4632E+01
  -3.500  0.2585E-01  0.4632E+01
  -3.490  0.2124E-01  0.4633E+01
  -3.480  0.1729E-01  0.4633E+01
  -3.470  0.1395E-01  0.4633E+01
  -3.460  0.1115E-01  0.4633E+01
  -3.450  0.8829E-02  0.4633E+01
  -3.440  0.6925E-02  0.4633E+01
  -3.430  0.5380E-02  0.4633E+01
  -3.420  0.4140E-02  0.4633E+01
  -3.410  0.3155E-02  0.4633E+01
  -3.400  0.2382E-02  0.4633E+01
  -3.390  0.1780E-02  0.4633E+01
  -3.380  0.1317E-02  0.4633E+01
  -3.370  0.9655E-03  0.4633E+01
  -3.360  0.7006E-03  0.4633E+01
  -3.350  0.5033E-03  0.4633E+01
  -3.340  0.3580E-03  0.4633E+01
  -3.330  0.2521E-03  0.4633E+01
  -3.320  0.1757E-03  0.4633E+01
  -3.310  0.1213E-03  0.4633E+01
  -3.300  0.8285E-04  0.4633E+01
  -3.290  0.5603E-04  0.4633E+01
  -3.280  0.3750E-04  0.4633E+01
  -3.270  0.2485E-04  0.4633E+01
  -3.260  0.1630E-04  0.4633E+01
  -3.250  0.1058E-04  0.4633E+01
  -3.240  0.6797E-05  0.4633E+01
  -3.230  0.4322E-05  0.4633E+01
  -3.220  0.2720E-05  0.4633E+01
  -3.210  0.1695E-05  0.4633E+01
  -3.200  0.1045E-05  0.4633E+01
  -3.190  0.6374E-06  0.4633E+01
  -3.180  0.3848E-06  0.4633E+01
  -3.170  0.2300E-06  0.4633E+01
  -3.160  0.1360E-06  0.4633E+01
  -3.150  0.7959E-07  0.4633E+01
  -3.140  0.4609E-07  0.4633E+01
  -3.130  0.2642E-07  0.4633E+01
  -3.120  0.1498E-07  0.4633E+01
  -3.110  0.8409E-08  0.4633E+01
  -3.100  0.4670E-08  0.4633E+01
  -3.090  0.2567E-08  0.4633E+01
  -3.080  0.1396E-08  0.4633E+01
  -3.070  0.7512E-09  0.4633E+01
  -3.060  0.4000E-09  0.4633E+01
  -3.050  0.2108E-09  0.4633E+01
  -3.040  0.1099E-09  0.4633E+01
  -3.030  0.5671E-10  0.4633E+01
  -3.020  0.2895E-10  0.4633E+01
  -3.010  0.1463E-10  0.4633E+01
  -3.000  0.7310E-11  0.4633E+01
  -2.990  0.3616E-11  0.4633E+01
  -2.980  0.1769E-11  0.4633E+01
  -2.970  0.8568E-12  0.4633E+01
  -2.960  0.4105E-12  0.4633E+01
  -2.950  0.1946E-12  0.4633E+01
  -2.940  0.9129E-13  0.4633E+01
  -2.930  0.4237E-13  0.4633E+01
  -2.920  0.1946E-13  0.4633E+01
  -2.910  0.8840E-14  0.4633E+01
  -2.900  0.3974E-14  0.4633E+01
  -2.890  0.1768E-14  0.4633E+01
  -2.880  0.7780E-15  0.4633E+01
  -2.870  0.3388E-15  0.4633E+01
  -2.860  0.1460E-15  0.4633E+01
  -2.850  0.6222E-16  0.4633E+01
  -2.840  0.2624E-16  0.4633E+01
  -2.830  0.1095E-16  0.4633E+01
  -2.820  0.4521E-17  0.4633E+01
  -2.810  0.1847E-17  0.4633E+01
  -2.800  0.7463E-18  0.4633E+01
  -2.790  0.2984E-18  0.4633E+01
  -2.780  0.1181E-18  0.4633E+01
  -2.770  0.4621E-19  0.4633E+01
  -2.760  0.1789E-19  0.4633E+01
  -2.750  0.6856E-20  0.4633E+01
  -2.740  0.2599E-20  0.4633E+01
  -2.730  0.9746E-21  0.4633E+01
  -2.720  0.3616E-21  0.4633E+01
  -2.710  0.1327E-21  0.4633E+01
  -2.700  0.4821E-22  0.4633E+01
  -2.690  0.1732E-22  0.4633E+01
  -2.680  0.6158E-23  0.4633E+01
  -2.670  0.2166E-23  0.4633E+01
  -2.660  0.7537E-24  0.4633E+01
  -2.650  0.2595E-24  0.4633E+01
  -2.640  0.8837E-25  0.4633E+01
  -2.630  0.2978E-25  0.4633E+01
  -2.620  0.9926E-26  0.4633E+01
  -2.610  0.3274E-26  0.4633E+01
  -2.600  0.1068E-26  0.4633E+01
  -2.590  0.3448E-27  0.4633E+01
  -2.580  0.1101E-27  0.4633E+01
  -2.570  0.3479E-28  0.4633E+01
  -2.560  0.1088E-28  0.4633E+01
  -2.550  0.3363E-29  0.4633E+01
  -2.540  0.1029E-29  0.4633E+01
  -2.530  0.3114E-30  0.4633E+01
  -2.520  0.9325E-31  0.4633E+01
  -2.510  0.2763E-31  0.4633E+01
  -2.500  0.8096E-32  0.4633E+01
  -2.490  0.2347E-32  0.4633E+01
  -2.480  0.6734E-33  0.4633E+01
  -2.470  0.1911E-33  0.4633E+01
  -2.460  0.5365E-34  0.4633E+01
  -2.450  0.1490E-34  0.4633E+01
  -2.440  0.4094E-35  0.4633E+01
  -2.430  0.1113E-35  0.4633E+01
  -2.420  0.2993E-36  0.4633E+01
  -2.410  0.7963E-37  0.4633E+01
  -2.400  0.2096E-37  0.4633E+01
  -2.390  0.5457E-38  0.4633E+01
  -2.380  0.1406E-38  0.4633E+01
  -2.370  0.3583E-39  0.4633E+01
  -2.360  0.9032E-40  0.4633E+01
  -2.350  0.2253E-40  0.4633E+01
  -2.340  0.5558E-41  0.4633E+01
  -2.330  0.1357E-41  0.4633E+01
  -2.320  0.3277E-42  0.4633E+01
  -2.310  0.7828E-43  0.4633E+01
  -2.300  0.1850E-43  0.4633E+01
  -2.290  0.4326E-44  0.4633E+01
  -2.280  0.1001E-44  0.4633E+01
  -2.270  0.2290E-45  0.4633E+01
  -2.260  0.5183E-46  0.4633E+01
  -2.250  0.1161E-46  0.4633E+01
  -2.240  0.2572E-47  0.4633E+01
  -2.230  0.5637E-48  0.4633E+01
  -2.220  0.1222E-48  0.4633E+01
  -2.210  0.2622E-49  0.4633E+01
  -2.200  0.5563E-50  0.4633E+01
  -2.190  0.1168E-50  0.4633E+01
  -2.180  0.2426E-51  0.4633E+01
  -2.170  0.4983E-52  0.4633E+01
  -2.160  0.1013E-52  0.4633E+01
  -2.150  0.2037E-53  0.4633E+01
  -2.140  0.4051E-54  0.4633E+01
  -2.130  0.7972E-55  0.4633E+01
  -2.120  0.1552E-55  0.4633E+01
  -2.110  0.2989E-56  0.4633E+01
  -2.100  0.5694E-57  0.4633E+01
  -2.090  0.1073E-57  0.4633E+01
  -2.080  0.2001E-58  0.4633E+01
  -2.070  0.3691E-59  0.4633E+01
  -2.060  0.6735E-60  0.4633E+01
  -2.050  0.1216E-60  0.4633E+01
  -2.040  0.2171E-61  0.4633E+01
  -2.030  0.3836E-62  0.4633E+01
  -2.020  0.6704E-63  0.4633E+01
  -2.010  0.1159E-63  0.4633E+01
  -2.000  0.1983E-64  0.4633E+01
  -1.990  0.3355E-65  0.4633E+01
  -1.980  0.5615E-66  0.4633E+01
  -1.970  0.9298E-67  0.4633E+01
  -1.960  0.1523E-67  0.4633E+01
  -1.950  0.2468E-68  0.4633E+01
  -1.940  0.3957E-69  0.4633E+01
  -1.930  0.6276E-70  0.4633E+01
  -1.920  0.9847E-71  0.4633E+01
  -1.910  0.1528E-71  0.4633E+01
  -1.900  0.2347E-72  0.4633E+01
  -1.890  0.3565E-73  0.4633E+01
  -1.880  0.5356E-74  0.4633E+01
  -1.870  0.7962E-75  0.4633E+01
  -1.860  0.1171E-75  0.4633E+01
  -1.850  0.1703E-76  0.4633E+01
  -1.840  0.2452E-77  0.4633E+01
  -1.830  0.3490E-78  0.4633E+01
  -1.820  0.4916E-79  0.4633E+01
  -1.810  0.6849E-80  0.4633E+01
  -1.800  0.9442E-81  0.4633E+01
  -1.790  0.1288E-81  0.4633E+01
  -1.780  0.1746E-82  0.4633E+01
  -1.770  0.2409E-83  0.4633E+01
  -1.760  0.3976E-84  0.4633E+01
  -1.750  0.1317E-84  0.4633E+01
  -1.740  0.9692E-85  0.4633E+01
  -1.730  0.9244E-85  0.4633E+01
  -1.720  0.9187E-85  0.4633E+01
  -1.710  0.9182E-85  0.4633E+01
  -1.700  0.9182E-85  0.4633E+01
  -1.690  0.9182E-85  0.4633E+01
  -1.680  0.9182E-85  0.4633E+01
  -1.670  0.9182E-85  0.4633E+01
  -1.660  0.9182E-85  0.4633E+01
  -1.650  0.9182E-85  0.4633E+01
  -1.640  0.9182E-85  0.4633E+01
  -1.630  0.9182E-85  0.4633E+01
  -1.620  0.9182E-85  0.4633E+01
  -1.610  0.9182E-85  0.4633E+01
  -1.600  0.9182E-85  0.4633E+01
  -1.590  0.9182E-85  0.4633E+01
  -1.580  0.9182E-85  0.4633E+01
  -1.570  0.9182E-85  0.4633E+01
  -1.560  0.9182E-85  0.4633E+01
  -1.550  0.9182E-85  0.4633E+01
  -1.540  0.9182E-85  0.4633E+01
  -1.530  0.9182E-85  0.4633E+01
  -1.520  0.9182E-85  0.4633E+01
  -1.510  0.9182E-85  0.4633E+01
  -1.500  0.9182E-85  0.4633E+01
  -1.490  0.9182E-85  0.4633E+01
  -1.480  0.9182E-85  0.4633E+01
  -1.470  0.9182E-85  0.4633E+01
  -1.460  0.9182E-85  0.4633E+01
  -1.450  0.9182E-85  0.4633E+01
  -1.440  0.9182E-85  0.4633E+01
  -1.430  0.9182E-85  0.4633E+01
  -1.420  0.9182E-85  0.4633E+01
  -1.410  0.9182E-85  0.4633E+01
  -1.400  0.9182E-85  0.4633E+01
  -1.390  0.9182E-85  0.4633E+01
  -1.380  0.9182E-85  0.4633E+01
  -1.370  0.9182E-85  0.4633E+01
  -1.360  0.9182E-85  0.4633E+01
  -1.350  0.9182E-85  0.4633E+01
  -1.340  0.9182E-85  0.4633E+01
  -1.330  0.9182E-85  0.4633E+01
  -1.320  0.9182E-85  0.4633E+01
  -1.310  0.9182E-85  0.4633E+01
  -1.300  0.9182E-85  0.4633E+01
  -1.290  0.9182E-85  0.4633E+01
  -1.280  0.9182E-85  0.4633E+01
  -1.270  0.9182E-85  0.4633E+01
  -1.260  0.9182E-85  0.4633E+01
  -1.250  0.9182E-85  0.4633E+01
  -1.240  0.9182E-85  0.4633E+01
  -1.230  0.9182E-85  0.4633E+01
  -1.220  0.9182E-85  0.4633E+01
  -1.210  0.9182E-85  0.4633E+01
  -1.200  0.9182E-85  0.4633E+01
  -1.190  0.9182E-85  0.4633E+01
  -1.180  0.9182E-85  0.4633E+01
  -1.170  0.9182E-85  0.4633E+01
  -1.160  0.9188E-85  0.4633E+01
  -1.150  0.9253E-85  0.4633E+01
  -1.140  0.9760E-85  0.4633E+01
  -1.130  0.1366E-84  0.4633E+01
  -1.120  0.4338E-84  0.4633E+01
  -1.110  0.2671E-83  0.4633E+01
  -1.100  0.1933E-82  0.4633E+01
  -1.090  0.1421E-81  0.4633E+01
  -1.080  0.1037E-80  0.4633E+01
  -1.070  0.7489E-80  0.4633E+01
  -1.060  0.5351E-79  0.4633E+01
  -1.050  0.3783E-78  0.4633E+01
  -1.040  0.2646E-77  0.4633E+01
  -1.030  0.1830E-76  0.4633E+01
  -1.020  0.1253E-75  0.4633E+01
  -1.010  0.8484E-75  0.4633E+01
  -1.000  0.5683E-74  0.4633E+01
  -0.990  0.3766E-73  0.4633E+01
  -0.980  0.2469E-72  0.4633E+01
  -0.970  0.1602E-71  0.4633E+01
  -0.960  0.1028E-70  0.4633E+01
  -0.950  0.6525E-70  0.4633E+01
  -0.940  0.4098E-69  0.4633E+01
  -0.930  0.2546E-68  0.4633E+01
  -0.920  0.1565E-67  0.4633E+01
  -0.910  0.9518E-67  0.4633E+01
  -0.900  0.5726E-66  0.4633E+01
  -0.890  0.3408E-65  0.4633E+01
  -0.880  0.2007E-64  0.4633E+01
  -0.870  0.1169E-63  0.4633E+01
  -0.860  0.6736E-63  0.4633E+01
  -0.850  0.3840E-62  0.4633E+01
  -0.840  0.2166E-61  0.4633E+01
  -0.830  0.1209E-60  0.4633E+01
  -0.820  0.6672E-60  0.4633E+01
  -0.810  0.3644E-59  0.4633E+01
  -0.800  0.1969E-58  0.4633E+01
  -0.790  0.1052E-57  0.4633E+01
  -0.780  0.5564E-57  0.4633E+01
  -0.770  0.2911E-56  0.4633E+01
  -0.760  0.1506E-55  0.4633E+01
  -0.750  0.7713E-55  0.4633E+01
  -0.740  0.3907E-54  0.4633E+01
  -0.730  0.1958E-53  0.4633E+01
  -0.720  0.9707E-53  0.4633E+01
  -0.710  0.4761E-52  0.4633E+01
  -0.700  0.2310E-51  0.4633E+01
  -0.690  0.1109E-50  0.4633E+01
  -0.680  0.5267E-50  0.4633E+01
  -0.670  0.2475E-49  0.4633E+01
  -0.660  0.1150E-48  0.4633E+01
  -0.650  0.5290E-48  0.4633E+01
  -0.640  0.2407E-47  0.4633E+01
  -0.630  0.1083E-46  0.4633E+01
  -0.620  0.4823E-46  0.4633E+01
  -0.610  0.2125E-45  0.4633E+01
  -0.600  0.9260E-45  0.4633E+01
  -0.590  0.3992E-44  0.4633E+01
  -0.580  0.1703E-43  0.4633E+01
  -0.570  0.7187E-43  0.4633E+01
  -0.560  0.3000E-42  0.4633E+01
  -0.550  0.1239E-41  0.4633E+01
  -0.540  0.5064E-41  0.4633E+01
  -0.530  0.2047E-40  0.4633E+01
  -0.520  0.8188E-40  0.4633E+01
  -0.510  0.3240E-39  0.4633E+01
  -0.500  0.1268E-38  0.4633E+01
  -0.490  0.4911E-38  0.4633E+01
  -0.480  0.1882E-37  0.4633E+01
  -0.470  0.7133E-37  0.4633E+01
  -0.460  0.2675E-36  0.4633E+01
  -0.450  0.9923E-36  0.4633E+01
  -0.440  0.3642E-35  0.4633E+01
  -0.430  0.1323E-34  0.4633E+01
  -0.420  0.4752E-34  0.4633E+01
  -0.410  0.1689E-33  0.4633E+01
  -0.400  0.5938E-33  0.4633E+01
  -0.390  0.2066E-32  0.4633E+01
  -0.380  0.7110E-32  0.4633E+01
  -0.370  0.2421E-31  0.4633E+01
  -0.360  0.8155E-31  0.4633E+01
  -0.350  0.2718E-30  0.4633E+01
  -0.340  0.8962E-30  0.4633E+01
  -0.330  0.2923E-29  0.4633E+01
  -0.320  0.9435E-29  0.4633E+01
  -0.310  0.3012E-28  0.4633E+01
  -0.300  0.9516E-28  0.4633E+01
  -0.290  0.2974E-27  0.4633E+01
  -0.280  0.9195E-27  0.4633E+01
  -0.270  0.2813E-26  0.4633E+01
  -0.260  0.8512E-26  0.4633E+01
  -0.250  0.2549E-25  0.4633E+01
  -0.240  0.7550E-25  0.4633E+01
  -0.230  0.2213E-24  0.4633E+01
  -0.220  0.6416E-24  0.4633E+01
  -0.210  0.1841E-23  0.4633E+01
  -0.200  0.5224E-23  0.4633E+01
  -0.190  0.1467E-22  0.4633E+01
  -0.180  0.4075E-22  0.4633E+01
  -0.170  0.1120E-21  0.4633E+01
  -0.160  0.3046E-21  0.4633E+01
  -0.150  0.8195E-21  0.4633E+01
  -0.140  0.2181E-20  0.4633E+01
  -0.130  0.5744E-20  0.4633E+01
  -0.120  0.1497E-19  0.4633E+01
  -0.110  0.3858E-19  0.4633E+01
  -0.100  0.9841E-19  0.4633E+01
  -0.090  0.2483E-18  0.4633E+01
  -0.080  0.6200E-18  0.4633E+01
  -0.070  0.1531E-17  0.4633E+01
  -0.060  0.3743E-17  0.4633E+01
  -0.050  0.9050E-17  0.4633E+01
  -0.040  0.2165E-16  0.4633E+01
  -0.030  0.5125E-16  0.4633E+01
  -0.020  0.1200E-15  0.4633E+01
  -0.010  0.2781E-15  0.4633E+01
   0.000  0.6376E-15  0.4633E+01
   0.010  0.1446E-14  0.4633E+01
   0.020  0.3246E-14  0.4633E+01
   0.030  0.7208E-14  0.4633E+01
   0.040  0.1584E-13  0.4633E+01
   0.050  0.3443E-13  0.4633E+01
   0.060  0.7405E-13  0.4633E+01
   0.070  0.1576E-12  0.4633E+01
   0.080  0.3319E-12  0.4633E+01
   0.090  0.6915E-12  0.4633E+01
   0.100  0.1426E-11  0.4633E+01
   0.110  0.2908E-11  0.4633E+01
   0.120  0.5869E-11  0.4633E+01
   0.130  0.1172E-10  0.4633E+01
   0.140  0.2316E-10  0.4633E+01
   0.150  0.4529E-10  0.4633E+01
   0.160  0.8763E-10  0.4633E+01
   0.170  0.1678E-09  0.4633E+01
   0.180  0.3178E-09  0.4633E+01
   0.190  0.5958E-09  0.4633E+01
   0.200  0.1105E-08  0.4633E+01
   0.210  0.2028E-08  0.4633E+01
   0.220  0.3684E-08  0.4633E+01
   0.230  0.6622E-08  0.4633E+01
   0.240  0.1178E-07  0.4633E+01
   0.250  0.2073E-07  0.4633E+01
   0.260  0.3610E-07  0.4633E+01
   0.270  0.6222E-07  0.4633E+01
   0.280  0.1061E-06  0.4633E+01
   0.290  0.1791E-06  0.4633E+01
   0.300  0.2992E-06  0.4633E+01
   0.310  0.4946E-06  0.4633E+01
   0.320  0.8092E-06  0.4633E+01
   0.330  0.1310E-05  0.4633E+01
   0.340  0.2100E-05  0.4633E+01
   0.350  0.3330E-05  0.4633E+01
   0.360  0.5227E-05  0.4633E+01
   0.370  0.8120E-05  0.4633E+01
   0.380  0.1249E-04  0.4633E+01
   0.390  0.1900E-04  0.4633E+01
   0.400  0.2862E-04  0.4633E+01
   0.410  0.4268E-04  0.4633E+01
   0.420  0.6300E-04  0.4633E+01
   0.430  0.9204E-04  0.4633E+01
   0.440  0.1331E-03  0.4633E+01
   0.450  0.1906E-03  0.4633E+01
   0.460  0.2701E-03  0.4633E+01
   0.470  0.3791E-03  0.4633E+01
   0.480  0.5266E-03  0.4633E+01
   0.490  0.7243E-03  0.4633E+01
   0.500  0.9864E-03  0.4633E+01
   0.510  0.1330E-02  0.4633E+01
   0.520  0.1776E-02  0.4633E+01
   0.530  0.2349E-02  0.4633E+01
   0.540  0.3075E-02  0.4633E+01
   0.550  0.3988E-02  0.4634E+01
   0.560  0.5122E-02  0.4634E+01
   0.570  0.6517E-02  0.4634E+01
   0.580  0.8213E-02  0.4634E+01
   0.590  0.1025E-01  0.4634E+01
   0.600  0.1268E-01  0.4634E+01
   0.610  0.1554E-01  0.4634E+01
   0.620  0.1887E-01  0.4634E+01
   0.630  0.2271E-01  0.4635E+01
   0.640  0.2708E-01  0.4635E+01
   0.650  0.3202E-01  0.4635E+01
   0.660  0.3752E-01  0.4636E+01
   0.670  0.4360E-01  0.4636E+01
   0.680  0.5024E-01  0.4636E+01
   0.690  0.5741E-01  0.4637E+01
   0.700  0.6507E-01  0.4638E+01
   0.710  0.7318E-01  0.4638E+01
   0.720  0.8166E-01  0.4639E+01
   0.730  0.9045E-01  0.4640E+01
   0.740  0.9945E-01  0.4641E+01
   0.750  0.1086E+00  0.4642E+01
   0.760  0.1177E+00  0.4643E+01
   0.770  0.1269E+00  0.4645E+01
   0.780  0.1358E+00  0.4646E+01
   0.790  0.1446E+00  0.4647E+01
   0.800  0.1531E+00  0.4649E+01
   0.810  0.1612E+00  0.4651E+01
   0.820  0.1690E+00  0.4652E+01
   0.830  0.1763E+00  0.4654E+01
   0.840  0.1834E+00  0.4656E+01
   0.850  0.1900E+00  0.4658E+01
   0.860  0.1964E+00  0.4660E+01
   0.870  0.2026E+00  0.4662E+01
   0.880  0.2087E+00  0.4664E+01
   0.890  0.2148E+00  0.4666E+01
   0.900  0.2212E+00  0.4668E+01
   0.910  0.2279E+00  0.4670E+01
   0.920  0.2351E+00  0.4673E+01
   0.930  0.2432E+00  0.4675E+01
   0.940  0.2524E+00  0.4678E+01
   0.950  0.2628E+00  0.4680E+01
   0.960  0.2748E+00  0.4683E+01
   0.970  0.2887E+00  0.4686E+01
   0.980  0.3048E+00  0.4689E+01
   0.990  0.3233E+00  0.4692E+01
   1.000  0.3446E+00  0.4696E+01
   1.010  0.3688E+00  0.4699E+01
   1.020  0.3963E+00  0.4703E+01
   1.030  0.4272E+00  0.4708E+01
   1.040  0.4616E+00  0.4712E+01
   1.050  0.4997E+00  0.4717E+01
   1.060  0.5414E+00  0.4723E+01
   1.070  0.5866E+00  0.4729E+01
   1.080  0.6353E+00  0.4735E+01
   1.090  0.6871E+00  0.4742E+01
   1.100  0.7416E+00  0.4749E+01
   1.110  0.7985E+00  0.4757E+01
   1.120  0.8570E+00  0.4766E+01
   1.130  0.9167E+00  0.4775E+01
   1.140  0.9766E+00  0.4785E+01
   1.150  0.1036E+01  0.4795E+01
   1.160  0.1094E+01  0.4806E+01
   1.170  0.1150E+01  0.4818E+01
   1.180  0.1204E+01  0.4830E+01
   1.190  0.1253E+01  0.4842E+01
   1.200  0.1298E+01  0.4855E+01
   1.210  0.1337E+01  0.4868E+01
   1.220  0.1371E+01  0.4882E+01
   1.230  0.1399E+01  0.4896E+01
   1.240  0.1421E+01  0.4910E+01
   1.250  0.1436E+01  0.4925E+01
   1.260  0.1445E+01  0.4939E+01
   1.270  0.1448E+01  0.4954E+01
   1.280  0.1445E+01  0.4968E+01
   1.290  0.1437E+01  0.4983E+01
   1.300  0.1424E+01  0.4997E+01
   1.310  0.1407E+01  0.5011E+01
   1.320  0.1386E+01  0.5025E+01
   1.330  0.1362E+01  0.5038E+01
   1.340  0.1336E+01  0.5052E+01
   1.350  0.1308E+01  0.5065E+01
   1.360  0.1279E+01  0.5078E+01
   1.370  0.1250E+01  0.5090E+01
   1.380  0.1220E+01  0.5102E+01
   1.390  0.1191E+01  0.5114E+01
   1.400  0.1163E+01  0.5126E+01
   1.410  0.1135E+01  0.5137E+01
   1.420  0.1109E+01  0.5148E+01
   1.430  0.1084E+01  0.5159E+01
   1.440  0.1061E+01  0.5170E+01
   1.450  0.1038E+01  0.5180E+01
   1.460  0.1018E+01  0.5190E+01
   1.470  0.9981E+00  0.5200E+01
   1.480  0.9799E+00  0.5210E+01
   1.490  0.9630E+00  0.5220E+01
   1.500  0.9472E+00  0.5229E+01
   1.510  0.9324E+00  0.5238E+01
   1.520  0.9186E+00  0.5248E+01
   1.530  0.9058E+00  0.5257E+01
   1.540  0.8938E+00  0.5266E+01
   1.550  0.8825E+00  0.5274E+01
   1.560  0.8720E+00  0.5283E+01
   1.570  0.8621E+00  0.5292E+01
   1.580  0.8528E+00  0.5300E+01
   1.590  0.8441E+00  0.5309E+01
   1.600  0.8360E+00  0.5317E+01
   1.610  0.8284E+00  0.5325E+01
   1.620  0.8213E+00  0.5334E+01
   1.630  0.8147E+00  0.5342E+01
   1.640  0.8085E+00  0.5350E+01
   1.650  0.8029E+00  0.5358E+01
   1.660  0.7978E+00  0.5366E+01
   1.670  0.7932E+00  0.5374E+01
   1.680  0.7891E+00  0.5382E+01
   1.690  0.7856E+00  0.5390E+01
   1.700  0.7827E+00  0.5397E+01
   1.710  0.7804E+00  0.5405E+01
   1.720  0.7789E+00  0.5413E+01
   1.730  0.7781E+00  0.5421E+01
   1.740  0.7782E+00  0.5428E+01
   1.750  0.7790E+00  0.5436E+01
   1.760  0.7808E+00  0.5444E+01
   1.770  0.7834E+00  0.5452E+01
   1.780  0.7869E+00  0.5460E+01
   1.790  0.7912E+00  0.5468E+01
   1.800  0.7963E+00  0.5476E+01
   1.810  0.8020E+00  0.5484E+01
   1.820  0.8082E+00  0.5492E+01
   1.830  0.8149E+00  0.5500E+01
   1.840  0.8218E+00  0.5508E+01
   1.850  0.8288E+00  0.5516E+01
   1.860  0.8357E+00  0.5525E+01
   1.870  0.8425E+00  0.5533E+01
   1.880  0.8490E+00  0.5542E+01
   1.890  0.8550E+00  0.5550E+01
   1.900  0.8606E+00  0.5559E+01
   1.910  0.8656E+00  0.5568E+01
   1.920  0.8701E+00  0.5576E+01
   1.930  0.8739E+00  0.5585E+01
   1.940  0.8772E+00  0.5594E+01
   1.950  0.8799E+00  0.5603E+01
   1.960  0.8822E+00  0.5611E+01
   1.970  0.8840E+00  0.5620E+01
   1.980  0.8855E+00  0.5629E+01
   1.990  0.8866E+00  0.5638E+01
   2.000  0.8875E+00  0.5647E+01
   2.010  0.8881E+00  0.5656E+01
   2.020  0.8886E+00  0.5665E+01
   2.030  0.8890E+00  0.5673E+01
   2.040  0.8892E+00  0.5682E+01
   2.050  0.8893E+00  0.5691E+01
   2.060  0.8892E+00  0.5700E+01
   2.070  0.8890E+00  0.5709E+01
   2.080  0.8886E+00  0.5718E+01
   2.090  0.8880E+00  0.5727E+01
   2.100  0.8871E+00  0.5736E+01
   2.110  0.8859E+00  0.5744E+01
   2.120  0.8843E+00  0.5753E+01
   2.130  0.8824E+00  0.5762E+01
   2.140  0.8801E+00  0.5771E+01
   2.150  0.8775E+00  0.5780E+01
   2.160  0.8747E+00  0.5788E+01
   2.170  0.8716E+00  0.5797E+01
   2.180  0.8685E+00  0.5806E+01
   2.190  0.8653E+00  0.5815E+01
   2.200  0.8623E+00  0.5823E+01
   2.210  0.8596E+00  0.5832E+01
   2.220  0.8573E+00  0.5840E+01
   2.230  0.8554E+00  0.5849E+01
   2.240  0.8540E+00  0.5857E+01
   2.250  0.8532E+00  0.5866E+01
   2.260  0.8530E+00  0.5874E+01
   2.270  0.8533E+00  0.5883E+01
   2.280  0.8540E+00  0.5892E+01
   2.290  0.8550E+00  0.5900E+01
   2.300  0.8562E+00  0.5909E+01
   2.310  0.8574E+00  0.5917E+01
   2.320  0.8586E+00  0.5926E+01
   2.330  0.8594E+00  0.5934E+01
   2.340  0.8599E+00  0.5943E+01
   2.350  0.8600E+00  0.5952E+01
   2.360  0.8596E+00  0.5960E+01
   2.370  0.8587E+00  0.5969E+01
   2.380  0.8574E+00  0.5977E+01
   2.390  0.8558E+00  0.5986E+01
   2.400  0.8540E+00  0.5994E+01
   2.410  0.8523E+00  0.6003E+01
   2.420  0.8508E+00  0.6012E+01
   2.430  0.8497E+00  0.6020E+01
   2.440  0.8493E+00  0.6029E+01
   2.450  0.8497E+00  0.6037E+01
   2.460  0.8512E+00  0.6046E+01
   2.470  0.8538E+00  0.6054E+01
   2.480  0.8576E+00  0.6063E+01
   2.490  0.8627E+00  0.6071E+01
   2.500  0.8690E+00  0.6080E+01
   2.510  0.8766E+00  0.6089E+01
   2.520  0.8852E+00  0.6098E+01
   2.530  0.8947E+00  0.6107E+01
   2.540  0.9050E+00  0.6116E+01
   2.550  0.9159E+00  0.6125E+01
   2.560  0.9271E+00  0.6134E+01
   2.570  0.9383E+00  0.6143E+01
   2.580  0.9494E+00  0.6153E+01
   2.590  0.9602E+00  0.6162E+01
   2.600  0.9704E+00  0.6172E+01
   2.610  0.9798E+00  0.6182E+01
   2.620  0.9884E+00  0.6192E+01
   2.630  0.9961E+00  0.6202E+01
   2.640  0.1003E+01  0.6212E+01
   2.650  0.1008E+01  0.6222E+01
   2.660  0.1013E+01  0.6232E+01
   2.670  0.1016E+01  0.6242E+01
   2.680  0.1019E+01  0.6252E+01
   2.690  0.1021E+01  0.6263E+01
   2.700  0.1022E+01  0.6273E+01
   2.710  0.1023E+01  0.6283E+01
   2.720  0.1023E+01  0.6293E+01
   2.730  0.1024E+01  0.6304E+01
   2.740  0.1025E+01  0.6314E+01
   2.750  0.1026E+01  0.6324E+01
   2.760  0.1027E+01  0.6334E+01
   2.770  0.1030E+01  0.6345E+01
   2.780  0.1032E+01  0.6355E+01
   2.790  0.1035E+01  0.6365E+01
   2.800  0.1039E+01  0.6376E+01
   2.810  0.1043E+01  0.6386E+01
   2.820  0.1048E+01  0.6397E+01
   2.830  0.1052E+01  0.6407E+01
   2.840  0.1056E+01  0.6418E+01
   2.850  0.1060E+01  0.6428E+01
   2.860  0.1064E+01  0.6439E+01
   2.870  0.1067E+01  0.6450E+01
   2.880  0.1068E+01  0.6460E+01
   2.890  0.1069E+01  0.6471E+01
   2.900  0.1069E+01  0.6482E+01
   2.910  0.1068E+01  0.6492E+01
   2.920  0.1066E+01  0.6503E+01
   2.930  0.1063E+01  0.6514E+01
   2.940  0.1060E+01  0.6524E+01
   2.950  0.1056E+01  0.6535E+01
   2.960  0.1052E+01  0.6545E+01
   2.970  0.1049E+01  0.6556E+01
   2.980  0.1045E+01  0.6566E+01
   2.990  0.1042E+01  0.6577E+01
   3.000  0.1040E+01  0.6587E+01
   3.010  0.1039E+01  0.6597E+01
   3.020  0.1038E+01  0.6608E+01
   3.030  0.1039E+01  0.6618E+01
   3.040  0.1040E+01  0.6629E+01
   3.050  0.1042E+01  0.6639E+01
   3.060  0.1045E+01  0.6650E+01
   3.070  0.1049E+01  0.6660E+01
   3.080  0.1053E+01  0.6671E+01
   3.090  0.1058E+01  0.6681E+01
   3.100  0.1062E+01  0.6692E+01
   3.110  0.1067E+01  0.6702E+01
   3.120  0.1071E+01  0.6713E+01
   3.130  0.1075E+01  0.6724E+01
   3.140  0.1079E+01  0.6735E+01
   3.150  0.1082E+01  0.6745E+01
   3.160  0.1085E+01  0.6756E+01
   3.170  0.1087E+01  0.6767E+01
   3.180  0.1088E+01  0.6778E+01
   3.190  0.1089E+01  0.6789E+01
   3.200  0.1089E+01  0.6800E+01
   3.210  0.1089E+01  0.6811E+01
   3.220  0.1088E+01  0.6822E+01
   3.230  0.1087E+01  0.6832E+01
   3.240  0.1086E+01  0.6843E+01
   3.250  0.1085E+01  0.6854E+01
   3.260  0.1084E+01  0.6865E+01
   3.270  0.1083E+01  0.6876E+01
   3.280  0.1082E+01  0.6887E+01
   3.290  0.1082E+01  0.6897E+01
   3.300  0.1083E+01  0.6908E+01
   3.310  0.1084E+01  0.6919E+01
   3.320  0.1086E+01  0.6930E+01
   3.330  0.1088E+01  0.6941E+01
   3.340  0.1092E+01  0.6952E+01
   3.350  0.1095E+01  0.6963E+01
   3.360  0.1100E+01  0.6974E+01
   3.370  0.1105E+01  0.6985E+01
   3.380  0.1111E+01  0.6996E+01
   3.390  0.1117E+01  0.7007E+01
   3.400  0.1124E+01  0.7018E+01
   3.410  0.1132E+01  0.7030E+01
   3.420  0.1139E+01  0.7041E+01
   3.430  0.1147E+01  0.7053E+01
   3.440  0.1156E+01  0.7064E+01
   3.450  0.1164E+01  0.7076E+01
   3.460  0.1173E+01  0.7087E+01
   3.470  0.1182E+01  0.7099E+01
   3.480  0.1191E+01  0.7111E+01
   3.490  0.1201E+01  0.7123E+01
   3.500  0.1210E+01  0.7135E+01
   3.510  0.1219E+01  0.7148E+01
   3.520  0.1229E+01  0.7160E+01
   3.530  0.1239E+01  0.7172E+01
   3.540  0.1249E+01  0.7185E+01
   3.550  0.1260E+01  0.7197E+01
   3.560  0.1271E+01  0.7210E+01
   3.570  0.1282E+01  0.7223E+01
   3.580  0.1295E+01  0.7236E+01
   3.590  0.1308E+01  0.7249E+01
   3.600  0.1322E+01  0.7262E+01
   3.610  0.1337E+01  0.7275E+01
   3.620  0.1352E+01  0.7289E+01
   3.630  0.1369E+01  0.7303E+01
   3.640  0.1385E+01  0.7316E+01
   3.650  0.1402E+01  0.7330E+01
   3.660  0.1419E+01  0.7345E+01
   3.670  0.1436E+01  0.7359E+01
   3.680  0.1451E+01  0.7374E+01
   3.690  0.1465E+01  0.7388E+01
   3.700  0.1476E+01  0.7403E+01
   3.710  0.1485E+01  0.7418E+01
   3.720  0.1490E+01  0.7433E+01
   3.730  0.1492E+01  0.7448E+01
   3.740  0.1488E+01  0.7463E+01
   3.750  0.1480E+01  0.7477E+01
   3.760  0.1467E+01  0.7492E+01
   3.770  0.1448E+01  0.7506E+01
   3.780  0.1424E+01  0.7521E+01
   3.790  0.1394E+01  0.7535E+01
   3.800  0.1359E+01  0.7548E+01
   3.810  0.1319E+01  0.7561E+01
   3.820  0.1275E+01  0.7574E+01
   3.830  0.1228E+01  0.7586E+01
   3.840  0.1177E+01  0.7598E+01
   3.850  0.1125E+01  0.7609E+01
   3.860  0.1071E+01  0.7620E+01
   3.870  0.1016E+01  0.7630E+01
   3.880  0.9625E+00  0.7640E+01
   3.890  0.9097E+00  0.7649E+01
   3.900  0.8588E+00  0.7658E+01
   3.910  0.8103E+00  0.7666E+01
   3.920  0.7646E+00  0.7673E+01
   3.930  0.7223E+00  0.7681E+01
   3.940  0.6835E+00  0.7687E+01
   3.950  0.6483E+00  0.7694E+01
   3.960  0.6170E+00  0.7700E+01
   3.970  0.5895E+00  0.7706E+01
   3.980  0.5656E+00  0.7712E+01
   3.990  0.5453E+00  0.7717E+01
   4.000  0.5284E+00  0.7722E+01
   4.010  0.5146E+00  0.7728E+01
   4.020  0.5038E+00  0.7733E+01
   4.030  0.4956E+00  0.7738E+01
   4.040  0.4899E+00  0.7742E+01
   4.050  0.4864E+00  0.7747E+01
   4.060  0.4848E+00  0.7752E+01
   4.070  0.4849E+00  0.7757E+01
   4.080  0.4865E+00  0.7762E+01
   4.090  0.4893E+00  0.7767E+01
   4.100  0.4932E+00  0.7772E+01
   4.110  0.4979E+00  0.7777E+01
   4.120  0.5032E+00  0.7782E+01
   4.130  0.5090E+00  0.7787E+01
   4.140  0.5150E+00  0.7792E+01
   4.150  0.5212E+00  0.7797E+01
   4.160  0.5274E+00  0.7802E+01
   4.170  0.5335E+00  0.7808E+01
   4.180  0.5394E+00  0.7813E+01
   4.190  0.5451E+00  0.7819E+01
   4.200  0.5504E+00  0.7824E+01
   4.210  0.5555E+00  0.7830E+01
   4.220  0.5602E+00  0.7835E+01
   4.230  0.5647E+00  0.7841E+01
   4.240  0.5690E+00  0.7847E+01
   4.250  0.5731E+00  0.7852E+01
   4.260  0.5773E+00  0.7858E+01
   4.270  0.5816E+00  0.7864E+01
   4.280  0.5861E+00  0.7870E+01
   4.290  0.5909E+00  0.7876E+01
   4.300  0.5962E+00  0.7882E+01
   4.310  0.6021E+00  0.7888E+01
   4.320  0.6087E+00  0.7894E+01
   4.330  0.6161E+00  0.7900E+01
   4.340  0.6243E+00  0.7906E+01
   4.350  0.6333E+00  0.7913E+01
   4.360  0.6430E+00  0.7919E+01
   4.370  0.6535E+00  0.7925E+01
   4.380  0.6646E+00  0.7932E+01
   4.390  0.6761E+00  0.7939E+01
   4.400  0.6879E+00  0.7946E+01
   4.410  0.6997E+00  0.7953E+01
   4.420  0.7113E+00  0.7960E+01
   4.430  0.7225E+00  0.7967E+01
   4.440  0.7331E+00  0.7974E+01
   4.450  0.7428E+00  0.7982E+01
   4.460  0.7514E+00  0.7989E+01
   4.470  0.7588E+00  0.7997E+01
   4.480  0.7648E+00  0.8005E+01
   4.490  0.7693E+00  0.8012E+01
   4.500  0.7723E+00  0.8020E+01
   4.510  0.7739E+00  0.8028E+01
   4.520  0.7740E+00  0.8035E+01
   4.530  0.7729E+00  0.8043E+01
   4.540  0.7706E+00  0.8051E+01
   4.550  0.7673E+00  0.8059E+01
   4.560  0.7632E+00  0.8066E+01
   4.570  0.7586E+00  0.8074E+01
   4.580  0.7537E+00  0.8081E+01
   4.590  0.7486E+00  0.8089E+01
   4.600  0.7437E+00  0.8096E+01
   4.610  0.7390E+00  0.8104E+01
   4.620  0.7348E+00  0.8111E+01
   4.630  0.7312E+00  0.8118E+01
   4.640  0.7283E+00  0.8126E+01
   4.650  0.7262E+00  0.8133E+01
   4.660  0.7249E+00  0.8140E+01
   4.670  0.7244E+00  0.8147E+01
   4.680  0.7248E+00  0.8155E+01
   4.690  0.7260E+00  0.8162E+01
   4.700  0.7279E+00  0.8169E+01
   4.710  0.7305E+00  0.8176E+01
   4.720  0.7336E+00  0.8184E+01
   4.730  0.7372E+00  0.8191E+01
   4.740  0.7413E+00  0.8199E+01
   4.750  0.7456E+00  0.8206E+01
   4.760  0.7501E+00  0.8214E+01
   4.770  0.7546E+00  0.8221E+01
   4.780  0.7592E+00  0.8229E+01
   4.790  0.7637E+00  0.8236E+01
   4.800  0.7680E+00  0.8244E+01
   4.810  0.7720E+00  0.8252E+01
   4.820  0.7757E+00  0.8259E+01
   4.830  0.7791E+00  0.8267E+01
   4.840  0.7821E+00  0.8275E+01
   4.850  0.7847E+00  0.8283E+01
   4.860  0.7869E+00  0.8291E+01
   4.870  0.7887E+00  0.8299E+01
   4.880  0.7902E+00  0.8307E+01
   4.890  0.7914E+00  0.8315E+01
   4.900  0.7922E+00  0.8322E+01
   4.910  0.7929E+00  0.8330E+01
   4.920  0.7933E+00  0.8338E+01
   4.930  0.7936E+00  0.8346E+01
   4.940  0.7939E+00  0.8354E+01
   4.950  0.7940E+00  0.8362E+01
   4.960  0.7941E+00  0.8370E+01
   4.970  0.7941E+00  0.8378E+01
   4.980  0.7941E+00  0.8386E+01
   4.990  0.7941E+00  0.8394E+01
   5.000  0.7940E+00  0.8402E+01
   5.010  0.7939E+00  0.8410E+01
   5.020  0.7939E+00  0.8418E+01
   5.030  0.7939E+00  0.8426E+01
   5.040  0.7940E+00  0.8434E+01
   5.050  0.7945E+00  0.8442E+01
   5.060  0.7954E+00  0.8449E+01
   5.070  0.7969E+00  0.8457E+01
   5.080  0.7993E+00  0.8465E+01
   5.090  0.8029E+00  0.8473E+01
   5.100  0.8081E+00  0.8482E+01
   5.110  0.8151E+00  0.8490E+01
   5.120  0.8244E+00  0.8498E+01
   5.130  0.8365E+00  0.8506E+01
   5.140  0.8517E+00  0.8515E+01
   5.150  0.8705E+00  0.8524E+01
   5.160  0.8932E+00  0.8532E+01
   5.170  0.9203E+00  0.8542E+01
   5.180  0.9521E+00  0.8551E+01
   5.190  0.9889E+00  0.8561E+01
   5.200  0.1031E+01  0.8571E+01
   5.210  0.1078E+01  0.8582E+01
   5.220  0.1131E+01  0.8593E+01
   5.230  0.1188E+01  0.8605E+01
   5.240  0.1251E+01  0.8618E+01
   5.250  0.1318E+01  0.8631E+01
   5.260  0.1390E+01  0.8645E+01
   5.270  0.1464E+01  0.8660E+01
   5.280  0.1541E+01  0.8675E+01
   5.290  0.1620E+01  0.8691E+01
   5.300  0.1699E+01  0.8708E+01
   5.310  0.1778E+01  0.8726E+01
   5.320  0.1855E+01  0.8745E+01
   5.330  0.1928E+01  0.8764E+01
   5.340  0.1996E+01  0.8784E+01
   5.350  0.2059E+01  0.8804E+01
   5.360  0.2114E+01  0.8825E+01
   5.370  0.2161E+01  0.8847E+01
   5.380  0.2198E+01  0.8869E+01
   5.390  0.2224E+01  0.8891E+01
   5.400  0.2240E+01  0.8914E+01
   5.410  0.2244E+01  0.8936E+01
   5.420  0.2237E+01  0.8959E+01
   5.430  0.2219E+01  0.8981E+01
   5.440  0.2189E+01  0.9003E+01
   5.450  0.2150E+01  0.9024E+01
   5.460  0.2101E+01  0.9045E+01
   5.470  0.2044E+01  0.9066E+01
   5.480  0.1981E+01  0.9085E+01
   5.490  0.1913E+01  0.9104E+01
   5.500  0.1841E+01  0.9123E+01
   5.510  0.1766E+01  0.9141E+01
   5.520  0.1692E+01  0.9157E+01
   5.530  0.1618E+01  0.9174E+01
   5.540  0.1546E+01  0.9189E+01
   5.550  0.1478E+01  0.9204E+01
   5.560  0.1414E+01  0.9218E+01
   5.570  0.1355E+01  0.9232E+01
   5.580  0.1301E+01  0.9245E+01
   5.590  0.1252E+01  0.9257E+01
   5.600  0.1209E+01  0.9269E+01
   5.610  0.1171E+01  0.9281E+01
   5.620  0.1139E+01  0.9292E+01
   5.630  0.1110E+01  0.9303E+01
   5.640  0.1086E+01  0.9314E+01
   5.650  0.1064E+01  0.9325E+01
   5.660  0.1045E+01  0.9335E+01
   5.670  0.1029E+01  0.9346E+01
   5.680  0.1013E+01  0.9356E+01
   5.690  0.9985E+00  0.9366E+01
   5.700  0.9844E+00  0.9376E+01
   5.710  0.9707E+00  0.9385E+01
   5.720  0.9571E+00  0.9395E+01
   5.730  0.9434E+00  0.9404E+01
   5.740  0.9299E+00  0.9414E+01
   5.750  0.9165E+00  0.9423E+01
   5.760  0.9034E+00  0.9432E+01
   5.770  0.8909E+00  0.9441E+01
   5.780  0.8791E+00  0.9450E+01
   5.790  0.8683E+00  0.9458E+01
   5.800  0.8588E+00  0.9467E+01
   5.810  0.8508E+00  0.9475E+01
   5.820  0.8445E+00  0.9484E+01
   5.830  0.8400E+00  0.9492E+01
   5.840  0.8375E+00  0.9501E+01
   5.850  0.8370E+00  0.9509E+01
   5.860  0.8384E+00  0.9517E+01
   5.870  0.8419E+00  0.9526E+01
   5.880  0.8472E+00  0.9534E+01
   5.890  0.8542E+00  0.9543E+01
   5.900  0.8627E+00  0.9551E+01
   5.910  0.8724E+00  0.9560E+01
   5.920  0.8831E+00  0.9569E+01
   5.930  0.8946E+00  0.9578E+01
   5.940  0.9064E+00  0.9587E+01
   5.950  0.9185E+00  0.9596E+01
   5.960  0.9304E+00  0.9605E+01
   5.970  0.9421E+00  0.9615E+01
   5.980  0.9533E+00  0.9624E+01
   5.990  0.9638E+00  0.9634E+01
   6.000  0.9735E+00  0.9644E+01
   6.010  0.9824E+00  0.9654E+01
   6.020  0.9905E+00  0.9663E+01
   6.030  0.9977E+00  0.9673E+01
   6.040  0.1004E+01  0.9683E+01
   6.050  0.1010E+01  0.9694E+01
   6.060  0.1014E+01  0.9704E+01
   6.070  0.1018E+01  0.9714E+01
   6.080  0.1021E+01  0.9724E+01
   6.090  0.1024E+01  0.9734E+01
   6.100  0.1026E+01  0.9745E+01
   6.110  0.1027E+01  0.9755E+01
   6.120  0.1027E+01  0.9765E+01
   6.130  0.1027E+01  0.9775E+01
   6.140  0.1026E+01  0.9786E+01
   6.150  0.1023E+01  0.9796E+01
   6.160  0.1020E+01  0.9806E+01
   6.170  0.1016E+01  0.9816E+01
   6.180  0.1010E+01  0.9826E+01
   6.190  0.1003E+01  0.9836E+01
   6.200  0.9953E+00  0.9846E+01
   6.210  0.9862E+00  0.9856E+01
   6.220  0.9760E+00  0.9866E+01
   6.230  0.9647E+00  0.9876E+01
   6.240  0.9526E+00  0.9885E+01
   6.250  0.9397E+00  0.9895E+01
   6.260  0.9264E+00  0.9904E+01
   6.270  0.9127E+00  0.9913E+01
   6.280  0.8989E+00  0.9922E+01
   6.290  0.8853E+00  0.9931E+01
   6.300  0.8720E+00  0.9939E+01
   6.310  0.8594E+00  0.9948E+01
   6.320  0.8477E+00  0.9957E+01
   6.330  0.8369E+00  0.9965E+01
   6.340  0.8275E+00  0.9973E+01
   6.350  0.8195E+00  0.9981E+01
   6.360  0.8130E+00  0.9990E+01
   6.370  0.8083E+00  0.9998E+01
   6.380  0.8053E+00  0.1001E+02
   6.390  0.8042E+00  0.1001E+02
   6.400  0.8050E+00  0.1002E+02
   6.410  0.8075E+00  0.1003E+02
   6.420  0.8118E+00  0.1004E+02
   6.430  0.8178E+00  0.1005E+02
   6.440  0.8252E+00  0.1005E+02
   6.450  0.8338E+00  0.1006E+02
   6.460  0.8434E+00  0.1007E+02
   6.470  0.8536E+00  0.1008E+02
   6.480  0.8640E+00  0.1009E+02
   6.490  0.8744E+00  0.1010E+02
   6.500  0.8842E+00  0.1011E+02
   6.510  0.8931E+00  0.1011E+02
   6.520  0.9007E+00  0.1012E+02
   6.530  0.9067E+00  0.1013E+02
   6.540  0.9107E+00  0.1014E+02
   6.550  0.9125E+00  0.1015E+02
   6.560  0.9120E+00  0.1016E+02
   6.570  0.9091E+00  0.1017E+02
   6.580  0.9039E+00  0.1018E+02
   6.590  0.8963E+00  0.1019E+02
   6.600  0.8868E+00  0.1020E+02
   6.610  0.8754E+00  0.1020E+02
   6.620  0.8627E+00  0.1021E+02
   6.630  0.8490E+00  0.1022E+02
   6.640  0.8347E+00  0.1023E+02
   6.650  0.8204E+00  0.1024E+02
   6.660  0.8063E+00  0.1025E+02
   6.670  0.7931E+00  0.1025E+02
   6.680  0.7809E+00  0.1026E+02
   6.690  0.7702E+00  0.1027E+02
   6.700  0.7613E+00  0.1028E+02
   6.710  0.7542E+00  0.1029E+02
   6.720  0.7491E+00  0.1029E+02
   6.730  0.7460E+00  0.1030E+02
   6.740  0.7450E+00  0.1031E+02
   6.750  0.7460E+00  0.1032E+02
   6.760  0.7487E+00  0.1032E+02
   6.770  0.7532E+00  0.1033E+02
   6.780  0.7591E+00  0.1034E+02
   6.790  0.7664E+00  0.1035E+02
   6.800  0.7747E+00  0.1035E+02
   6.810  0.7840E+00  0.1036E+02
   6.820  0.7941E+00  0.1037E+02
   6.830  0.8047E+00  0.1038E+02
   6.840  0.8158E+00  0.1039E+02
   6.850  0.8272E+00  0.1039E+02
   6.860  0.8388E+00  0.1040E+02
   6.870  0.8504E+00  0.1041E+02
   6.880  0.8619E+00  0.1042E+02
   6.890  0.8731E+00  0.1043E+02
   6.900  0.8838E+00  0.1044E+02
   6.910  0.8940E+00  0.1045E+02
   6.920  0.9033E+00  0.1045E+02
   6.930  0.9115E+00  0.1046E+02
   6.940  0.9185E+00  0.1047E+02
   6.950  0.9240E+00  0.1048E+02
   6.960  0.9277E+00  0.1049E+02
   6.970  0.9296E+00  0.1050E+02
   6.980  0.9294E+00  0.1051E+02
   6.990  0.9270E+00  0.1052E+02
   7.000  0.9224E+00  0.1053E+02
   7.010  0.9156E+00  0.1054E+02
   7.020  0.9067E+00  0.1055E+02
   7.030  0.8959E+00  0.1056E+02
   7.040  0.8835E+00  0.1056E+02
   7.050  0.8696E+00  0.1057E+02
   7.060  0.8548E+00  0.1058E+02
   7.070  0.8394E+00  0.1059E+02
   7.080  0.8239E+00  0.1060E+02
   7.090  0.8087E+00  0.1061E+02
   7.100  0.7942E+00  0.1061E+02
   7.110  0.7809E+00  0.1062E+02
   7.120  0.7692E+00  0.1063E+02
   7.130  0.7592E+00  0.1064E+02
   7.140  0.7514E+00  0.1064E+02
   7.150  0.7458E+00  0.1065E+02
   7.160  0.7425E+00  0.1066E+02
   7.170  0.7414E+00  0.1067E+02
   7.180  0.7426E+00  0.1067E+02
   7.190  0.7458E+00  0.1068E+02
   7.200  0.7510E+00  0.1069E+02
   7.210  0.7577E+00  0.1070E+02
   7.220  0.7658E+00  0.1070E+02
   7.230  0.7751E+00  0.1071E+02
   7.240  0.7852E+00  0.1072E+02
   7.250  0.7959E+00  0.1073E+02
   7.260  0.8070E+00  0.1074E+02
   7.270  0.8182E+00  0.1074E+02
   7.280  0.8292E+00  0.1075E+02
   7.290  0.8400E+00  0.1076E+02
   7.300  0.8502E+00  0.1077E+02
   7.310  0.8598E+00  0.1078E+02
   7.320  0.8684E+00  0.1079E+02
   7.330  0.8758E+00  0.1080E+02
   7.340  0.8820E+00  0.1080E+02
   7.350  0.8866E+00  0.1081E+02
   7.360  0.8894E+00  0.1082E+02
   7.370  0.8903E+00  0.1083E+02
   7.380  0.8892E+00  0.1084E+02
   7.390  0.8859E+00  0.1085E+02
   7.400  0.8804E+00  0.1086E+02
   7.410  0.8727E+00  0.1087E+02
   7.420  0.8630E+00  0.1088E+02
   7.430  0.8515E+00  0.1088E+02
   7.440  0.8384E+00  0.1089E+02
   7.450  0.8240E+00  0.1090E+02
   7.460  0.8089E+00  0.1091E+02
   7.470  0.7935E+00  0.1092E+02
   7.480  0.7783E+00  0.1092E+02
   7.490  0.7638E+00  0.1093E+02
   7.500  0.7504E+00  0.1094E+02
   7.510  0.7387E+00  0.1095E+02
   7.520  0.7288E+00  0.1095E+02
   7.530  0.7213E+00  0.1096E+02
   7.540  0.7161E+00  0.1097E+02
   7.550  0.7135E+00  0.1098E+02
   7.560  0.7134E+00  0.1098E+02
   7.570  0.7157E+00  0.1099E+02
   7.580  0.7202E+00  0.1100E+02
   7.590  0.7266E+00  0.1100E+02
   7.600  0.7346E+00  0.1101E+02
   7.610  0.7438E+00  0.1102E+02
   7.620  0.7538E+00  0.1103E+02
   7.630  0.7641E+00  0.1103E+02
   7.640  0.7745E+00  0.1104E+02
   7.650  0.7845E+00  0.1105E+02
   7.660  0.7937E+00  0.1106E+02
   7.670  0.8019E+00  0.1107E+02
   7.680  0.8087E+00  0.1107E+02
   7.690  0.8141E+00  0.1108E+02
   7.700  0.8180E+00  0.1109E+02
   7.710  0.8201E+00  0.1110E+02
   7.720  0.8206E+00  0.1111E+02
   7.730  0.8194E+00  0.1111E+02
   7.740  0.8168E+00  0.1112E+02
   7.750  0.8128E+00  0.1113E+02
   7.760  0.8077E+00  0.1114E+02
   7.770  0.8016E+00  0.1115E+02
   7.780  0.7948E+00  0.1116E+02
   7.790  0.7876E+00  0.1116E+02
   7.800  0.7802E+00  0.1117E+02
   7.810  0.7728E+00  0.1118E+02
   7.820  0.7658E+00  0.1119E+02
   7.830  0.7593E+00  0.1119E+02
   7.840  0.7536E+00  0.1120E+02
   7.850  0.7489E+00  0.1121E+02
   7.860  0.7452E+00  0.1122E+02
   7.870  0.7428E+00  0.1122E+02
   7.880  0.7417E+00  0.1123E+02
   7.890  0.7418E+00  0.1124E+02
   7.900  0.7432E+00  0.1125E+02
   7.910  0.7458E+00  0.1125E+02
   7.920  0.7495E+00  0.1126E+02
   7.930  0.7540E+00  0.1127E+02
   7.940  0.7593E+00  0.1128E+02
   7.950  0.7649E+00  0.1128E+02
   7.960  0.7706E+00  0.1129E+02
   7.970  0.7762E+00  0.1130E+02
   7.980  0.7814E+00  0.1131E+02
   7.990  0.7858E+00  0.1131E+02
   8.000  0.7893E+00  0.1132E+02
   8.010  0.7916E+00  0.1133E+02
   8.020  0.7926E+00  0.1134E+02
   8.030  0.7923E+00  0.1135E+02
   8.040  0.7906E+00  0.1135E+02
   8.050  0.7876E+00  0.1136E+02
   8.060  0.7835E+00  0.1137E+02
   8.070  0.7784E+00  0.1138E+02
   8.080  0.7727E+00  0.1139E+02
   8.090  0.7667E+00  0.1139E+02
   8.100  0.7607E+00  0.1140E+02
   8.110  0.7551E+00  0.1141E+02
   8.120  0.7501E+00  0.1142E+02
   8.130  0.7462E+00  0.1142E+02
   8.140  0.7436E+00  0.1143E+02
   8.150  0.7424E+00  0.1144E+02
   8.160  0.7427E+00  0.1145E+02
   8.170  0.7447E+00  0.1145E+02
   8.180  0.7481E+00  0.1146E+02
   8.190  0.7530E+00  0.1147E+02
   8.200  0.7590E+00  0.1148E+02
   8.210  0.7659E+00  0.1148E+02
   8.220  0.7734E+00  0.1149E+02
   8.230  0.7811E+00  0.1150E+02
   8.240  0.7887E+00  0.1151E+02
   8.250  0.7957E+00  0.1151E+02
   8.260  0.8021E+00  0.1152E+02
   8.270  0.8074E+00  0.1153E+02
   8.280  0.8116E+00  0.1154E+02
   8.290  0.8146E+00  0.1155E+02
   8.300  0.8164E+00  0.1156E+02
   8.310  0.8171E+00  0.1156E+02
   8.320  0.8169E+00  0.1157E+02
   8.330  0.8160E+00  0.1158E+02
   8.340  0.8147E+00  0.1159E+02
   8.350  0.8135E+00  0.1160E+02
   8.360  0.8127E+00  0.1160E+02
   8.370  0.8126E+00  0.1161E+02
   8.380  0.8136E+00  0.1162E+02
   8.390  0.8161E+00  0.1163E+02
   8.400  0.8202E+00  0.1164E+02
   8.410  0.8261E+00  0.1165E+02
   8.420  0.8341E+00  0.1165E+02
   8.430  0.8440E+00  0.1166E+02
   8.440  0.8560E+00  0.1167E+02
   8.450  0.8699E+00  0.1168E+02
   8.460  0.8855E+00  0.1169E+02
   8.470  0.9027E+00  0.1170E+02
   8.480  0.9212E+00  0.1171E+02
   8.490  0.9407E+00  0.1172E+02
   8.500  0.9609E+00  0.1173E+02
   8.510  0.9816E+00  0.1174E+02
   8.520  0.1002E+01  0.1175E+02
   8.530  0.1023E+01  0.1176E+02
   8.540  0.1043E+01  0.1177E+02
   8.550  0.1062E+01  0.1178E+02
   8.560  0.1080E+01  0.1179E+02
   8.570  0.1097E+01  0.1180E+02
   8.580  0.1112E+01  0.1181E+02
   8.590  0.1125E+01  0.1182E+02
   8.600  0.1135E+01  0.1183E+02
   8.610  0.1143E+01  0.1184E+02
   8.620  0.1148E+01  0.1185E+02
   8.630  0.1151E+01  0.1187E+02
   8.640  0.1150E+01  0.1188E+02
   8.650  0.1147E+01  0.1189E+02
   8.660  0.1140E+01  0.1190E+02
   8.670  0.1131E+01  0.1191E+02
   8.680  0.1119E+01  0.1192E+02
   8.690  0.1104E+01  0.1193E+02
   8.700  0.1087E+01  0.1195E+02
   8.710  0.1068E+01  0.1196E+02
   8.720  0.1047E+01  0.1197E+02
   8.730  0.1025E+01  0.1198E+02
   8.740  0.1003E+01  0.1199E+02
   8.750  0.9802E+00  0.1200E+02
   8.760  0.9576E+00  0.1201E+02
   8.770  0.9356E+00  0.1202E+02
   8.780  0.9146E+00  0.1202E+02
   8.790  0.8950E+00  0.1203E+02
   8.800  0.8770E+00  0.1204E+02
   8.810  0.8610E+00  0.1205E+02
   8.820  0.8470E+00  0.1206E+02
   8.830  0.8353E+00  0.1207E+02
   8.840  0.8257E+00  0.1208E+02
   8.850  0.8184E+00  0.1208E+02
   8.860  0.8131E+00  0.1209E+02
   8.870  0.8098E+00  0.1210E+02
   8.880  0.8081E+00  0.1211E+02
   8.890  0.8078E+00  0.1212E+02
   8.900  0.8087E+00  0.1212E+02
   8.910  0.8103E+00  0.1213E+02
   8.920  0.8123E+00  0.1214E+02
   8.930  0.8144E+00  0.1215E+02
   8.940  0.8163E+00  0.1216E+02
   8.950  0.8175E+00  0.1217E+02
   8.960  0.8180E+00  0.1217E+02
   8.970  0.8174E+00  0.1218E+02
   8.980  0.8155E+00  0.1219E+02
   8.990  0.8123E+00  0.1220E+02
   9.000  0.8076E+00  0.1221E+02
   9.010  0.8015E+00  0.1221E+02
   9.020  0.7938E+00  0.1222E+02
   9.030  0.7847E+00  0.1223E+02
   9.040  0.7743E+00  0.1224E+02
   9.050  0.7627E+00  0.1225E+02
   9.060  0.7499E+00  0.1225E+02
   9.070  0.7361E+00  0.1226E+02
   9.080  0.7216E+00  0.1227E+02
   9.090  0.7063E+00  0.1227E+02
   9.100  0.6905E+00  0.1228E+02
   9.110  0.6743E+00  0.1229E+02
   9.120  0.6578E+00  0.1229E+02
   9.130  0.6412E+00  0.1230E+02
   9.140  0.6245E+00  0.1231E+02
   9.150  0.6079E+00  0.1231E+02
   9.160  0.5915E+00  0.1232E+02
   9.170  0.5754E+00  0.1232E+02
   9.180  0.5597E+00  0.1233E+02
   9.190  0.5444E+00  0.1234E+02
   9.200  0.5297E+00  0.1234E+02
   9.210  0.5155E+00  0.1235E+02
   9.220  0.5021E+00  0.1235E+02
   9.230  0.4894E+00  0.1236E+02
   9.240  0.4775E+00  0.1236E+02
   9.250  0.4664E+00  0.1237E+02
   9.260  0.4560E+00  0.1237E+02
   9.270  0.4464E+00  0.1237E+02
   9.280  0.4376E+00  0.1238E+02
   9.290  0.4294E+00  0.1238E+02
   9.300  0.4217E+00  0.1239E+02
   9.310  0.4145E+00  0.1239E+02
   9.320  0.4076E+00  0.1240E+02
   9.330  0.4008E+00  0.1240E+02
   9.340  0.3941E+00  0.1240E+02
   9.350  0.3872E+00  0.1241E+02
   9.360  0.3800E+00  0.1241E+02
   9.370  0.3724E+00  0.1242E+02
   9.380  0.3644E+00  0.1242E+02
   9.390  0.3558E+00  0.1242E+02
   9.400  0.3467E+00  0.1243E+02
   9.410  0.3370E+00  0.1243E+02
   9.420  0.3267E+00  0.1243E+02
   9.430  0.3160E+00  0.1244E+02
   9.440  0.3049E+00  0.1244E+02
   9.450  0.2936E+00  0.1244E+02
   9.460  0.2822E+00  0.1244E+02
   9.470  0.2709E+00  0.1245E+02
   9.480  0.2597E+00  0.1245E+02
   9.490  0.2488E+00  0.1245E+02
   9.500  0.2383E+00  0.1245E+02
   9.510  0.2284E+00  0.1246E+02
   9.520  0.2191E+00  0.1246E+02
   9.530  0.2103E+00  0.1246E+02
   9.540  0.2023E+00  0.1246E+02
   9.550  0.1949E+00  0.1247E+02
   9.560  0.1880E+00  0.1247E+02
   9.570  0.1818E+00  0.1247E+02
   9.580  0.1761E+00  0.1247E+02
   9.590  0.1709E+00  0.1247E+02
   9.600  0.1660E+00  0.1247E+02
   9.610  0.1616E+00  0.1248E+02
   9.620  0.1575E+00  0.1248E+02
   9.630  0.1538E+00  0.1248E+02
   9.640  0.1505E+00  0.1248E+02
   9.650  0.1475E+00  0.1248E+02
   9.660  0.1450E+00  0.1248E+02
   9.670  0.1429E+00  0.1248E+02
   9.680  0.1415E+00  0.1249E+02
   9.690  0.1406E+00  0.1249E+02
   9.700  0.1404E+00  0.1249E+02
   9.710  0.1410E+00  0.1249E+02
   9.720  0.1423E+00  0.1249E+02
   9.730  0.1444E+00  0.1249E+02
   9.740  0.1472E+00  0.1249E+02
   9.750  0.1507E+00  0.1250E+02
   9.760  0.1548E+00  0.1250E+02
   9.770  0.1594E+00  0.1250E+02
   9.780  0.1644E+00  0.1250E+02
   9.790  0.1696E+00  0.1250E+02
   9.800  0.1748E+00  0.1250E+02
   9.810  0.1800E+00  0.1251E+02
   9.820  0.1848E+00  0.1251E+02
   9.830  0.1893E+00  0.1251E+02
   9.840  0.1931E+00  0.1251E+02
   9.850  0.1962E+00  0.1251E+02
   9.860  0.1985E+00  0.1252E+02
   9.870  0.1999E+00  0.1252E+02
   9.880  0.2004E+00  0.1252E+02
   9.890  0.2000E+00  0.1252E+02
   9.900  0.1987E+00  0.1252E+02
   9.910  0.1965E+00  0.1253E+02
   9.920  0.1936E+00  0.1253E+02
   9.930  0.1901E+00  0.1253E+02
   9.940  0.1860E+00  0.1253E+02
   9.950  0.1817E+00  0.1253E+02
   9.960  0.1771E+00  0.1253E+02
   9.970  0.1725E+00  0.1254E+02
   9.980  0.1680E+00  0.1254E+02
   9.990  0.1637E+00  0.1254E+02
  10.000  0.1598E+00  0.1254E+02
