# E (eV)   ldos(E)   pdos(E)   
 -21.796  0.190E-06  0.190E-06
 -21.786  0.321E-06  0.321E-06
 -21.776  0.536E-06  0.536E-06
 -21.766  0.884E-06  0.884E-06
 -21.756  0.144E-05  0.144E-05
 -21.746  0.233E-05  0.233E-05
 -21.736  0.371E-05  0.371E-05
 -21.726  0.586E-05  0.586E-05
 -21.716  0.914E-05  0.914E-05
 -21.706  0.141E-04  0.141E-04
 -21.696  0.215E-04  0.215E-04
 -21.686  0.325E-04  0.325E-04
 -21.676  0.485E-04  0.485E-04
 -21.666  0.716E-04  0.716E-04
 -21.656  0.104E-03  0.104E-03
 -21.646  0.151E-03  0.151E-03
 -21.636  0.215E-03  0.215E-03
 -21.626  0.304E-03  0.304E-03
 -21.616  0.424E-03  0.424E-03
 -21.606  0.585E-03  0.585E-03
 -21.596  0.798E-03  0.798E-03
 -21.586  0.108E-02  0.108E-02
 -21.576  0.144E-02  0.144E-02
 -21.566  0.190E-02  0.190E-02
 -21.556  0.248E-02  0.248E-02
 -21.546  0.320E-02  0.320E-02
 -21.536  0.408E-02  0.408E-02
 -21.526  0.516E-02  0.516E-02
 -21.516  0.645E-02  0.645E-02
 -21.506  0.797E-02  0.797E-02
 -21.496  0.976E-02  0.976E-02
 -21.486  0.118E-01  0.118E-01
 -21.476  0.142E-01  0.142E-01
 -21.466  0.168E-01  0.168E-01
 -21.456  0.198E-01  0.198E-01
 -21.446  0.231E-01  0.231E-01
 -21.436  0.268E-01  0.268E-01
 -21.426  0.308E-01  0.308E-01
 -21.416  0.351E-01  0.351E-01
 -21.406  0.397E-01  0.397E-01
 -21.396  0.448E-01  0.448E-01
 -21.386  0.502E-01  0.502E-01
 -21.376  0.560E-01  0.560E-01
 -21.366  0.623E-01  0.623E-01
 -21.356  0.691E-01  0.691E-01
 -21.346  0.765E-01  0.765E-01
 -21.336  0.845E-01  0.845E-01
 -21.326  0.931E-01  0.931E-01
 -21.316  0.102E+00  0.102E+00
 -21.306  0.112E+00  0.112E+00
 -21.296  0.123E+00  0.123E+00
 -21.286  0.134E+00  0.134E+00
 -21.276  0.145E+00  0.145E+00
 -21.266  0.157E+00  0.157E+00
 -21.256  0.168E+00  0.168E+00
 -21.246  0.179E+00  0.179E+00
 -21.236  0.189E+00  0.189E+00
 -21.226  0.198E+00  0.198E+00
 -21.216  0.205E+00  0.205E+00
 -21.206  0.210E+00  0.210E+00
 -21.196  0.212E+00  0.212E+00
 -21.186  0.212E+00  0.212E+00
 -21.176  0.210E+00  0.210E+00
 -21.166  0.204E+00  0.204E+00
 -21.156  0.196E+00  0.196E+00
 -21.146  0.185E+00  0.185E+00
 -21.136  0.172E+00  0.172E+00
 -21.126  0.157E+00  0.157E+00
 -21.116  0.140E+00  0.140E+00
 -21.106  0.123E+00  0.123E+00
 -21.096  0.105E+00  0.105E+00
 -21.086  0.882E-01  0.882E-01
 -21.076  0.721E-01  0.721E-01
 -21.066  0.576E-01  0.576E-01
 -21.056  0.451E-01  0.451E-01
 -21.046  0.351E-01  0.351E-01
 -21.036  0.278E-01  0.278E-01
 -21.026  0.236E-01  0.236E-01
 -21.016  0.224E-01  0.224E-01
 -21.006  0.242E-01  0.242E-01
 -20.996  0.291E-01  0.291E-01
 -20.986  0.367E-01  0.367E-01
 -20.976  0.468E-01  0.468E-01
 -20.966  0.592E-01  0.592E-01
 -20.956  0.733E-01  0.733E-01
 -20.946  0.889E-01  0.889E-01
 -20.936  0.105E+00  0.105E+00
 -20.926  0.122E+00  0.122E+00
 -20.916  0.139E+00  0.139E+00
 -20.906  0.156E+00  0.156E+00
 -20.896  0.171E+00  0.171E+00
 -20.886  0.186E+00  0.186E+00
 -20.876  0.198E+00  0.198E+00
 -20.866  0.209E+00  0.209E+00
 -20.856  0.218E+00  0.218E+00
 -20.846  0.225E+00  0.225E+00
 -20.836  0.229E+00  0.229E+00
 -20.826  0.232E+00  0.232E+00
 -20.816  0.233E+00  0.233E+00
 -20.806  0.232E+00  0.232E+00
 -20.796  0.230E+00  0.230E+00
 -20.786  0.227E+00  0.227E+00
 -20.776  0.223E+00  0.223E+00
 -20.766  0.219E+00  0.219E+00
 -20.756  0.214E+00  0.214E+00
 -20.746  0.209E+00  0.209E+00
 -20.736  0.204E+00  0.204E+00
 -20.726  0.199E+00  0.199E+00
 -20.716  0.194E+00  0.194E+00
 -20.706  0.188E+00  0.188E+00
 -20.696  0.181E+00  0.181E+00
 -20.686  0.174E+00  0.174E+00
 -20.676  0.165E+00  0.165E+00
 -20.666  0.156E+00  0.156E+00
 -20.656  0.145E+00  0.145E+00
 -20.646  0.133E+00  0.133E+00
 -20.636  0.120E+00  0.120E+00
 -20.626  0.106E+00  0.106E+00
 -20.616  0.922E-01  0.922E-01
 -20.606  0.776E-01  0.776E-01
 -20.596  0.631E-01  0.631E-01
 -20.586  0.489E-01  0.489E-01
 -20.576  0.355E-01  0.355E-01
 -20.566  0.231E-01  0.231E-01
 -20.556  0.120E-01  0.120E-01
 -20.546  0.229E-02  0.229E-02
 -20.536 -0.580E-02 -0.580E-02
 -20.526 -0.123E-01 -0.123E-01
 -20.516 -0.171E-01 -0.171E-01
 -20.506 -0.203E-01 -0.203E-01
 -20.496 -0.221E-01 -0.221E-01
 -20.486 -0.226E-01 -0.226E-01
 -20.476 -0.219E-01 -0.219E-01
 -20.466 -0.201E-01 -0.201E-01
 -20.456 -0.174E-01 -0.174E-01
 -20.446 -0.138E-01 -0.138E-01
 -20.436 -0.943E-02 -0.943E-02
 -20.426 -0.426E-02 -0.426E-02
 -20.416  0.173E-02  0.173E-02
 -20.406  0.861E-02  0.861E-02
 -20.396  0.165E-01  0.165E-01
 -20.386  0.255E-01  0.255E-01
 -20.376  0.358E-01  0.358E-01
 -20.366  0.476E-01  0.476E-01
 -20.356  0.609E-01  0.609E-01
 -20.346  0.759E-01  0.759E-01
 -20.336  0.925E-01  0.925E-01
 -20.326  0.111E+00  0.111E+00
 -20.316  0.131E+00  0.131E+00
 -20.306  0.152E+00  0.152E+00
 -20.296  0.175E+00  0.175E+00
 -20.286  0.198E+00  0.198E+00
 -20.276  0.221E+00  0.221E+00
 -20.266  0.244E+00  0.244E+00
 -20.256  0.265E+00  0.265E+00
 -20.246  0.285E+00  0.285E+00
 -20.236  0.302E+00  0.302E+00
 -20.226  0.316E+00  0.316E+00
 -20.216  0.326E+00  0.326E+00
 -20.206  0.332E+00  0.332E+00
 -20.196  0.332E+00  0.332E+00
 -20.186  0.328E+00  0.328E+00
 -20.176  0.319E+00  0.319E+00
 -20.166  0.305E+00  0.305E+00
 -20.156  0.287E+00  0.287E+00
 -20.146  0.265E+00  0.265E+00
 -20.136  0.240E+00  0.240E+00
 -20.126  0.212E+00  0.212E+00
 -20.116  0.184E+00  0.184E+00
 -20.106  0.155E+00  0.155E+00
 -20.096  0.127E+00  0.127E+00
 -20.086  0.101E+00  0.101E+00
 -20.076  0.770E-01  0.770E-01
 -20.066  0.560E-01  0.560E-01
 -20.056  0.386E-01  0.386E-01
 -20.046  0.250E-01  0.250E-01
 -20.036  0.155E-01  0.155E-01
 -20.026  0.101E-01  0.101E-01
 -20.016  0.853E-02  0.853E-02
 -20.006  0.107E-01  0.107E-01
 -19.996  0.161E-01  0.161E-01
 -19.986  0.244E-01  0.244E-01
 -19.976  0.351E-01  0.351E-01
 -19.966  0.475E-01  0.475E-01
 -19.956  0.611E-01  0.611E-01
 -19.946  0.753E-01  0.753E-01
 -19.936  0.895E-01  0.895E-01
 -19.926  0.103E+00  0.103E+00
 -19.916  0.116E+00  0.116E+00
 -19.906  0.127E+00  0.127E+00
 -19.896  0.136E+00  0.136E+00
 -19.886  0.143E+00  0.143E+00
 -19.876  0.147E+00  0.147E+00
 -19.866  0.148E+00  0.148E+00
 -19.856  0.147E+00  0.147E+00
 -19.846  0.143E+00  0.143E+00
 -19.836  0.137E+00  0.137E+00
 -19.826  0.129E+00  0.129E+00
 -19.816  0.118E+00  0.118E+00
 -19.806  0.106E+00  0.106E+00
 -19.796  0.931E-01  0.931E-01
 -19.786  0.794E-01  0.794E-01
 -19.776  0.655E-01  0.655E-01
 -19.766  0.519E-01  0.519E-01
 -19.756  0.390E-01  0.390E-01
 -19.746  0.270E-01  0.270E-01
 -19.736  0.162E-01  0.162E-01
 -19.726  0.684E-02  0.684E-02
 -19.716 -0.101E-02 -0.101E-02
 -19.706 -0.731E-02 -0.731E-02
 -19.696 -0.121E-01 -0.121E-01
 -19.686 -0.154E-01 -0.154E-01
 -19.676 -0.175E-01 -0.175E-01
 -19.666 -0.183E-01 -0.183E-01
 -19.656 -0.181E-01 -0.181E-01
 -19.646 -0.171E-01 -0.171E-01
 -19.636 -0.153E-01 -0.153E-01
 -19.626 -0.130E-01 -0.130E-01
 -19.616 -0.101E-01 -0.101E-01
 -19.606 -0.670E-02 -0.670E-02
 -19.596 -0.291E-02 -0.291E-02
 -19.586  0.131E-02  0.131E-02
 -19.576  0.599E-02  0.599E-02
 -19.566  0.112E-01  0.112E-01
 -19.556  0.169E-01  0.169E-01
 -19.546  0.233E-01  0.233E-01
 -19.536  0.304E-01  0.304E-01
 -19.526  0.382E-01  0.382E-01
 -19.516  0.468E-01  0.468E-01
 -19.506  0.563E-01  0.563E-01
 -19.496  0.665E-01  0.665E-01
 -19.486  0.774E-01  0.774E-01
 -19.476  0.889E-01  0.889E-01
 -19.466  0.101E+00  0.101E+00
 -19.456  0.113E+00  0.113E+00
 -19.446  0.126E+00  0.126E+00
 -19.436  0.139E+00  0.139E+00
 -19.426  0.151E+00  0.151E+00
 -19.416  0.163E+00  0.163E+00
 -19.406  0.175E+00  0.175E+00
 -19.396  0.186E+00  0.186E+00
 -19.386  0.197E+00  0.197E+00
 -19.376  0.207E+00  0.207E+00
 -19.366  0.216E+00  0.216E+00
 -19.356  0.225E+00  0.225E+00
 -19.346  0.233E+00  0.233E+00
 -19.336  0.241E+00  0.241E+00
 -19.326  0.249E+00  0.249E+00
 -19.316  0.256E+00  0.256E+00
 -19.306  0.263E+00  0.263E+00
 -19.296  0.270E+00  0.270E+00
 -19.286  0.276E+00  0.276E+00
 -19.276  0.281E+00  0.281E+00
 -19.266  0.285E+00  0.285E+00
 -19.256  0.287E+00  0.287E+00
 -19.246  0.288E+00  0.288E+00
 -19.236  0.286E+00  0.286E+00
 -19.226  0.281E+00  0.281E+00
 -19.216  0.274E+00  0.274E+00
 -19.206  0.264E+00  0.264E+00
 -19.196  0.251E+00  0.251E+00
 -19.186  0.235E+00  0.235E+00
 -19.176  0.216E+00  0.216E+00
 -19.166  0.196E+00  0.196E+00
 -19.156  0.173E+00  0.173E+00
 -19.146  0.150E+00  0.150E+00
 -19.136  0.125E+00  0.125E+00
 -19.126  0.101E+00  0.101E+00
 -19.116  0.783E-01  0.783E-01
 -19.106  0.565E-01  0.565E-01
 -19.096  0.365E-01  0.365E-01
 -19.086  0.188E-01  0.188E-01
 -19.076  0.350E-02  0.350E-02
 -19.066 -0.916E-02 -0.916E-02
 -19.056 -0.192E-01 -0.192E-01
 -19.046 -0.266E-01 -0.266E-01
 -19.036 -0.317E-01 -0.317E-01
 -19.026 -0.345E-01 -0.345E-01
 -19.016 -0.355E-01 -0.355E-01
 -19.006 -0.349E-01 -0.349E-01
 -18.996 -0.329E-01 -0.329E-01
 -18.986 -0.299E-01 -0.299E-01
 -18.976 -0.260E-01 -0.260E-01
 -18.966 -0.216E-01 -0.216E-01
 -18.956 -0.166E-01 -0.166E-01
 -18.946 -0.113E-01 -0.113E-01
 -18.936 -0.560E-02 -0.560E-02
 -18.926  0.379E-03  0.379E-03
 -18.916  0.669E-02  0.669E-02
 -18.906  0.134E-01  0.134E-01
 -18.896  0.204E-01  0.204E-01
 -18.886  0.280E-01  0.280E-01
 -18.876  0.360E-01  0.360E-01
 -18.866  0.445E-01  0.445E-01
 -18.856  0.535E-01  0.535E-01
 -18.846  0.628E-01  0.628E-01
 -18.836  0.724E-01  0.724E-01
 -18.826  0.821E-01  0.821E-01
 -18.816  0.917E-01  0.917E-01
 -18.806  0.101E+00  0.101E+00
 -18.796  0.110E+00  0.110E+00
 -18.786  0.118E+00  0.118E+00
 -18.776  0.124E+00  0.124E+00
 -18.766  0.129E+00  0.129E+00
 -18.756  0.133E+00  0.133E+00
 -18.746  0.135E+00  0.135E+00
 -18.736  0.134E+00  0.134E+00
 -18.726  0.132E+00  0.132E+00
 -18.716  0.128E+00  0.128E+00
 -18.706  0.121E+00  0.121E+00
 -18.696  0.113E+00  0.113E+00
 -18.686  0.104E+00  0.104E+00
 -18.676  0.932E-01  0.932E-01
 -18.666  0.817E-01  0.817E-01
 -18.656  0.697E-01  0.697E-01
 -18.646  0.576E-01  0.576E-01
 -18.636  0.458E-01  0.458E-01
 -18.626  0.345E-01  0.345E-01
 -18.616  0.241E-01  0.241E-01
 -18.606  0.147E-01  0.147E-01
 -18.596  0.664E-02  0.664E-02
 -18.586 -0.133E-03 -0.133E-03
 -18.576 -0.553E-02 -0.553E-02
 -18.566 -0.956E-02 -0.956E-02
 -18.556 -0.123E-01 -0.123E-01
 -18.546 -0.138E-01 -0.138E-01
 -18.536 -0.141E-01 -0.141E-01
 -18.526 -0.134E-01 -0.134E-01
 -18.516 -0.117E-01 -0.117E-01
 -18.506 -0.922E-02 -0.922E-02
 -18.496 -0.586E-02 -0.586E-02
 -18.486 -0.170E-02 -0.170E-02
 -18.476  0.329E-02  0.329E-02
 -18.466  0.913E-02  0.913E-02
 -18.456  0.159E-01  0.159E-01
 -18.446  0.237E-01  0.237E-01
 -18.436  0.326E-01  0.326E-01
 -18.426  0.427E-01  0.427E-01
 -18.416  0.540E-01  0.540E-01
 -18.406  0.667E-01  0.667E-01
 -18.396  0.806E-01  0.806E-01
 -18.386  0.958E-01  0.958E-01
 -18.376  0.112E+00  0.112E+00
 -18.366  0.129E+00  0.129E+00
 -18.356  0.147E+00  0.147E+00
 -18.346  0.165E+00  0.165E+00
 -18.336  0.182E+00  0.182E+00
 -18.326  0.199E+00  0.199E+00
 -18.316  0.215E+00  0.215E+00
 -18.306  0.229E+00  0.229E+00
 -18.296  0.240E+00  0.240E+00
 -18.286  0.248E+00  0.248E+00
 -18.276  0.254E+00  0.254E+00
 -18.266  0.255E+00  0.255E+00
 -18.256  0.253E+00  0.253E+00
 -18.246  0.247E+00  0.247E+00
 -18.236  0.238E+00  0.238E+00
 -18.226  0.225E+00  0.225E+00
 -18.216  0.209E+00  0.209E+00
 -18.206  0.191E+00  0.191E+00
 -18.196  0.171E+00  0.171E+00
 -18.186  0.151E+00  0.151E+00
 -18.176  0.130E+00  0.130E+00
 -18.166  0.110E+00  0.110E+00
 -18.156  0.917E-01  0.917E-01
 -18.146  0.754E-01  0.754E-01
 -18.136  0.619E-01  0.619E-01
 -18.126  0.516E-01  0.516E-01
 -18.116  0.449E-01  0.449E-01
 -18.106  0.420E-01  0.420E-01
 -18.096  0.430E-01  0.430E-01
 -18.086  0.478E-01  0.478E-01
 -18.076  0.562E-01  0.562E-01
 -18.066  0.678E-01  0.678E-01
 -18.056  0.822E-01  0.822E-01
 -18.046  0.988E-01  0.988E-01
 -18.036  0.117E+00  0.117E+00
 -18.026  0.136E+00  0.136E+00
 -18.016  0.156E+00  0.156E+00
 -18.006  0.175E+00  0.175E+00
 -17.996  0.193E+00  0.193E+00
 -17.986  0.208E+00  0.208E+00
 -17.976  0.222E+00  0.222E+00
 -17.966  0.232E+00  0.232E+00
 -17.956  0.238E+00  0.238E+00
 -17.946  0.241E+00  0.241E+00
 -17.936  0.240E+00  0.240E+00
 -17.926  0.234E+00  0.234E+00
 -17.916  0.225E+00  0.225E+00
 -17.906  0.212E+00  0.212E+00
 -17.896  0.196E+00  0.196E+00
 -17.886  0.178E+00  0.178E+00
 -17.876  0.158E+00  0.158E+00
 -17.866  0.136E+00  0.136E+00
 -17.856  0.114E+00  0.114E+00
 -17.846  0.919E-01  0.919E-01
 -17.836  0.707E-01  0.707E-01
 -17.826  0.508E-01  0.508E-01
 -17.816  0.328E-01  0.328E-01
 -17.806  0.168E-01  0.168E-01
 -17.796  0.324E-02  0.324E-02
 -17.786 -0.795E-02 -0.795E-02
 -17.776 -0.167E-01 -0.167E-01
 -17.766 -0.232E-01 -0.232E-01
 -17.756 -0.276E-01 -0.276E-01
 -17.746 -0.301E-01 -0.301E-01
 -17.736 -0.311E-01 -0.311E-01
 -17.726 -0.308E-01 -0.308E-01
 -17.716 -0.295E-01 -0.295E-01
 -17.706 -0.274E-01 -0.274E-01
 -17.696 -0.249E-01 -0.249E-01
 -17.686 -0.222E-01 -0.222E-01
 -17.676 -0.193E-01 -0.193E-01
 -17.666 -0.165E-01 -0.165E-01
 -17.656 -0.139E-01 -0.139E-01
 -17.646 -0.114E-01 -0.114E-01
 -17.636 -0.923E-02 -0.923E-02
 -17.626 -0.726E-02 -0.726E-02
 -17.616 -0.552E-02 -0.552E-02
 -17.606 -0.398E-02 -0.398E-02
 -17.596 -0.259E-02 -0.259E-02
 -17.586 -0.131E-02 -0.131E-02
 -17.576 -0.719E-04 -0.719E-04
 -17.566  0.119E-02  0.119E-02
 -17.556  0.254E-02  0.254E-02
 -17.546  0.406E-02  0.406E-02
 -17.536  0.582E-02  0.582E-02
 -17.526  0.789E-02  0.789E-02
 -17.516  0.104E-01  0.104E-01
 -17.506  0.133E-01  0.133E-01
 -17.496  0.168E-01  0.168E-01
 -17.486  0.209E-01  0.209E-01
 -17.476  0.256E-01  0.256E-01
 -17.466  0.310E-01  0.310E-01
 -17.456  0.371E-01  0.371E-01
 -17.446  0.438E-01  0.438E-01
 -17.436  0.511E-01  0.511E-01
 -17.426  0.589E-01  0.589E-01
 -17.416  0.670E-01  0.670E-01
 -17.406  0.754E-01  0.754E-01
 -17.396  0.837E-01  0.837E-01
 -17.386  0.917E-01  0.917E-01
 -17.376  0.993E-01  0.993E-01
 -17.366  0.106E+00  0.106E+00
 -17.356  0.112E+00  0.112E+00
 -17.346  0.116E+00  0.116E+00
 -17.336  0.119E+00  0.119E+00
 -17.326  0.121E+00  0.121E+00
 -17.316  0.120E+00  0.120E+00
 -17.306  0.118E+00  0.118E+00
 -17.296  0.114E+00  0.114E+00
 -17.286  0.109E+00  0.109E+00
 -17.276  0.102E+00  0.102E+00
 -17.266  0.939E-01  0.939E-01
 -17.256  0.851E-01  0.851E-01
 -17.246  0.758E-01  0.758E-01
 -17.236  0.665E-01  0.665E-01
 -17.226  0.574E-01  0.574E-01
 -17.216  0.491E-01  0.491E-01
 -17.206  0.417E-01  0.417E-01
 -17.196  0.357E-01  0.357E-01
 -17.186  0.313E-01  0.313E-01
 -17.176  0.286E-01  0.286E-01
 -17.166  0.278E-01  0.278E-01
 -17.156  0.289E-01  0.289E-01
 -17.146  0.319E-01  0.319E-01
 -17.136  0.367E-01  0.367E-01
 -17.126  0.432E-01  0.432E-01
 -17.116  0.512E-01  0.512E-01
 -17.106  0.605E-01  0.605E-01
 -17.096  0.708E-01  0.708E-01
 -17.086  0.818E-01  0.818E-01
 -17.076  0.934E-01  0.934E-01
 -17.066  0.105E+00  0.105E+00
 -17.056  0.117E+00  0.117E+00
 -17.046  0.129E+00  0.129E+00
 -17.036  0.140E+00  0.140E+00
 -17.026  0.151E+00  0.151E+00
 -17.016  0.162E+00  0.162E+00
 -17.006  0.171E+00  0.171E+00
 -16.996  0.181E+00  0.181E+00
 -16.986  0.190E+00  0.190E+00
 -16.976  0.198E+00  0.198E+00
 -16.966  0.205E+00  0.205E+00
 -16.956  0.213E+00  0.213E+00
 -16.946  0.219E+00  0.219E+00
 -16.936  0.225E+00  0.225E+00
 -16.926  0.230E+00  0.230E+00
 -16.916  0.234E+00  0.234E+00
 -16.906  0.236E+00  0.236E+00
 -16.896  0.237E+00  0.237E+00
 -16.886  0.236E+00  0.236E+00
 -16.876  0.234E+00  0.234E+00
 -16.866  0.229E+00  0.229E+00
 -16.856  0.221E+00  0.221E+00
 -16.846  0.212E+00  0.212E+00
 -16.836  0.200E+00  0.200E+00
 -16.826  0.186E+00  0.186E+00
 -16.816  0.170E+00  0.170E+00
 -16.806  0.152E+00  0.152E+00
 -16.796  0.133E+00  0.133E+00
 -16.786  0.114E+00  0.114E+00
 -16.776  0.944E-01  0.944E-01
 -16.766  0.753E-01  0.753E-01
 -16.756  0.570E-01  0.570E-01
 -16.746  0.400E-01  0.400E-01
 -16.736  0.247E-01  0.247E-01
 -16.726  0.113E-01  0.113E-01
 -16.716  0.440E-04  0.440E-04
 -16.706 -0.898E-02 -0.898E-02
 -16.696 -0.157E-01 -0.157E-01
 -16.686 -0.203E-01 -0.203E-01
 -16.676 -0.227E-01 -0.227E-01
 -16.666 -0.231E-01 -0.231E-01
 -16.656 -0.217E-01 -0.217E-01
 -16.646 -0.186E-01 -0.186E-01
 -16.636 -0.140E-01 -0.140E-01
 -16.626 -0.796E-02 -0.796E-02
 -16.616 -0.607E-03 -0.607E-03
 -16.606  0.799E-02  0.799E-02
 -16.596  0.178E-01  0.178E-01
 -16.586  0.288E-01  0.288E-01
 -16.576  0.410E-01  0.410E-01
 -16.566  0.542E-01  0.542E-01
 -16.556  0.686E-01  0.686E-01
 -16.546  0.840E-01  0.840E-01
 -16.536  0.100E+00  0.100E+00
 -16.526  0.117E+00  0.117E+00
 -16.516  0.134E+00  0.134E+00
 -16.506  0.152E+00  0.152E+00
 -16.496  0.168E+00  0.168E+00
 -16.486  0.185E+00  0.185E+00
 -16.476  0.199E+00  0.199E+00
 -16.466  0.212E+00  0.212E+00
 -16.456  0.223E+00  0.223E+00
 -16.446  0.231E+00  0.231E+00
 -16.436  0.236E+00  0.236E+00
 -16.426  0.237E+00  0.237E+00
 -16.416  0.235E+00  0.235E+00
 -16.406  0.229E+00  0.229E+00
 -16.396  0.220E+00  0.220E+00
 -16.386  0.207E+00  0.207E+00
 -16.376  0.192E+00  0.192E+00
 -16.366  0.174E+00  0.174E+00
 -16.356  0.154E+00  0.154E+00
 -16.346  0.134E+00  0.134E+00
 -16.336  0.112E+00  0.112E+00
 -16.326  0.912E-01  0.912E-01
 -16.316  0.707E-01  0.707E-01
 -16.306  0.515E-01  0.515E-01
 -16.296  0.340E-01  0.340E-01
 -16.286  0.185E-01  0.185E-01
 -16.276  0.522E-02  0.522E-02
 -16.266 -0.575E-02 -0.575E-02
 -16.256 -0.144E-01 -0.144E-01
 -16.246 -0.208E-01 -0.208E-01
 -16.236 -0.251E-01 -0.251E-01
 -16.226 -0.276E-01 -0.276E-01
 -16.216 -0.284E-01 -0.284E-01
 -16.206 -0.278E-01 -0.278E-01
 -16.196 -0.262E-01 -0.262E-01
 -16.186 -0.237E-01 -0.237E-01
 -16.176 -0.205E-01 -0.205E-01
 -16.166 -0.168E-01 -0.168E-01
 -16.156 -0.128E-01 -0.128E-01
 -16.146 -0.847E-02 -0.847E-02
 -16.136 -0.398E-02 -0.398E-02
 -16.126  0.664E-03  0.664E-03
 -16.116  0.545E-02  0.545E-02
 -16.106  0.104E-01  0.104E-01
 -16.096  0.154E-01  0.154E-01
 -16.086  0.206E-01  0.206E-01
 -16.076  0.260E-01  0.260E-01
 -16.066  0.314E-01  0.314E-01
 -16.056  0.368E-01  0.368E-01
 -16.046  0.423E-01  0.423E-01
 -16.036  0.476E-01  0.476E-01
 -16.026  0.527E-01  0.527E-01
 -16.016  0.574E-01  0.574E-01
 -16.006  0.616E-01  0.616E-01
 -15.996  0.652E-01  0.652E-01
 -15.986  0.680E-01  0.680E-01
 -15.976  0.698E-01  0.698E-01
 -15.966  0.707E-01  0.707E-01
 -15.956  0.706E-01  0.706E-01
 -15.946  0.694E-01  0.694E-01
 -15.936  0.671E-01  0.671E-01
 -15.926  0.638E-01  0.638E-01
 -15.916  0.596E-01  0.596E-01
 -15.906  0.547E-01  0.547E-01
 -15.896  0.491E-01  0.491E-01
 -15.886  0.432E-01  0.432E-01
 -15.876  0.370E-01  0.370E-01
 -15.866  0.309E-01  0.309E-01
 -15.856  0.251E-01  0.251E-01
 -15.846  0.196E-01  0.196E-01
 -15.836  0.148E-01  0.148E-01
 -15.826  0.108E-01  0.108E-01
 -15.816  0.780E-02  0.780E-02
 -15.806  0.587E-02  0.587E-02
 -15.796  0.514E-02  0.514E-02
 -15.786  0.575E-02  0.575E-02
 -15.776  0.777E-02  0.777E-02
 -15.766  0.113E-01  0.113E-01
 -15.756  0.165E-01  0.165E-01
 -15.746  0.234E-01  0.234E-01
 -15.736  0.321E-01  0.321E-01
 -15.726  0.427E-01  0.427E-01
 -15.716  0.552E-01  0.552E-01
 -15.706  0.698E-01  0.698E-01
 -15.696  0.863E-01  0.863E-01
 -15.686  0.105E+00  0.105E+00
 -15.676  0.125E+00  0.125E+00
 -15.666  0.147E+00  0.147E+00
 -15.656  0.170E+00  0.170E+00
 -15.646  0.194E+00  0.194E+00
 -15.636  0.218E+00  0.218E+00
 -15.626  0.242E+00  0.242E+00
 -15.616  0.265E+00  0.265E+00
 -15.606  0.286E+00  0.286E+00
 -15.596  0.305E+00  0.305E+00
 -15.586  0.321E+00  0.321E+00
 -15.576  0.333E+00  0.333E+00
 -15.566  0.340E+00  0.340E+00
 -15.556  0.343E+00  0.343E+00
 -15.546  0.340E+00  0.340E+00
 -15.536  0.333E+00  0.333E+00
 -15.526  0.320E+00  0.320E+00
 -15.516  0.303E+00  0.303E+00
 -15.506  0.281E+00  0.281E+00
 -15.496  0.256E+00  0.256E+00
 -15.486  0.228E+00  0.228E+00
 -15.476  0.198E+00  0.198E+00
 -15.466  0.168E+00  0.168E+00
 -15.456  0.137E+00  0.137E+00
 -15.446  0.108E+00  0.108E+00
 -15.436  0.797E-01  0.797E-01
 -15.426  0.540E-01  0.540E-01
 -15.416  0.311E-01  0.311E-01
 -15.406  0.114E-01  0.114E-01
 -15.396 -0.497E-02 -0.497E-02
 -15.386 -0.180E-01 -0.180E-01
 -15.376 -0.277E-01 -0.277E-01
 -15.366 -0.345E-01 -0.345E-01
 -15.356 -0.384E-01 -0.384E-01
 -15.346 -0.400E-01 -0.400E-01
 -15.336 -0.396E-01 -0.396E-01
 -15.326 -0.376E-01 -0.376E-01
 -15.316 -0.343E-01 -0.343E-01
 -15.306 -0.302E-01 -0.302E-01
 -15.296 -0.255E-01 -0.255E-01
 -15.286 -0.204E-01 -0.204E-01
 -15.276 -0.153E-01 -0.153E-01
 -15.266 -0.102E-01 -0.102E-01
 -15.256 -0.532E-02 -0.532E-02
 -15.246 -0.717E-03 -0.717E-03
 -15.236  0.353E-02  0.353E-02
 -15.226  0.738E-02  0.738E-02
 -15.216  0.108E-01  0.108E-01
 -15.206  0.137E-01  0.137E-01
 -15.196  0.162E-01  0.162E-01
 -15.186  0.182E-01  0.182E-01
 -15.176  0.198E-01  0.198E-01
 -15.166  0.208E-01  0.208E-01
 -15.156  0.213E-01  0.213E-01
 -15.146  0.214E-01  0.214E-01
 -15.136  0.211E-01  0.211E-01
 -15.126  0.204E-01  0.204E-01
 -15.116  0.193E-01  0.193E-01
 -15.106  0.179E-01  0.179E-01
 -15.096  0.162E-01  0.162E-01
 -15.086  0.144E-01  0.144E-01
 -15.076  0.125E-01  0.125E-01
 -15.066  0.105E-01  0.105E-01
 -15.056  0.848E-02  0.848E-02
 -15.046  0.658E-02  0.658E-02
 -15.036  0.482E-02  0.482E-02
 -15.026  0.323E-02  0.323E-02
 -15.016  0.186E-02  0.186E-02
 -15.006  0.740E-03  0.740E-03
 -14.996 -0.121E-03 -0.121E-03
 -14.986 -0.710E-03 -0.710E-03
 -14.976 -0.102E-02 -0.102E-02
 -14.966 -0.105E-02 -0.105E-02
 -14.956 -0.810E-03 -0.810E-03
 -14.946 -0.293E-03 -0.293E-03
 -14.936  0.494E-03  0.494E-03
 -14.926  0.155E-02  0.155E-02
 -14.916  0.288E-02  0.288E-02
 -14.906  0.448E-02  0.448E-02
 -14.896  0.637E-02  0.637E-02
 -14.886  0.853E-02  0.853E-02
 -14.876  0.110E-01  0.110E-01
 -14.866  0.137E-01  0.137E-01
 -14.856  0.167E-01  0.167E-01
 -14.846  0.199E-01  0.199E-01
 -14.836  0.233E-01  0.233E-01
 -14.826  0.268E-01  0.268E-01
 -14.816  0.304E-01  0.304E-01
 -14.806  0.340E-01  0.340E-01
 -14.796  0.375E-01  0.375E-01
 -14.786  0.408E-01  0.408E-01
 -14.776  0.438E-01  0.438E-01
 -14.766  0.463E-01  0.463E-01
 -14.756  0.484E-01  0.484E-01
 -14.746  0.498E-01  0.498E-01
 -14.736  0.506E-01  0.506E-01
 -14.726  0.507E-01  0.507E-01
 -14.716  0.500E-01  0.500E-01
 -14.706  0.487E-01  0.487E-01
 -14.696  0.467E-01  0.467E-01
 -14.686  0.442E-01  0.442E-01
 -14.676  0.412E-01  0.412E-01
 -14.666  0.380E-01  0.380E-01
 -14.656  0.347E-01  0.347E-01
 -14.646  0.315E-01  0.315E-01
 -14.636  0.285E-01  0.285E-01
 -14.626  0.261E-01  0.261E-01
 -14.616  0.243E-01  0.243E-01
 -14.606  0.234E-01  0.234E-01
 -14.596  0.236E-01  0.236E-01
 -14.586  0.248E-01  0.248E-01
 -14.576  0.273E-01  0.273E-01
 -14.566  0.312E-01  0.312E-01
 -14.556  0.363E-01  0.363E-01
 -14.546  0.427E-01  0.427E-01
 -14.536  0.503E-01  0.503E-01
 -14.526  0.591E-01  0.591E-01
 -14.516  0.687E-01  0.687E-01
 -14.506  0.791E-01  0.791E-01
 -14.496  0.899E-01  0.899E-01
 -14.486  0.101E+00  0.101E+00
 -14.476  0.112E+00  0.112E+00
 -14.466  0.123E+00  0.123E+00
 -14.456  0.132E+00  0.132E+00
 -14.446  0.141E+00  0.141E+00
 -14.436  0.149E+00  0.149E+00
 -14.426  0.155E+00  0.155E+00
 -14.416  0.160E+00  0.160E+00
 -14.406  0.163E+00  0.163E+00
 -14.396  0.164E+00  0.164E+00
 -14.386  0.163E+00  0.163E+00
 -14.376  0.160E+00  0.160E+00
 -14.366  0.156E+00  0.156E+00
 -14.356  0.150E+00  0.150E+00
 -14.346  0.142E+00  0.142E+00
 -14.336  0.134E+00  0.134E+00
 -14.326  0.125E+00  0.125E+00
 -14.316  0.115E+00  0.115E+00
 -14.306  0.104E+00  0.104E+00
 -14.296  0.935E-01  0.935E-01
 -14.286  0.828E-01  0.828E-01
 -14.276  0.722E-01  0.722E-01
 -14.266  0.620E-01  0.620E-01
 -14.256  0.521E-01  0.521E-01
 -14.246  0.428E-01  0.428E-01
 -14.236  0.341E-01  0.341E-01
 -14.226  0.261E-01  0.261E-01
 -14.216  0.188E-01  0.188E-01
 -14.206  0.123E-01  0.123E-01
 -14.196  0.653E-02  0.653E-02
 -14.186  0.160E-02  0.160E-02
 -14.176 -0.254E-02 -0.254E-02
 -14.166 -0.592E-02 -0.592E-02
 -14.156 -0.857E-02 -0.857E-02
 -14.146 -0.105E-01 -0.105E-01
 -14.136 -0.119E-01 -0.119E-01
 -14.126 -0.126E-01 -0.126E-01
 -14.116 -0.129E-01 -0.129E-01
 -14.106 -0.128E-01 -0.128E-01
 -14.096 -0.123E-01 -0.123E-01
 -14.086 -0.116E-01 -0.116E-01
 -14.076 -0.107E-01 -0.107E-01
 -14.066 -0.963E-02 -0.963E-02
 -14.056 -0.852E-02 -0.852E-02
 -14.046 -0.737E-02 -0.737E-02
 -14.036 -0.622E-02 -0.622E-02
 -14.026 -0.508E-02 -0.508E-02
 -14.016 -0.396E-02 -0.396E-02
 -14.006 -0.284E-02 -0.284E-02
 -13.996 -0.172E-02 -0.172E-02
 -13.986 -0.557E-03 -0.557E-03
 -13.976  0.696E-03  0.696E-03
 -13.966  0.209E-02  0.209E-02
 -13.956  0.369E-02  0.369E-02
 -13.946  0.557E-02  0.557E-02
 -13.936  0.782E-02  0.782E-02
 -13.926  0.105E-01  0.105E-01
 -13.916  0.137E-01  0.137E-01
 -13.906  0.176E-01  0.176E-01
 -13.896  0.221E-01  0.221E-01
 -13.886  0.275E-01  0.275E-01
 -13.876  0.336E-01  0.336E-01
 -13.866  0.407E-01  0.407E-01
 -13.856  0.486E-01  0.486E-01
 -13.846  0.573E-01  0.573E-01
 -13.836  0.668E-01  0.668E-01
 -13.826  0.770E-01  0.770E-01
 -13.816  0.876E-01  0.876E-01
 -13.806  0.984E-01  0.984E-01
 -13.796  0.109E+00  0.109E+00
 -13.786  0.120E+00  0.120E+00
 -13.776  0.130E+00  0.130E+00
 -13.766  0.139E+00  0.139E+00
 -13.756  0.147E+00  0.147E+00
 -13.746  0.154E+00  0.154E+00
 -13.736  0.159E+00  0.159E+00
 -13.726  0.162E+00  0.162E+00
 -13.716  0.163E+00  0.163E+00
 -13.706  0.162E+00  0.162E+00
 -13.696  0.160E+00  0.160E+00
 -13.686  0.155E+00  0.155E+00
 -13.676  0.149E+00  0.149E+00
 -13.666  0.142E+00  0.142E+00
 -13.656  0.134E+00  0.134E+00
 -13.646  0.126E+00  0.126E+00
 -13.636  0.117E+00  0.117E+00
 -13.626  0.108E+00  0.108E+00
 -13.616  0.990E-01  0.990E-01
 -13.606  0.907E-01  0.907E-01
 -13.596  0.831E-01  0.831E-01
 -13.586  0.761E-01  0.761E-01
 -13.576  0.698E-01  0.698E-01
 -13.566  0.642E-01  0.642E-01
 -13.556  0.591E-01  0.591E-01
 -13.546  0.544E-01  0.544E-01
 -13.536  0.501E-01  0.501E-01
 -13.526  0.459E-01  0.459E-01
 -13.516  0.419E-01  0.419E-01
 -13.506  0.379E-01  0.379E-01
 -13.496  0.339E-01  0.339E-01
 -13.486  0.298E-01  0.298E-01
 -13.476  0.258E-01  0.258E-01
 -13.466  0.219E-01  0.219E-01
 -13.456  0.181E-01  0.181E-01
 -13.446  0.148E-01  0.148E-01
 -13.436  0.118E-01  0.118E-01
 -13.426  0.954E-02  0.954E-02
 -13.416  0.799E-02  0.799E-02
 -13.406  0.731E-02  0.731E-02
 -13.396  0.761E-02  0.761E-02
 -13.386  0.898E-02  0.898E-02
 -13.376  0.115E-01  0.115E-01
 -13.366  0.151E-01  0.151E-01
 -13.356  0.200E-01  0.200E-01
 -13.346  0.259E-01  0.259E-01
 -13.336  0.329E-01  0.329E-01
 -13.326  0.409E-01  0.409E-01
 -13.316  0.497E-01  0.497E-01
 -13.306  0.591E-01  0.591E-01
 -13.296  0.690E-01  0.690E-01
 -13.286  0.791E-01  0.791E-01
 -13.276  0.892E-01  0.892E-01
 -13.266  0.988E-01  0.988E-01
 -13.256  0.108E+00  0.108E+00
 -13.246  0.116E+00  0.116E+00
 -13.236  0.123E+00  0.123E+00
 -13.226  0.128E+00  0.128E+00
 -13.216  0.131E+00  0.131E+00
 -13.206  0.133E+00  0.133E+00
 -13.196  0.132E+00  0.132E+00
 -13.186  0.130E+00  0.130E+00
 -13.176  0.125E+00  0.125E+00
 -13.166  0.118E+00  0.118E+00
 -13.156  0.110E+00  0.110E+00
 -13.146  0.100E+00  0.100E+00
 -13.136  0.895E-01  0.895E-01
 -13.126  0.780E-01  0.780E-01
 -13.116  0.660E-01  0.660E-01
 -13.106  0.540E-01  0.540E-01
 -13.096  0.424E-01  0.424E-01
 -13.086  0.314E-01  0.314E-01
 -13.076  0.213E-01  0.213E-01
 -13.066  0.122E-01  0.122E-01
 -13.056  0.442E-02  0.442E-02
 -13.046 -0.210E-02 -0.210E-02
 -13.036 -0.731E-02 -0.731E-02
 -13.026 -0.113E-01 -0.113E-01
 -13.016 -0.140E-01 -0.140E-01
 -13.006 -0.158E-01 -0.158E-01
 -12.996 -0.166E-01 -0.166E-01
 -12.986 -0.167E-01 -0.167E-01
 -12.976 -0.161E-01 -0.161E-01
 -12.966 -0.152E-01 -0.152E-01
 -12.956 -0.139E-01 -0.139E-01
 -12.946 -0.125E-01 -0.125E-01
 -12.936 -0.110E-01 -0.110E-01
 -12.926 -0.948E-02 -0.948E-02
 -12.916 -0.804E-02 -0.804E-02
 -12.906 -0.671E-02 -0.671E-02
 -12.896 -0.551E-02 -0.551E-02
 -12.886 -0.446E-02 -0.446E-02
 -12.876 -0.355E-02 -0.355E-02
 -12.866 -0.279E-02 -0.279E-02
 -12.856 -0.216E-02 -0.216E-02
 -12.846 -0.165E-02 -0.165E-02
 -12.836 -0.125E-02 -0.125E-02
 -12.826 -0.924E-03 -0.924E-03
 -12.816 -0.672E-03 -0.672E-03
 -12.806 -0.476E-03 -0.476E-03
 -12.796 -0.323E-03 -0.323E-03
 -12.786 -0.201E-03 -0.201E-03
 -12.776 -0.977E-04 -0.977E-04
 -12.766 -0.294E-05 -0.294E-05
 -12.756  0.942E-04  0.942E-04
 -12.746  0.205E-03  0.205E-03
 -12.736  0.343E-03  0.343E-03
 -12.726  0.522E-03  0.522E-03
 -12.716  0.762E-03  0.762E-03
 -12.706  0.108E-02  0.108E-02
 -12.696  0.151E-02  0.151E-02
 -12.686  0.208E-02  0.208E-02
 -12.676  0.283E-02  0.283E-02
 -12.666  0.381E-02  0.381E-02
 -12.656  0.506E-02  0.506E-02
 -12.646  0.664E-02  0.664E-02
 -12.636  0.862E-02  0.862E-02
 -12.626  0.111E-01  0.111E-01
 -12.616  0.140E-01  0.140E-01
 -12.606  0.176E-01  0.176E-01
 -12.596  0.218E-01  0.218E-01
 -12.586  0.266E-01  0.266E-01
 -12.576  0.323E-01  0.323E-01
 -12.566  0.386E-01  0.386E-01
 -12.556  0.456E-01  0.456E-01
 -12.546  0.533E-01  0.533E-01
 -12.536  0.615E-01  0.615E-01
 -12.526  0.701E-01  0.701E-01
 -12.516  0.790E-01  0.790E-01
 -12.506  0.880E-01  0.880E-01
 -12.496  0.968E-01  0.968E-01
 -12.486  0.105E+00  0.105E+00
 -12.476  0.113E+00  0.113E+00
 -12.466  0.120E+00  0.120E+00
 -12.456  0.126E+00  0.126E+00
 -12.446  0.130E+00  0.130E+00
 -12.436  0.134E+00  0.134E+00
 -12.426  0.135E+00  0.135E+00
 -12.416  0.136E+00  0.136E+00
 -12.406  0.134E+00  0.134E+00
 -12.396  0.132E+00  0.132E+00
 -12.386  0.128E+00  0.128E+00
 -12.376  0.124E+00  0.124E+00
 -12.366  0.118E+00  0.118E+00
 -12.356  0.112E+00  0.112E+00
 -12.346  0.106E+00  0.106E+00
 -12.336  0.999E-01  0.999E-01
 -12.326  0.939E-01  0.939E-01
 -12.316  0.882E-01  0.882E-01
 -12.306  0.830E-01  0.830E-01
 -12.296  0.781E-01  0.781E-01
 -12.286  0.737E-01  0.737E-01
 -12.276  0.695E-01  0.695E-01
 -12.266  0.657E-01  0.657E-01
 -12.256  0.619E-01  0.619E-01
 -12.246  0.582E-01  0.582E-01
 -12.236  0.544E-01  0.544E-01
 -12.226  0.504E-01  0.504E-01
 -12.216  0.462E-01  0.462E-01
 -12.206  0.417E-01  0.417E-01
 -12.196  0.369E-01  0.369E-01
 -12.186  0.320E-01  0.320E-01
 -12.176  0.269E-01  0.269E-01
 -12.166  0.218E-01  0.218E-01
 -12.156  0.169E-01  0.169E-01
 -12.146  0.121E-01  0.121E-01
 -12.136  0.763E-02  0.763E-02
 -12.126  0.360E-02  0.360E-02
 -12.116  0.617E-04  0.617E-04
 -12.106 -0.293E-02 -0.293E-02
 -12.096 -0.535E-02 -0.535E-02
 -12.086 -0.721E-02 -0.721E-02
 -12.076 -0.852E-02 -0.852E-02
 -12.066 -0.932E-02 -0.932E-02
 -12.056 -0.968E-02 -0.968E-02
 -12.046 -0.967E-02 -0.967E-02
 -12.036 -0.935E-02 -0.935E-02
 -12.026 -0.880E-02 -0.880E-02
 -12.016 -0.809E-02 -0.809E-02
 -12.006 -0.728E-02 -0.728E-02
 -11.996 -0.643E-02 -0.643E-02
 -11.986 -0.557E-02 -0.557E-02
 -11.976 -0.474E-02 -0.474E-02
 -11.966 -0.397E-02 -0.397E-02
 -11.956 -0.326E-02 -0.326E-02
 -11.946 -0.263E-02 -0.263E-02
 -11.936 -0.208E-02 -0.208E-02
 -11.926 -0.160E-02 -0.160E-02
 -11.916 -0.119E-02 -0.119E-02
 -11.906 -0.819E-03 -0.819E-03
 -11.896 -0.491E-03 -0.491E-03
 -11.886 -0.183E-03 -0.183E-03
 -11.876  0.121E-03  0.121E-03
 -11.866  0.441E-03  0.441E-03
 -11.856  0.797E-03  0.797E-03
 -11.846  0.121E-02  0.121E-02
 -11.836  0.170E-02  0.170E-02
 -11.826  0.230E-02  0.230E-02
 -11.816  0.303E-02  0.303E-02
 -11.806  0.391E-02  0.391E-02
 -11.796  0.496E-02  0.496E-02
 -11.786  0.622E-02  0.622E-02
 -11.776  0.770E-02  0.770E-02
 -11.766  0.942E-02  0.942E-02
 -11.756  0.114E-01  0.114E-01
 -11.746  0.136E-01  0.136E-01
 -11.736  0.160E-01  0.160E-01
 -11.726  0.187E-01  0.187E-01
 -11.716  0.215E-01  0.215E-01
 -11.706  0.245E-01  0.245E-01
 -11.696  0.276E-01  0.276E-01
 -11.686  0.307E-01  0.307E-01
 -11.676  0.338E-01  0.338E-01
 -11.666  0.368E-01  0.368E-01
 -11.656  0.396E-01  0.396E-01
 -11.646  0.421E-01  0.421E-01
 -11.636  0.444E-01  0.444E-01
 -11.626  0.462E-01  0.462E-01
 -11.616  0.478E-01  0.478E-01
 -11.606  0.489E-01  0.489E-01
 -11.596  0.497E-01  0.497E-01
 -11.586  0.502E-01  0.502E-01
 -11.576  0.504E-01  0.504E-01
 -11.566  0.504E-01  0.504E-01
 -11.556  0.504E-01  0.504E-01
 -11.546  0.504E-01  0.504E-01
 -11.536  0.505E-01  0.505E-01
 -11.526  0.508E-01  0.508E-01
 -11.516  0.513E-01  0.513E-01
 -11.506  0.522E-01  0.522E-01
 -11.496  0.534E-01  0.534E-01
 -11.486  0.549E-01  0.549E-01
 -11.476  0.568E-01  0.568E-01
 -11.466  0.590E-01  0.590E-01
 -11.456  0.615E-01  0.615E-01
 -11.446  0.642E-01  0.642E-01
 -11.436  0.670E-01  0.670E-01
 -11.426  0.700E-01  0.700E-01
 -11.416  0.731E-01  0.731E-01
 -11.406  0.762E-01  0.762E-01
 -11.396  0.794E-01  0.794E-01
 -11.386  0.826E-01  0.826E-01
 -11.376  0.859E-01  0.859E-01
 -11.366  0.892E-01  0.892E-01
 -11.356  0.925E-01  0.925E-01
 -11.346  0.959E-01  0.959E-01
 -11.336  0.991E-01  0.991E-01
 -11.326  0.102E+00  0.102E+00
 -11.316  0.105E+00  0.105E+00
 -11.306  0.108E+00  0.108E+00
 -11.296  0.110E+00  0.110E+00
 -11.286  0.111E+00  0.111E+00
 -11.276  0.111E+00  0.111E+00
 -11.266  0.111E+00  0.111E+00
 -11.256  0.109E+00  0.109E+00
 -11.246  0.106E+00  0.106E+00
 -11.236  0.102E+00  0.102E+00
 -11.226  0.965E-01  0.965E-01
 -11.216  0.899E-01  0.899E-01
 -11.206  0.824E-01  0.824E-01
 -11.196  0.740E-01  0.740E-01
 -11.186  0.649E-01  0.649E-01
 -11.176  0.556E-01  0.556E-01
 -11.166  0.461E-01  0.461E-01
 -11.156  0.368E-01  0.368E-01
 -11.146  0.279E-01  0.279E-01
 -11.136  0.197E-01  0.197E-01
 -11.126  0.123E-01  0.123E-01
 -11.116  0.593E-02  0.593E-02
 -11.106  0.599E-03  0.599E-03
 -11.096 -0.362E-02 -0.362E-02
 -11.086 -0.673E-02 -0.673E-02
 -11.076 -0.878E-02 -0.878E-02
 -11.066 -0.983E-02 -0.983E-02
 -11.056 -0.100E-01 -0.100E-01
 -11.046 -0.939E-02 -0.939E-02
 -11.036 -0.816E-02 -0.816E-02
 -11.026 -0.642E-02 -0.642E-02
 -11.016 -0.430E-02 -0.430E-02
 -11.006 -0.195E-02 -0.195E-02
 -10.996  0.545E-03  0.545E-03
 -10.986  0.306E-02  0.306E-02
 -10.976  0.552E-02  0.552E-02
 -10.966  0.783E-02  0.783E-02
 -10.956  0.994E-02  0.994E-02
 -10.946  0.118E-01  0.118E-01
 -10.936  0.133E-01  0.133E-01
 -10.926  0.145E-01  0.145E-01
 -10.916  0.154E-01  0.154E-01
 -10.906  0.159E-01  0.159E-01
 -10.896  0.160E-01  0.160E-01
 -10.886  0.158E-01  0.158E-01
 -10.876  0.153E-01  0.153E-01
 -10.866  0.144E-01  0.144E-01
 -10.856  0.134E-01  0.134E-01
 -10.846  0.121E-01  0.121E-01
 -10.836  0.107E-01  0.107E-01
 -10.826  0.922E-02  0.922E-02
 -10.816  0.769E-02  0.769E-02
 -10.806  0.616E-02  0.616E-02
 -10.796  0.470E-02  0.470E-02
 -10.786  0.333E-02  0.333E-02
 -10.776  0.209E-02  0.209E-02
 -10.766  0.100E-02  0.100E-02
 -10.756  0.791E-04  0.791E-04
 -10.746 -0.676E-03 -0.676E-03
 -10.736 -0.126E-02 -0.126E-02
 -10.726 -0.169E-02 -0.169E-02
 -10.716 -0.198E-02 -0.198E-02
 -10.706 -0.213E-02 -0.213E-02
 -10.696 -0.218E-02 -0.218E-02
 -10.686 -0.215E-02 -0.215E-02
 -10.676 -0.204E-02 -0.204E-02
 -10.666 -0.189E-02 -0.189E-02
 -10.656 -0.170E-02 -0.170E-02
 -10.646 -0.149E-02 -0.149E-02
 -10.636 -0.127E-02 -0.127E-02
 -10.626 -0.105E-02 -0.105E-02
 -10.616 -0.830E-03 -0.830E-03
 -10.606 -0.607E-03 -0.607E-03
 -10.596 -0.377E-03 -0.377E-03
 -10.586 -0.132E-03 -0.132E-03
 -10.576  0.139E-03  0.139E-03
 -10.566  0.453E-03  0.453E-03
 -10.556  0.830E-03  0.830E-03
 -10.546  0.130E-02  0.130E-02
 -10.536  0.188E-02  0.188E-02
 -10.526  0.262E-02  0.262E-02
 -10.516  0.355E-02  0.355E-02
 -10.506  0.472E-02  0.472E-02
 -10.496  0.617E-02  0.617E-02
 -10.486  0.797E-02  0.797E-02
 -10.476  0.101E-01  0.101E-01
 -10.466  0.128E-01  0.128E-01
 -10.456  0.159E-01  0.159E-01
 -10.446  0.195E-01  0.195E-01
 -10.436  0.237E-01  0.237E-01
 -10.426  0.284E-01  0.284E-01
 -10.416  0.337E-01  0.337E-01
 -10.406  0.394E-01  0.394E-01
 -10.396  0.456E-01  0.456E-01
 -10.386  0.522E-01  0.522E-01
 -10.376  0.589E-01  0.589E-01
 -10.366  0.658E-01  0.658E-01
 -10.356  0.725E-01  0.725E-01
 -10.346  0.789E-01  0.789E-01
 -10.336  0.847E-01  0.847E-01
 -10.326  0.899E-01  0.899E-01
 -10.316  0.942E-01  0.942E-01
 -10.306  0.974E-01  0.974E-01
 -10.296  0.994E-01  0.994E-01
 -10.286  0.100E+00  0.100E+00
 -10.276  0.995E-01  0.995E-01
 -10.266  0.975E-01  0.975E-01
 -10.256  0.942E-01  0.942E-01
 -10.246  0.899E-01  0.899E-01
 -10.236  0.845E-01  0.845E-01
 -10.226  0.783E-01  0.783E-01
 -10.216  0.716E-01  0.716E-01
 -10.206  0.645E-01  0.645E-01
 -10.196  0.573E-01  0.573E-01
 -10.186  0.503E-01  0.503E-01
 -10.176  0.436E-01  0.436E-01
 -10.166  0.374E-01  0.374E-01
 -10.156  0.319E-01  0.319E-01
 -10.146  0.271E-01  0.271E-01
 -10.136  0.231E-01  0.231E-01
 -10.126  0.200E-01  0.200E-01
 -10.116  0.176E-01  0.176E-01
 -10.106  0.160E-01  0.160E-01
 -10.096  0.151E-01  0.151E-01
 -10.086  0.149E-01  0.149E-01
 -10.076  0.153E-01  0.153E-01
 -10.066  0.161E-01  0.161E-01
 -10.056  0.174E-01  0.174E-01
 -10.046  0.190E-01  0.190E-01
 -10.036  0.208E-01  0.208E-01
 -10.026  0.227E-01  0.227E-01
 -10.016  0.248E-01  0.248E-01
 -10.006  0.268E-01  0.268E-01
  -9.996  0.288E-01  0.288E-01
  -9.986  0.306E-01  0.306E-01
  -9.976  0.321E-01  0.321E-01
  -9.966  0.333E-01  0.333E-01
  -9.956  0.341E-01  0.341E-01
  -9.946  0.345E-01  0.345E-01
  -9.936  0.344E-01  0.344E-01
  -9.926  0.337E-01  0.337E-01
  -9.916  0.326E-01  0.326E-01
  -9.906  0.309E-01  0.309E-01
  -9.896  0.289E-01  0.289E-01
  -9.886  0.264E-01  0.264E-01
  -9.876  0.236E-01  0.236E-01
  -9.866  0.206E-01  0.206E-01
  -9.856  0.175E-01  0.175E-01
  -9.846  0.143E-01  0.143E-01
  -9.836  0.113E-01  0.113E-01
  -9.826  0.835E-02  0.835E-02
  -9.816  0.567E-02  0.567E-02
  -9.806  0.329E-02  0.329E-02
  -9.796  0.127E-02  0.127E-02
  -9.786 -0.382E-03 -0.382E-03
  -9.776 -0.164E-02 -0.164E-02
  -9.766 -0.249E-02 -0.249E-02
  -9.756 -0.295E-02 -0.295E-02
  -9.746 -0.304E-02 -0.304E-02
  -9.736 -0.276E-02 -0.276E-02
  -9.726 -0.215E-02 -0.215E-02
  -9.716 -0.123E-02 -0.123E-02
  -9.706 -0.818E-05 -0.818E-05
  -9.696  0.150E-02  0.150E-02
  -9.686  0.327E-02  0.327E-02
  -9.676  0.530E-02  0.530E-02
  -9.666  0.759E-02  0.759E-02
  -9.656  0.101E-01  0.101E-01
  -9.646  0.129E-01  0.129E-01
  -9.636  0.159E-01  0.159E-01
  -9.626  0.190E-01  0.190E-01
  -9.616  0.223E-01  0.223E-01
  -9.606  0.258E-01  0.258E-01
  -9.596  0.293E-01  0.293E-01
  -9.586  0.328E-01  0.328E-01
  -9.576  0.362E-01  0.362E-01
  -9.566  0.395E-01  0.395E-01
  -9.556  0.426E-01  0.426E-01
  -9.546  0.454E-01  0.454E-01
  -9.536  0.479E-01  0.479E-01
  -9.526  0.499E-01  0.499E-01
  -9.516  0.516E-01  0.516E-01
  -9.506  0.528E-01  0.528E-01
  -9.496  0.535E-01  0.535E-01
  -9.486  0.538E-01  0.538E-01
  -9.476  0.538E-01  0.538E-01
  -9.466  0.533E-01  0.533E-01
  -9.456  0.526E-01  0.526E-01
  -9.446  0.516E-01  0.516E-01
  -9.436  0.505E-01  0.505E-01
  -9.426  0.493E-01  0.493E-01
  -9.416  0.480E-01  0.480E-01
  -9.406  0.468E-01  0.468E-01
  -9.396  0.456E-01  0.456E-01
  -9.386  0.445E-01  0.445E-01
  -9.376  0.436E-01  0.436E-01
  -9.366  0.427E-01  0.427E-01
  -9.356  0.420E-01  0.420E-01
  -9.346  0.414E-01  0.414E-01
  -9.336  0.410E-01  0.410E-01
  -9.326  0.407E-01  0.407E-01
  -9.316  0.404E-01  0.404E-01
  -9.306  0.403E-01  0.403E-01
  -9.296  0.403E-01  0.403E-01
  -9.286  0.403E-01  0.403E-01
  -9.276  0.404E-01  0.404E-01
  -9.266  0.404E-01  0.404E-01
  -9.256  0.404E-01  0.404E-01
  -9.246  0.403E-01  0.403E-01
  -9.236  0.400E-01  0.400E-01
  -9.226  0.396E-01  0.396E-01
  -9.216  0.388E-01  0.388E-01
  -9.206  0.378E-01  0.378E-01
  -9.196  0.364E-01  0.364E-01
  -9.186  0.347E-01  0.347E-01
  -9.176  0.326E-01  0.326E-01
  -9.166  0.302E-01  0.302E-01
  -9.156  0.275E-01  0.275E-01
  -9.146  0.246E-01  0.246E-01
  -9.136  0.215E-01  0.215E-01
  -9.126  0.182E-01  0.182E-01
  -9.116  0.150E-01  0.150E-01
  -9.106  0.118E-01  0.118E-01
  -9.096  0.874E-02  0.874E-02
  -9.086  0.591E-02  0.591E-02
  -9.076  0.336E-02  0.336E-02
  -9.066  0.114E-02  0.114E-02
  -9.056 -0.727E-03 -0.727E-03
  -9.046 -0.222E-02 -0.222E-02
  -9.036 -0.334E-02 -0.334E-02
  -9.026 -0.410E-02 -0.410E-02
  -9.016 -0.452E-02 -0.452E-02
  -9.006 -0.463E-02 -0.463E-02
  -8.996 -0.447E-02 -0.447E-02
  -8.986 -0.408E-02 -0.408E-02
  -8.976 -0.349E-02 -0.349E-02
  -8.966 -0.273E-02 -0.273E-02
  -8.956 -0.185E-02 -0.185E-02
  -8.946 -0.849E-03 -0.849E-03
  -8.936  0.231E-03  0.231E-03
  -8.926  0.138E-02  0.138E-02
  -8.916  0.257E-02  0.257E-02
  -8.906  0.379E-02  0.379E-02
  -8.896  0.503E-02  0.503E-02
  -8.886  0.628E-02  0.628E-02
  -8.876  0.750E-02  0.750E-02
  -8.866  0.869E-02  0.869E-02
  -8.856  0.982E-02  0.982E-02
  -8.846  0.109E-01  0.109E-01
  -8.836  0.118E-01  0.118E-01
  -8.826  0.126E-01  0.126E-01
  -8.816  0.132E-01  0.132E-01
  -8.806  0.137E-01  0.137E-01
  -8.796  0.139E-01  0.139E-01
  -8.786  0.140E-01  0.140E-01
  -8.776  0.138E-01  0.138E-01
  -8.766  0.134E-01  0.134E-01
  -8.756  0.128E-01  0.128E-01
  -8.746  0.121E-01  0.121E-01
  -8.736  0.111E-01  0.111E-01
  -8.726  0.101E-01  0.101E-01
  -8.716  0.893E-02  0.893E-02
  -8.706  0.776E-02  0.776E-02
  -8.696  0.658E-02  0.658E-02
  -8.686  0.544E-02  0.544E-02
  -8.676  0.439E-02  0.439E-02
  -8.666  0.346E-02  0.346E-02
  -8.656  0.269E-02  0.269E-02
  -8.646  0.208E-02  0.208E-02
  -8.636  0.167E-02  0.167E-02
  -8.626  0.147E-02  0.147E-02
  -8.616  0.147E-02  0.147E-02
  -8.606  0.169E-02  0.169E-02
  -8.596  0.210E-02  0.210E-02
  -8.586  0.270E-02  0.270E-02
  -8.576  0.348E-02  0.348E-02
  -8.566  0.440E-02  0.440E-02
  -8.556  0.545E-02  0.545E-02
  -8.546  0.661E-02  0.661E-02
  -8.536  0.783E-02  0.783E-02
  -8.526  0.911E-02  0.911E-02
  -8.516  0.104E-01  0.104E-01
  -8.506  0.117E-01  0.117E-01
  -8.496  0.130E-01  0.130E-01
  -8.486  0.142E-01  0.142E-01
  -8.476  0.153E-01  0.153E-01
  -8.466  0.164E-01  0.164E-01
  -8.456  0.174E-01  0.174E-01
  -8.446  0.184E-01  0.184E-01
  -8.436  0.194E-01  0.194E-01
  -8.426  0.203E-01  0.203E-01
  -8.416  0.213E-01  0.213E-01
  -8.406  0.224E-01  0.224E-01
  -8.396  0.236E-01  0.236E-01
  -8.386  0.250E-01  0.250E-01
  -8.376  0.266E-01  0.266E-01
  -8.366  0.285E-01  0.285E-01
  -8.356  0.306E-01  0.306E-01
  -8.346  0.331E-01  0.331E-01
  -8.336  0.359E-01  0.359E-01
  -8.326  0.389E-01  0.389E-01
  -8.316  0.423E-01  0.423E-01
  -8.306  0.458E-01  0.458E-01
  -8.296  0.494E-01  0.494E-01
  -8.286  0.531E-01  0.531E-01
  -8.276  0.566E-01  0.566E-01
  -8.266  0.599E-01  0.599E-01
  -8.256  0.629E-01  0.629E-01
  -8.246  0.653E-01  0.653E-01
  -8.236  0.671E-01  0.671E-01
  -8.226  0.682E-01  0.682E-01
  -8.216  0.685E-01  0.685E-01
  -8.206  0.680E-01  0.680E-01
  -8.196  0.665E-01  0.665E-01
  -8.186  0.641E-01  0.641E-01
  -8.176  0.608E-01  0.608E-01
  -8.166  0.568E-01  0.568E-01
  -8.156  0.521E-01  0.521E-01
  -8.146  0.469E-01  0.469E-01
  -8.136  0.412E-01  0.412E-01
  -8.126  0.354E-01  0.354E-01
  -8.116  0.294E-01  0.294E-01
  -8.106  0.236E-01  0.236E-01
  -8.096  0.181E-01  0.181E-01
  -8.086  0.129E-01  0.129E-01
  -8.076  0.821E-02  0.821E-02
  -8.066  0.411E-02  0.411E-02
  -8.056  0.639E-03  0.639E-03
  -8.046 -0.218E-02 -0.218E-02
  -8.036 -0.435E-02 -0.435E-02
  -8.026 -0.589E-02 -0.589E-02
  -8.016 -0.684E-02 -0.684E-02
  -8.006 -0.727E-02 -0.727E-02
  -7.996 -0.724E-02 -0.724E-02
  -7.986 -0.681E-02 -0.681E-02
  -7.976 -0.606E-02 -0.606E-02
  -7.966 -0.505E-02 -0.505E-02
  -7.956 -0.384E-02 -0.384E-02
  -7.946 -0.249E-02 -0.249E-02
  -7.936 -0.104E-02 -0.104E-02
  -7.926  0.472E-03  0.472E-03
  -7.916  0.200E-02  0.200E-02
  -7.906  0.353E-02  0.353E-02
  -7.896  0.502E-02  0.502E-02
  -7.886  0.645E-02  0.645E-02
  -7.876  0.780E-02  0.780E-02
  -7.866  0.905E-02  0.905E-02
  -7.856  0.102E-01  0.102E-01
  -7.846  0.111E-01  0.111E-01
  -7.836  0.119E-01  0.119E-01
  -7.826  0.125E-01  0.125E-01
  -7.816  0.129E-01  0.129E-01
  -7.806  0.131E-01  0.131E-01
  -7.796  0.131E-01  0.131E-01
  -7.786  0.128E-01  0.128E-01
  -7.776  0.123E-01  0.123E-01
  -7.766  0.117E-01  0.117E-01
  -7.756  0.108E-01  0.108E-01
  -7.746  0.987E-02  0.987E-02
  -7.736  0.879E-02  0.879E-02
  -7.726  0.763E-02  0.763E-02
  -7.716  0.644E-02  0.644E-02
  -7.706  0.525E-02  0.525E-02
  -7.696  0.410E-02  0.410E-02
  -7.686  0.301E-02  0.301E-02
  -7.676  0.201E-02  0.201E-02
  -7.666  0.113E-02  0.113E-02
  -7.656  0.362E-03  0.362E-03
  -7.646 -0.273E-03 -0.273E-03
  -7.636 -0.778E-03 -0.778E-03
  -7.626 -0.116E-02 -0.116E-02
  -7.616 -0.142E-02 -0.142E-02
  -7.606 -0.158E-02 -0.158E-02
  -7.596 -0.166E-02 -0.166E-02
  -7.586 -0.166E-02 -0.166E-02
  -7.576 -0.160E-02 -0.160E-02
  -7.566 -0.150E-02 -0.150E-02
  -7.556 -0.137E-02 -0.137E-02
  -7.546 -0.123E-02 -0.123E-02
  -7.536 -0.108E-02 -0.108E-02
  -7.526 -0.928E-03 -0.928E-03
  -7.516 -0.785E-03 -0.785E-03
  -7.506 -0.654E-03 -0.654E-03
  -7.496 -0.535E-03 -0.535E-03
  -7.486 -0.431E-03 -0.431E-03
  -7.476 -0.341E-03 -0.341E-03
  -7.466 -0.264E-03 -0.264E-03
  -7.456 -0.199E-03 -0.199E-03
  -7.446 -0.144E-03 -0.144E-03
  -7.436 -0.965E-04 -0.965E-04
  -7.426 -0.539E-04 -0.539E-04
  -7.416 -0.133E-04 -0.133E-04
  -7.406  0.285E-04  0.285E-04
  -7.396  0.752E-04  0.752E-04
  -7.386  0.131E-03  0.131E-03
  -7.376  0.201E-03  0.201E-03
  -7.366  0.290E-03  0.290E-03
  -7.356  0.406E-03  0.406E-03
  -7.346  0.556E-03  0.556E-03
  -7.336  0.748E-03  0.748E-03
  -7.326  0.993E-03  0.993E-03
  -7.316  0.130E-02  0.130E-02
  -7.306  0.169E-02  0.169E-02
  -7.296  0.216E-02  0.216E-02
  -7.286  0.273E-02  0.273E-02
  -7.276  0.341E-02  0.341E-02
  -7.266  0.422E-02  0.422E-02
  -7.256  0.515E-02  0.515E-02
  -7.246  0.621E-02  0.621E-02
  -7.236  0.741E-02  0.741E-02
  -7.226  0.872E-02  0.872E-02
  -7.216  0.102E-01  0.102E-01
  -7.206  0.117E-01  0.117E-01
  -7.196  0.133E-01  0.133E-01
  -7.186  0.149E-01  0.149E-01
  -7.176  0.165E-01  0.165E-01
  -7.166  0.181E-01  0.181E-01
  -7.156  0.195E-01  0.195E-01
  -7.146  0.209E-01  0.209E-01
  -7.136  0.220E-01  0.220E-01
  -7.126  0.229E-01  0.229E-01
  -7.116  0.235E-01  0.235E-01
  -7.106  0.238E-01  0.238E-01
  -7.096  0.239E-01  0.239E-01
  -7.086  0.236E-01  0.236E-01
  -7.076  0.230E-01  0.230E-01
  -7.066  0.222E-01  0.222E-01
  -7.056  0.211E-01  0.211E-01
  -7.046  0.199E-01  0.199E-01
  -7.036  0.186E-01  0.186E-01
  -7.026  0.172E-01  0.172E-01
  -7.016  0.158E-01  0.158E-01
  -7.006  0.144E-01  0.144E-01
  -6.996  0.132E-01  0.132E-01
  -6.986  0.120E-01  0.120E-01
  -6.976  0.111E-01  0.111E-01
  -6.966  0.103E-01  0.103E-01
  -6.956  0.973E-02  0.973E-02
  -6.946  0.930E-02  0.930E-02
  -6.936  0.900E-02  0.900E-02
  -6.926  0.880E-02  0.880E-02
  -6.916  0.868E-02  0.868E-02
  -6.906  0.858E-02  0.858E-02
  -6.896  0.847E-02  0.847E-02
  -6.886  0.832E-02  0.832E-02
  -6.876  0.809E-02  0.809E-02
  -6.866  0.778E-02  0.778E-02
  -6.856  0.737E-02  0.737E-02
  -6.846  0.685E-02  0.685E-02
  -6.836  0.624E-02  0.624E-02
  -6.826  0.555E-02  0.555E-02
  -6.816  0.480E-02  0.480E-02
  -6.806  0.402E-02  0.402E-02
  -6.796  0.324E-02  0.324E-02
  -6.786  0.248E-02  0.248E-02
  -6.776  0.176E-02  0.176E-02
  -6.766  0.112E-02  0.112E-02
  -6.756  0.572E-03  0.572E-03
  -6.746  0.130E-03  0.130E-03
  -6.736 -0.194E-03 -0.194E-03
  -6.726 -0.391E-03 -0.391E-03
  -6.716 -0.457E-03 -0.457E-03
  -6.706 -0.393E-03 -0.393E-03
  -6.696 -0.197E-03 -0.197E-03
  -6.686  0.126E-03  0.126E-03
  -6.676  0.574E-03  0.574E-03
  -6.666  0.114E-02  0.114E-02
  -6.656  0.182E-02  0.182E-02
  -6.646  0.262E-02  0.262E-02
  -6.636  0.351E-02  0.351E-02
  -6.626  0.450E-02  0.450E-02
  -6.616  0.557E-02  0.557E-02
  -6.606  0.671E-02  0.671E-02
  -6.596  0.790E-02  0.790E-02
  -6.586  0.912E-02  0.912E-02
  -6.576  0.103E-01  0.103E-01
  -6.566  0.115E-01  0.115E-01
  -6.556  0.127E-01  0.127E-01
  -6.546  0.137E-01  0.137E-01
  -6.536  0.146E-01  0.146E-01
  -6.526  0.154E-01  0.154E-01
  -6.516  0.159E-01  0.159E-01
  -6.506  0.163E-01  0.163E-01
  -6.496  0.164E-01  0.164E-01
  -6.486  0.162E-01  0.162E-01
  -6.476  0.158E-01  0.158E-01
  -6.466  0.152E-01  0.152E-01
  -6.456  0.143E-01  0.143E-01
  -6.446  0.132E-01  0.132E-01
  -6.436  0.120E-01  0.120E-01
  -6.426  0.106E-01  0.106E-01
  -6.416  0.920E-02  0.920E-02
  -6.406  0.773E-02  0.773E-02
  -6.396  0.627E-02  0.627E-02
  -6.386  0.485E-02  0.485E-02
  -6.376  0.353E-02  0.353E-02
  -6.366  0.232E-02  0.232E-02
  -6.356  0.125E-02  0.125E-02
  -6.346  0.331E-03  0.331E-03
  -6.336 -0.428E-03 -0.428E-03
  -6.326 -0.103E-02 -0.103E-02
  -6.316 -0.147E-02 -0.147E-02
  -6.306 -0.178E-02 -0.178E-02
  -6.296 -0.196E-02 -0.196E-02
  -6.286 -0.204E-02 -0.204E-02
  -6.276 -0.203E-02 -0.203E-02
  -6.266 -0.195E-02 -0.195E-02
  -6.256 -0.182E-02 -0.182E-02
  -6.246 -0.166E-02 -0.166E-02
  -6.236 -0.148E-02 -0.148E-02
  -6.226 -0.130E-02 -0.130E-02
  -6.216 -0.112E-02 -0.112E-02
  -6.206 -0.941E-03 -0.941E-03
  -6.196 -0.780E-03 -0.780E-03
  -6.186 -0.635E-03 -0.635E-03
  -6.176 -0.508E-03 -0.508E-03
  -6.166 -0.398E-03 -0.398E-03
  -6.156 -0.304E-03 -0.304E-03
  -6.146 -0.224E-03 -0.224E-03
  -6.136 -0.155E-03 -0.155E-03
  -6.126 -0.954E-04 -0.954E-04
  -6.116 -0.418E-04 -0.418E-04
  -6.106  0.837E-05  0.837E-05
  -6.096  0.579E-04  0.579E-04
  -6.086  0.110E-03  0.110E-03
  -6.076  0.166E-03  0.166E-03
  -6.066  0.229E-03  0.229E-03
  -6.056  0.302E-03  0.302E-03
  -6.046  0.385E-03  0.385E-03
  -6.036  0.482E-03  0.482E-03
  -6.026  0.593E-03  0.593E-03
  -6.016  0.719E-03  0.719E-03
  -6.006  0.860E-03  0.860E-03
  -5.996  0.102E-02  0.102E-02
  -5.986  0.118E-02  0.118E-02
  -5.976  0.136E-02  0.136E-02
  -5.966  0.155E-02  0.155E-02
  -5.956  0.174E-02  0.174E-02
  -5.946  0.193E-02  0.193E-02
  -5.936  0.212E-02  0.212E-02
  -5.926  0.229E-02  0.229E-02
  -5.916  0.244E-02  0.244E-02
  -5.906  0.257E-02  0.257E-02
  -5.896  0.267E-02  0.267E-02
  -5.886  0.274E-02  0.274E-02
  -5.876  0.276E-02  0.276E-02
  -5.866  0.275E-02  0.275E-02
  -5.856  0.269E-02  0.269E-02
  -5.846  0.259E-02  0.259E-02
  -5.836  0.246E-02  0.246E-02
  -5.826  0.229E-02  0.229E-02
  -5.816  0.209E-02  0.209E-02
  -5.806  0.187E-02  0.187E-02
  -5.796  0.163E-02  0.163E-02
  -5.786  0.139E-02  0.139E-02
  -5.776  0.115E-02  0.115E-02
  -5.766  0.914E-03  0.914E-03
  -5.756  0.697E-03  0.697E-03
  -5.746  0.503E-03  0.503E-03
  -5.736  0.336E-03  0.336E-03
  -5.726  0.202E-03  0.202E-03
  -5.716  0.104E-03  0.104E-03
  -5.706  0.436E-04  0.436E-04
  -5.696  0.240E-04  0.240E-04
  -5.686  0.459E-04  0.459E-04
  -5.676  0.110E-03  0.110E-03
  -5.666  0.217E-03  0.217E-03
  -5.656  0.368E-03  0.368E-03
  -5.646  0.562E-03  0.562E-03
  -5.636  0.800E-03  0.800E-03
  -5.626  0.108E-02  0.108E-02
  -5.616  0.141E-02  0.141E-02
  -5.606  0.177E-02  0.177E-02
  -5.596  0.217E-02  0.217E-02
  -5.586  0.261E-02  0.261E-02
  -5.576  0.308E-02  0.308E-02
  -5.566  0.357E-02  0.357E-02
  -5.556  0.407E-02  0.407E-02
  -5.546  0.456E-02  0.456E-02
  -5.536  0.505E-02  0.505E-02
  -5.526  0.551E-02  0.551E-02
  -5.516  0.593E-02  0.593E-02
  -5.506  0.629E-02  0.629E-02
  -5.496  0.658E-02  0.658E-02
  -5.486  0.679E-02  0.679E-02
  -5.476  0.690E-02  0.690E-02
  -5.466  0.692E-02  0.692E-02
  -5.456  0.682E-02  0.682E-02
  -5.446  0.663E-02  0.663E-02
  -5.436  0.633E-02  0.633E-02
  -5.426  0.594E-02  0.594E-02
  -5.416  0.547E-02  0.547E-02
  -5.406  0.493E-02  0.493E-02
  -5.396  0.435E-02  0.435E-02
  -5.386  0.373E-02  0.373E-02
  -5.376  0.311E-02  0.311E-02
  -5.366  0.250E-02  0.250E-02
  -5.356  0.191E-02  0.191E-02
  -5.346  0.136E-02  0.136E-02
  -5.336  0.861E-03  0.861E-03
  -5.326  0.424E-03  0.424E-03
  -5.316  0.524E-04  0.524E-04
  -5.306 -0.251E-03 -0.251E-03
  -5.296 -0.488E-03 -0.488E-03
  -5.286 -0.662E-03 -0.662E-03
  -5.276 -0.778E-03 -0.778E-03
  -5.266 -0.843E-03 -0.843E-03
  -5.256 -0.865E-03 -0.865E-03
  -5.246 -0.853E-03 -0.853E-03
  -5.236 -0.814E-03 -0.814E-03
  -5.226 -0.756E-03 -0.756E-03
  -5.216 -0.686E-03 -0.686E-03
  -5.206 -0.609E-03 -0.609E-03
  -5.196 -0.530E-03 -0.530E-03
  -5.186 -0.453E-03 -0.453E-03
  -5.176 -0.381E-03 -0.381E-03
  -5.166 -0.316E-03 -0.316E-03
  -5.156 -0.257E-03 -0.257E-03
  -5.146 -0.207E-03 -0.207E-03
  -5.136 -0.164E-03 -0.164E-03
  -5.126 -0.128E-03 -0.128E-03
  -5.116 -0.983E-04 -0.983E-04
  -5.106 -0.747E-04 -0.747E-04
  -5.096 -0.560E-04 -0.560E-04
  -5.086 -0.415E-04 -0.415E-04
  -5.076 -0.303E-04 -0.303E-04
  -5.066 -0.219E-04 -0.219E-04
  -5.056 -0.156E-04 -0.156E-04
  -5.046 -0.110E-04 -0.110E-04
  -5.036 -0.765E-05 -0.765E-05
  -5.026 -0.526E-05 -0.526E-05
  -5.016 -0.357E-05 -0.357E-05
  -5.006 -0.240E-05 -0.240E-05
  -4.996 -0.159E-05 -0.159E-05
  -4.986 -0.104E-05 -0.104E-05
  -4.976 -0.675E-06 -0.675E-06
  -4.966 -0.432E-06 -0.432E-06
  -4.956 -0.273E-06 -0.273E-06
  -4.946 -0.171E-06 -0.171E-06
  -4.936 -0.106E-06 -0.106E-06
  -4.926 -0.647E-07 -0.647E-07
  -4.916 -0.391E-07 -0.391E-07
  -4.906 -0.234E-07 -0.234E-07
  -4.896 -0.138E-07 -0.138E-07
  -4.886 -0.806E-08 -0.806E-08
  -4.876 -0.465E-08 -0.465E-08
  -4.866 -0.266E-08 -0.266E-08
  -4.856 -0.150E-08 -0.150E-08
  -4.846 -0.837E-09 -0.837E-09
  -4.836 -0.462E-09 -0.462E-09
  -4.826 -0.252E-09 -0.252E-09
  -4.816 -0.136E-09 -0.136E-09
  -4.806  0.439E-13  0.439E-13
  -4.796  0.436E-13  0.436E-13
  -4.786  0.429E-13  0.429E-13
  -4.776  0.418E-13  0.418E-13
  -4.766  0.404E-13  0.404E-13
  -4.756  0.386E-13  0.386E-13
  -4.746  0.368E-13  0.368E-13
  -4.736  0.350E-13  0.350E-13
  -4.726  0.332E-13  0.332E-13
  -4.716  0.316E-13  0.316E-13
  -4.706  0.302E-13  0.302E-13
  -4.696  0.291E-13  0.291E-13
  -4.686  0.283E-13  0.283E-13
  -4.676  0.278E-13  0.278E-13
  -4.666  0.276E-13  0.276E-13
  -4.656  0.276E-13  0.276E-13
  -4.646  0.278E-13  0.278E-13
  -4.636  0.280E-13  0.280E-13
  -4.626  0.283E-13  0.283E-13
  -4.616  0.285E-13  0.285E-13
  -4.606  0.286E-13  0.286E-13
  -4.596  0.286E-13  0.286E-13
  -4.586  0.285E-13  0.285E-13
  -4.576  0.282E-13  0.282E-13
  -4.566  0.279E-13  0.279E-13
  -4.556  0.275E-13  0.275E-13
  -4.546  0.271E-13  0.271E-13
  -4.536  0.269E-13  0.269E-13
  -4.526  0.269E-13  0.269E-13
  -4.516  0.273E-13  0.273E-13
  -4.506  0.281E-13  0.281E-13
  -4.496  0.294E-13  0.294E-13
  -4.486  0.314E-13  0.314E-13
  -4.476  0.342E-13  0.342E-13
  -4.466  0.376E-13  0.376E-13
  -4.456  0.418E-13  0.418E-13
  -4.446  0.468E-13  0.468E-13
  -4.436  0.524E-13  0.524E-13
  -4.426  0.586E-13  0.586E-13
  -4.416  0.652E-13  0.652E-13
  -4.406  0.722E-13  0.722E-13
  -4.396  0.792E-13  0.792E-13
  -4.386  0.861E-13  0.861E-13
  -4.376  0.927E-13  0.927E-13
  -4.366  0.987E-13  0.987E-13
  -4.356  0.104E-12  0.104E-12
  -4.346  0.108E-12  0.108E-12
  -4.336  0.112E-12  0.112E-12
  -4.326  0.114E-12  0.114E-12
  -4.316  0.115E-12  0.115E-12
  -4.306  0.115E-12  0.115E-12
  -4.296  0.113E-12  0.113E-12
  -4.286  0.110E-12  0.110E-12
  -4.276  0.107E-12  0.107E-12
  -4.266  0.102E-12  0.102E-12
  -4.256  0.959E-13  0.959E-13
  -4.246  0.894E-13  0.894E-13
  -4.236  0.824E-13  0.824E-13
  -4.226  0.751E-13  0.751E-13
  -4.216  0.675E-13  0.675E-13
  -4.206  0.598E-13  0.598E-13
  -4.196  0.522E-13  0.522E-13
  -4.186  0.447E-13  0.447E-13
  -4.176  0.376E-13  0.376E-13
  -4.166  0.308E-13  0.308E-13
  -4.156  0.244E-13  0.244E-13
  -4.146  0.186E-13  0.186E-13
  -4.136  0.132E-13  0.132E-13
  -4.126  0.848E-14  0.848E-14
  -4.116  0.431E-14  0.431E-14
  -4.106  0.735E-15  0.735E-15
  -4.096 -0.225E-14 -0.225E-14
  -4.086 -0.467E-14 -0.467E-14
  -4.076 -0.654E-14 -0.654E-14
  -4.066 -0.791E-14 -0.791E-14
  -4.056 -0.882E-14 -0.882E-14
  -4.046 -0.932E-14 -0.932E-14
  -4.036 -0.948E-14 -0.948E-14
  -4.026 -0.933E-14 -0.933E-14
  -4.016 -0.896E-14 -0.896E-14
  -4.006 -0.841E-14 -0.841E-14
  -3.996 -0.773E-14 -0.773E-14
  -3.986 -0.698E-14 -0.698E-14
  -3.976 -0.619E-14 -0.619E-14
  -3.966 -0.541E-14 -0.541E-14
  -3.956 -0.465E-14 -0.465E-14
  -3.946 -0.394E-14 -0.394E-14
  -3.936 -0.329E-14 -0.329E-14
  -3.926 -0.270E-14 -0.270E-14
  -3.916 -0.219E-14 -0.219E-14
  -3.906 -0.175E-14 -0.175E-14
  -3.896 -0.138E-14 -0.138E-14
  -3.886 -0.107E-14 -0.107E-14
  -3.876 -0.812E-15 -0.812E-15
  -3.866 -0.602E-15 -0.602E-15
  -3.856 -0.431E-15 -0.431E-15
  -3.846 -0.291E-15 -0.291E-15
  -3.836 -0.175E-15 -0.175E-15
  -3.826 -0.763E-16 -0.763E-16
  -3.816  0.107E-16  0.107E-16
  -3.806  0.913E-16  0.913E-16
  -3.796  0.170E-15  0.170E-15
  -3.786  0.250E-15  0.250E-15
  -3.776  0.334E-15  0.334E-15
  -3.766  0.425E-15  0.425E-15
  -3.756  0.525E-15  0.525E-15
  -3.746  0.634E-15  0.634E-15
  -3.736  0.752E-15  0.752E-15
  -3.726  0.878E-15  0.878E-15
  -3.716  0.101E-14  0.101E-14
  -3.706  0.115E-14  0.115E-14
  -3.696  0.129E-14  0.129E-14
  -3.686  0.143E-14  0.143E-14
  -3.676  0.157E-14  0.157E-14
  -3.666  0.169E-14  0.169E-14
  -3.656  0.180E-14  0.180E-14
  -3.646  0.190E-14  0.190E-14
  -3.636  0.197E-14  0.197E-14
  -3.626  0.201E-14  0.201E-14
  -3.616  0.203E-14  0.203E-14
  -3.606  0.202E-14  0.202E-14
  -3.596  0.197E-14  0.197E-14
  -3.586  0.190E-14  0.190E-14
  -3.576  0.180E-14  0.180E-14
  -3.566  0.167E-14  0.167E-14
  -3.556  0.153E-14  0.153E-14
  -3.546  0.137E-14  0.137E-14
  -3.536  0.120E-14  0.120E-14
  -3.526  0.103E-14  0.103E-14
  -3.516  0.869E-15  0.869E-15
  -3.506  0.718E-15  0.718E-15
  -3.496  0.588E-15  0.588E-15
  -3.486  0.485E-15  0.485E-15
  -3.476  0.418E-15  0.418E-15
  -3.466  0.393E-15  0.393E-15
  -3.456  0.420E-15  0.420E-15
  -3.446  0.505E-15  0.505E-15
  -3.436  0.660E-15  0.660E-15
  -3.426  0.892E-15  0.892E-15
  -3.416  0.121E-14  0.121E-14
  -3.406  0.164E-14  0.164E-14
  -3.396  0.217E-14  0.217E-14
  -3.386  0.283E-14  0.283E-14
  -3.376  0.363E-14  0.363E-14
  -3.366  0.458E-14  0.458E-14
  -3.356  0.568E-14  0.568E-14
  -3.346  0.694E-14  0.694E-14
  -3.336  0.835E-14  0.835E-14
  -3.326  0.992E-14  0.992E-14
  -3.316  0.116E-13  0.116E-13
  -3.306  0.135E-13  0.135E-13
  -3.296  0.154E-13  0.154E-13
  -3.286  0.173E-13  0.173E-13
  -3.276  0.193E-13  0.193E-13
  -3.266  0.212E-13  0.212E-13
  -3.256  0.229E-13  0.229E-13
  -3.246  0.245E-13  0.245E-13
  -3.236  0.259E-13  0.259E-13
  -3.226  0.270E-13  0.270E-13
  -3.216  0.277E-13  0.277E-13
  -3.206  0.280E-13  0.280E-13
  -3.196  0.279E-13  0.279E-13
  -3.186  0.274E-13  0.274E-13
  -3.176  0.265E-13  0.265E-13
  -3.166  0.252E-13  0.252E-13
  -3.156  0.235E-13  0.235E-13
  -3.146  0.215E-13  0.215E-13
  -3.136  0.193E-13  0.193E-13
  -3.126  0.169E-13  0.169E-13
  -3.116  0.144E-13  0.144E-13
  -3.106  0.119E-13  0.119E-13
  -3.096  0.942E-14  0.942E-14
  -3.086  0.707E-14  0.707E-14
  -3.076  0.491E-14  0.491E-14
  -3.066  0.296E-14  0.296E-14
  -3.056  0.126E-14  0.126E-14
  -3.046 -0.161E-15 -0.161E-15
  -3.036 -0.131E-14 -0.131E-14
  -3.026 -0.220E-14 -0.220E-14
  -3.016 -0.283E-14 -0.283E-14
  -3.006 -0.324E-14 -0.324E-14
  -2.996 -0.345E-14 -0.345E-14
  -2.986 -0.350E-14 -0.350E-14
  -2.976 -0.342E-14 -0.342E-14
  -2.966 -0.323E-14 -0.323E-14
  -2.956 -0.298E-14 -0.298E-14
  -2.946 -0.269E-14 -0.269E-14
  -2.936 -0.237E-14 -0.237E-14
  -2.926 -0.206E-14 -0.206E-14
  -2.916 -0.175E-14 -0.175E-14
  -2.906 -0.147E-14 -0.147E-14
  -2.896 -0.121E-14 -0.121E-14
  -2.886 -0.980E-15 -0.980E-15
  -2.876 -0.784E-15 -0.784E-15
  -2.866 -0.618E-15 -0.618E-15
  -2.856 -0.481E-15 -0.481E-15
  -2.846 -0.369E-15 -0.369E-15
  -2.836 -0.279E-15 -0.279E-15
  -2.826 -0.209E-15 -0.209E-15
  -2.816 -0.154E-15 -0.154E-15
  -2.806 -0.112E-15 -0.112E-15
  -2.796 -0.806E-16 -0.806E-16
  -2.786 -0.573E-16 -0.573E-16
  -2.776 -0.402E-16 -0.402E-16
  -2.766 -0.279E-16 -0.279E-16
  -2.756 -0.191E-16 -0.191E-16
  -2.746 -0.129E-16 -0.129E-16
  -2.736 -0.865E-17 -0.865E-17
  -2.726 -0.572E-17 -0.572E-17
  -2.716 -0.374E-17 -0.374E-17
  -2.706 -0.241E-17 -0.241E-17
  -2.696 -0.154E-17 -0.154E-17
  -2.686 -0.971E-18 -0.971E-18
  -2.676 -0.605E-18 -0.605E-18
  -2.666 -0.373E-18 -0.373E-18
  -2.656 -0.227E-18 -0.227E-18
  -2.646 -0.137E-18 -0.137E-18
  -2.636 -0.816E-19 -0.816E-19
  -2.626 -0.480E-19 -0.480E-19
  -2.616 -0.280E-19 -0.280E-19
  -2.606 -0.161E-19 -0.161E-19
  -2.596 -0.916E-20 -0.916E-20
  -2.586 -0.516E-20 -0.516E-20
  -2.576 -0.287E-20 -0.287E-20
  -2.566 -0.158E-20 -0.158E-20
  -2.556 -0.859E-21 -0.859E-21
  -2.546 -0.462E-21 -0.462E-21
  -2.536  0.130E-26  0.130E-26
  -2.526  0.298E-26  0.298E-26
  -2.516  0.675E-26  0.675E-26
  -2.506  0.151E-25  0.151E-25
  -2.496  0.335E-25  0.335E-25
  -2.486  0.735E-25  0.735E-25
  -2.476  0.159E-24  0.159E-24
  -2.466  0.342E-24  0.342E-24
  -2.456  0.726E-24  0.726E-24
  -2.446  0.152E-23  0.152E-23
  -2.436  0.316E-23  0.316E-23
  -2.426  0.649E-23  0.649E-23
  -2.416  0.132E-22  0.132E-22
  -2.406  0.265E-22  0.265E-22
  -2.396  0.526E-22  0.526E-22
  -2.386  0.103E-21  0.103E-21
  -2.376  0.201E-21  0.201E-21
  -2.366  0.386E-21  0.386E-21
  -2.356  0.734E-21  0.734E-21
  -2.346  0.138E-20  0.138E-20
  -2.336  0.257E-20  0.257E-20
  -2.326  0.472E-20  0.472E-20
  -2.316  0.859E-20  0.859E-20
  -2.306  0.155E-19  0.155E-19
  -2.296  0.275E-19  0.275E-19
  -2.286  0.484E-19  0.484E-19
  -2.276  0.843E-19  0.843E-19
  -2.266  0.145E-18  0.145E-18
  -2.256  0.247E-18  0.247E-18
  -2.246  0.416E-18  0.416E-18
  -2.236  0.692E-18  0.692E-18
  -2.226  0.114E-17  0.114E-17
  -2.216  0.186E-17  0.186E-17
  -2.206  0.299E-17  0.299E-17
  -2.196  0.476E-17  0.476E-17
  -2.186  0.750E-17  0.750E-17
  -2.176  0.117E-16  0.117E-16
  -2.166  0.180E-16  0.180E-16
  -2.156  0.274E-16  0.274E-16
  -2.146  0.413E-16  0.413E-16
  -2.136  0.615E-16  0.615E-16
  -2.126  0.906E-16  0.906E-16
  -2.116  0.132E-15  0.132E-15
  -2.106  0.190E-15  0.190E-15
  -2.096  0.270E-15  0.270E-15
  -2.086  0.381E-15  0.381E-15
  -2.076  0.530E-15  0.530E-15
  -2.066  0.729E-15  0.729E-15
  -2.056  0.992E-15  0.992E-15
  -2.046  0.133E-14  0.133E-14
  -2.036  0.177E-14  0.177E-14
  -2.026  0.233E-14  0.233E-14
  -2.016  0.303E-14  0.303E-14
  -2.006  0.389E-14  0.389E-14
  -1.996  0.494E-14  0.494E-14
  -1.986  0.620E-14  0.620E-14
  -1.976  0.769E-14  0.769E-14
  -1.966  0.942E-14  0.942E-14
  -1.956  0.114E-13  0.114E-13
  -1.946  0.137E-13  0.137E-13
  -1.936  0.162E-13  0.162E-13
  -1.926  0.189E-13  0.189E-13
  -1.916  0.218E-13  0.218E-13
  -1.906  0.248E-13  0.248E-13
  -1.896  0.280E-13  0.280E-13
  -1.886  0.311E-13  0.311E-13
  -1.876  0.342E-13  0.342E-13
  -1.866  0.370E-13  0.370E-13
  -1.856  0.396E-13  0.396E-13
  -1.846  0.418E-13  0.418E-13
  -1.836  0.435E-13  0.435E-13
  -1.826  0.447E-13  0.447E-13
  -1.816  0.453E-13  0.453E-13
  -1.806  0.451E-13  0.451E-13
  -1.796  0.444E-13  0.444E-13
  -1.786  0.429E-13  0.429E-13
  -1.776  0.408E-13  0.408E-13
  -1.766  0.381E-13  0.381E-13
  -1.756  0.349E-13  0.349E-13
  -1.746  0.313E-13  0.313E-13
  -1.736  0.274E-13  0.274E-13
  -1.726  0.234E-13  0.234E-13
  -1.716  0.193E-13  0.193E-13
  -1.706  0.153E-13  0.153E-13
  -1.696  0.115E-13  0.115E-13
  -1.686  0.801E-14  0.801E-14
  -1.676  0.486E-14  0.486E-14
  -1.666  0.211E-14  0.211E-14
  -1.656 -0.205E-15 -0.205E-15
  -1.646 -0.208E-14 -0.208E-14
  -1.636 -0.352E-14 -0.352E-14
  -1.626 -0.455E-14 -0.455E-14
  -1.616 -0.522E-14 -0.522E-14
  -1.606 -0.557E-14 -0.557E-14
  -1.596 -0.565E-14 -0.565E-14
  -1.586 -0.552E-14 -0.552E-14
  -1.576 -0.523E-14 -0.523E-14
  -1.566 -0.483E-14 -0.483E-14
  -1.556 -0.435E-14 -0.435E-14
  -1.546 -0.385E-14 -0.385E-14
  -1.536 -0.333E-14 -0.333E-14
  -1.526 -0.284E-14 -0.284E-14
  -1.516 -0.238E-14 -0.238E-14
  -1.506 -0.196E-14 -0.196E-14
  -1.496 -0.159E-14 -0.159E-14
  -1.486 -0.127E-14 -0.127E-14
  -1.476 -0.100E-14 -0.100E-14
  -1.466 -0.782E-15 -0.782E-15
  -1.456 -0.600E-15 -0.600E-15
  -1.446 -0.454E-15 -0.454E-15
  -1.436 -0.340E-15 -0.340E-15
  -1.426 -0.251E-15 -0.251E-15
  -1.416 -0.183E-15 -0.183E-15
  -1.406 -0.131E-15 -0.131E-15
  -1.396 -0.934E-16 -0.934E-16
  -1.386 -0.656E-16 -0.656E-16
  -1.376 -0.455E-16 -0.455E-16
  -1.366 -0.312E-16 -0.312E-16
  -1.356 -0.211E-16 -0.211E-16
  -1.346 -0.141E-16 -0.141E-16
  -1.336 -0.934E-17 -0.934E-17
  -1.326 -0.610E-17 -0.610E-17
  -1.316 -0.394E-17 -0.394E-17
  -1.306 -0.252E-17 -0.252E-17
  -1.296 -0.159E-17 -0.159E-17
  -1.286 -0.990E-18 -0.990E-18
  -1.276 -0.611E-18 -0.611E-18
  -1.266 -0.372E-18 -0.372E-18
  -1.256 -0.224E-18 -0.224E-18
  -1.246 -0.134E-18 -0.134E-18
  -1.236 -0.787E-19 -0.787E-19
  -1.226 -0.458E-19 -0.458E-19
  -1.216 -0.264E-19 -0.264E-19
  -1.206 -0.150E-19 -0.150E-19
  -1.196 -0.846E-20 -0.846E-20
  -1.186 -0.471E-20 -0.471E-20
  -1.176 -0.259E-20 -0.259E-20
  -1.166 -0.141E-20 -0.141E-20
  -1.156 -0.759E-21 -0.759E-21
  -1.146  0.739E-25  0.739E-25
  -1.136  0.157E-24  0.157E-24
  -1.126  0.328E-24  0.328E-24
  -1.116  0.679E-24  0.679E-24
  -1.106  0.139E-23  0.139E-23
  -1.096  0.282E-23  0.282E-23
  -1.086  0.564E-23  0.564E-23
  -1.076  0.112E-22  0.112E-22
  -1.066  0.219E-22  0.219E-22
  -1.056  0.425E-22  0.425E-22
  -1.046  0.815E-22  0.815E-22
  -1.036  0.155E-21  0.155E-21
  -1.026  0.290E-21  0.290E-21
  -1.016  0.538E-21  0.538E-21
  -1.006  0.988E-21  0.988E-21
  -0.996  0.179E-20  0.179E-20
  -0.986  0.322E-20  0.322E-20
  -0.976  0.571E-20  0.571E-20
  -0.966  0.100E-19  0.100E-19
  -0.956  0.174E-19  0.174E-19
  -0.946  0.299E-19  0.299E-19
  -0.936  0.508E-19  0.508E-19
  -0.926  0.854E-19  0.854E-19
  -0.916  0.142E-18  0.142E-18
  -0.906  0.233E-18  0.233E-18
  -0.896  0.379E-18  0.379E-18
  -0.886  0.608E-18  0.608E-18
  -0.876  0.966E-18  0.966E-18
  -0.866  0.152E-17  0.152E-17
  -0.856  0.236E-17  0.236E-17
  -0.846  0.363E-17  0.363E-17
  -0.836  0.551E-17  0.551E-17
  -0.826  0.828E-17  0.828E-17
  -0.816  0.123E-16  0.123E-16
  -0.806  0.181E-16  0.181E-16
  -0.796  0.263E-16  0.263E-16
  -0.786  0.377E-16  0.377E-16
  -0.776  0.536E-16  0.536E-16
  -0.766  0.753E-16  0.753E-16
  -0.756  0.105E-15  0.105E-15
  -0.746  0.144E-15  0.144E-15
  -0.736  0.195E-15  0.195E-15
  -0.726  0.262E-15  0.262E-15
  -0.716  0.347E-15  0.347E-15
  -0.706  0.455E-15  0.455E-15
  -0.696  0.590E-15  0.590E-15
  -0.686  0.757E-15  0.757E-15
  -0.676  0.959E-15  0.959E-15
  -0.666  0.120E-14  0.120E-14
  -0.656  0.149E-14  0.149E-14
  -0.646  0.182E-14  0.182E-14
  -0.636  0.220E-14  0.220E-14
  -0.626  0.264E-14  0.264E-14
  -0.616  0.311E-14  0.311E-14
  -0.606  0.364E-14  0.364E-14
  -0.596  0.420E-14  0.420E-14
  -0.586  0.479E-14  0.479E-14
  -0.576  0.540E-14  0.540E-14
  -0.566  0.602E-14  0.602E-14
  -0.556  0.663E-14  0.663E-14
  -0.546  0.722E-14  0.722E-14
  -0.536  0.778E-14  0.778E-14
  -0.526  0.829E-14  0.829E-14
  -0.516  0.874E-14  0.874E-14
  -0.506  0.913E-14  0.913E-14
  -0.496  0.946E-14  0.946E-14
  -0.486  0.975E-14  0.975E-14
  -0.476  0.100E-13  0.100E-13
  -0.466  0.103E-13  0.103E-13
  -0.456  0.106E-13  0.106E-13
  -0.446  0.110E-13  0.110E-13
  -0.436  0.117E-13  0.117E-13
  -0.426  0.126E-13  0.126E-13
  -0.416  0.140E-13  0.140E-13
  -0.406  0.160E-13  0.160E-13
  -0.396  0.187E-13  0.187E-13
  -0.386  0.224E-13  0.224E-13
  -0.376  0.272E-13  0.272E-13
  -0.366  0.335E-13  0.335E-13
  -0.356  0.414E-13  0.414E-13
  -0.346  0.513E-13  0.513E-13
  -0.336  0.632E-13  0.632E-13
  -0.326  0.775E-13  0.775E-13
  -0.316  0.943E-13  0.943E-13
  -0.306  0.114E-12  0.114E-12
  -0.296  0.136E-12  0.136E-12
  -0.286  0.160E-12  0.160E-12
  -0.276  0.187E-12  0.187E-12
  -0.266  0.216E-12  0.216E-12
  -0.256  0.246E-12  0.246E-12
  -0.246  0.277E-12  0.277E-12
  -0.236  0.309E-12  0.309E-12
  -0.226  0.339E-12  0.339E-12
  -0.216  0.368E-12  0.368E-12
  -0.206  0.394E-12  0.394E-12
  -0.196  0.416E-12  0.416E-12
  -0.186  0.434E-12  0.434E-12
  -0.176  0.446E-12  0.446E-12
  -0.166  0.452E-12  0.452E-12
  -0.156  0.452E-12  0.452E-12
  -0.146  0.444E-12  0.444E-12
  -0.136  0.430E-12  0.430E-12
  -0.126  0.410E-12  0.410E-12
  -0.116  0.384E-12  0.384E-12
  -0.106  0.353E-12  0.353E-12
  -0.096  0.318E-12  0.318E-12
  -0.086  0.280E-12  0.280E-12
  -0.076  0.241E-12  0.241E-12
  -0.066  0.202E-12  0.202E-12
  -0.056  0.164E-12  0.164E-12
  -0.046  0.129E-12  0.129E-12
  -0.036  0.964E-13  0.964E-13
  -0.026  0.680E-13  0.680E-13
  -0.016  0.441E-13  0.441E-13
  -0.006  0.251E-13  0.251E-13
   0.004  0.111E-13  0.111E-13
   0.014  0.190E-14  0.190E-14
   0.024 -0.276E-14 -0.276E-14
   0.034 -0.337E-14 -0.337E-14
   0.044 -0.495E-15 -0.495E-15
   0.054  0.519E-14  0.519E-14
   0.064  0.130E-13  0.130E-13
   0.074  0.221E-13  0.221E-13
   0.084  0.320E-13  0.320E-13
   0.094  0.419E-13  0.419E-13
   0.104  0.513E-13  0.513E-13
   0.114  0.597E-13  0.597E-13
   0.124  0.667E-13  0.667E-13
   0.134  0.720E-13  0.720E-13
   0.144  0.754E-13  0.754E-13
   0.154  0.769E-13  0.769E-13
   0.164  0.765E-13  0.765E-13
   0.174  0.743E-13  0.743E-13
   0.184  0.704E-13  0.704E-13
   0.194  0.651E-13  0.651E-13
   0.204  0.587E-13  0.587E-13
   0.214  0.515E-13  0.515E-13
   0.224  0.438E-13  0.438E-13
   0.234  0.359E-13  0.359E-13
   0.244  0.281E-13  0.281E-13
   0.254  0.207E-13  0.207E-13
   0.264  0.138E-13  0.138E-13
   0.274  0.761E-14  0.761E-14
   0.284  0.226E-14  0.226E-14
   0.294 -0.219E-14 -0.219E-14
   0.304 -0.574E-14 -0.574E-14
   0.314 -0.841E-14 -0.841E-14
   0.324 -0.102E-13 -0.102E-13
   0.334 -0.113E-13 -0.113E-13
   0.344 -0.118E-13 -0.118E-13
   0.354 -0.116E-13 -0.116E-13
   0.364 -0.111E-13 -0.111E-13
   0.374 -0.101E-13 -0.101E-13
   0.384 -0.874E-14 -0.874E-14
   0.394 -0.710E-14 -0.710E-14
   0.404 -0.512E-14 -0.512E-14
   0.414 -0.273E-14 -0.273E-14
   0.424  0.179E-15  0.179E-15
   0.434  0.381E-14  0.381E-14
   0.444  0.845E-14  0.845E-14
   0.454  0.145E-13  0.145E-13
   0.464  0.223E-13  0.223E-13
   0.474  0.327E-13  0.327E-13
   0.484  0.464E-13  0.464E-13
   0.494  0.642E-13  0.642E-13
   0.504  0.873E-13  0.873E-13
   0.514  0.117E-12  0.117E-12
   0.524  0.155E-12  0.155E-12
   0.534  0.202E-12  0.202E-12
   0.544  0.260E-12  0.260E-12
   0.554  0.332E-12  0.332E-12
   0.564  0.418E-12  0.418E-12
   0.574  0.520E-12  0.520E-12
   0.584  0.640E-12  0.640E-12
   0.594  0.777E-12  0.777E-12
   0.604  0.934E-12  0.934E-12
   0.614  0.111E-11  0.111E-11
   0.624  0.130E-11  0.130E-11
   0.634  0.150E-11  0.150E-11
   0.644  0.172E-11  0.172E-11
   0.654  0.195E-11  0.195E-11
   0.664  0.217E-11  0.217E-11
   0.674  0.239E-11  0.239E-11
   0.684  0.260E-11  0.260E-11
   0.694  0.280E-11  0.280E-11
   0.704  0.296E-11  0.296E-11
   0.714  0.310E-11  0.310E-11
   0.724  0.319E-11  0.319E-11
   0.734  0.325E-11  0.325E-11
   0.744  0.325E-11  0.325E-11
   0.754  0.321E-11  0.321E-11
   0.764  0.312E-11  0.312E-11
   0.774  0.298E-11  0.298E-11
   0.784  0.280E-11  0.280E-11
   0.794  0.258E-11  0.258E-11
   0.804  0.233E-11  0.233E-11
   0.814  0.206E-11  0.206E-11
   0.824  0.177E-11  0.177E-11
   0.834  0.148E-11  0.148E-11
   0.844  0.120E-11  0.120E-11
   0.854  0.926E-12  0.926E-12
   0.864  0.675E-12  0.675E-12
   0.874  0.452E-12  0.452E-12
   0.884  0.265E-12  0.265E-12
   0.894  0.122E-12  0.122E-12
   0.904  0.382E-13  0.382E-13
   0.914  0.383E-13  0.383E-13
   0.924  0.169E-12  0.169E-12
   0.934  0.518E-12  0.518E-12
   0.944  0.125E-11  0.125E-11
   0.954  0.268E-11  0.268E-11
   0.964  0.538E-11  0.538E-11
   0.974  0.104E-10  0.104E-10
   0.984  0.195E-10  0.195E-10
   0.994  0.359E-10  0.359E-10
   1.004  0.653E-10  0.653E-10
   1.014  0.117E-09  0.117E-09
   1.024  0.208E-09  0.208E-09
   1.034  0.365E-09  0.365E-09
   1.044  0.633E-09  0.633E-09
   1.054  0.109E-08  0.109E-08
   1.064  0.184E-08  0.184E-08
   1.074  0.309E-08  0.309E-08
   1.084  0.513E-08  0.513E-08
   1.094  0.842E-08  0.842E-08
   1.104  0.137E-07  0.137E-07
   1.114  0.219E-07  0.219E-07
   1.124  0.348E-07  0.348E-07
   1.134  0.547E-07  0.547E-07
   1.144  0.848E-07  0.848E-07
   1.154  0.130E-06  0.130E-06
   1.164  0.198E-06  0.198E-06
   1.174  0.297E-06  0.297E-06
   1.184  0.440E-06  0.440E-06
   1.194  0.646E-06  0.646E-06
   1.204  0.938E-06  0.938E-06
   1.214  0.135E-05  0.135E-05
   1.224  0.191E-05  0.191E-05
   1.234  0.268E-05  0.268E-05
   1.244  0.371E-05  0.371E-05
   1.254  0.509E-05  0.509E-05
   1.264  0.690E-05  0.690E-05
   1.274  0.925E-05  0.925E-05
   1.284  0.123E-04  0.123E-04
   1.294  0.161E-04  0.161E-04
   1.304  0.208E-04  0.208E-04
   1.314  0.266E-04  0.266E-04
   1.324  0.337E-04  0.337E-04
   1.334  0.421E-04  0.421E-04
   1.344  0.521E-04  0.521E-04
   1.354  0.636E-04  0.636E-04
   1.364  0.768E-04  0.768E-04
   1.374  0.916E-04  0.916E-04
   1.384  0.108E-03  0.108E-03
   1.394  0.126E-03  0.126E-03
   1.404  0.145E-03  0.145E-03
   1.414  0.165E-03  0.165E-03
   1.424  0.186E-03  0.186E-03
   1.434  0.206E-03  0.206E-03
   1.444  0.227E-03  0.227E-03
   1.454  0.246E-03  0.246E-03
   1.464  0.264E-03  0.264E-03
   1.474  0.281E-03  0.281E-03
   1.484  0.295E-03  0.295E-03
   1.494  0.307E-03  0.307E-03
   1.504  0.316E-03  0.316E-03
   1.514  0.324E-03  0.324E-03
   1.524  0.329E-03  0.329E-03
   1.534  0.333E-03  0.333E-03
   1.544  0.336E-03  0.336E-03
   1.554  0.339E-03  0.339E-03
   1.564  0.343E-03  0.343E-03
   1.574  0.348E-03  0.348E-03
   1.584  0.357E-03  0.357E-03
   1.594  0.370E-03  0.370E-03
   1.604  0.387E-03  0.387E-03
   1.614  0.408E-03  0.408E-03
   1.624  0.435E-03  0.435E-03
   1.634  0.466E-03  0.466E-03
   1.644  0.501E-03  0.501E-03
   1.654  0.539E-03  0.539E-03
   1.664  0.579E-03  0.579E-03
   1.674  0.618E-03  0.618E-03
   1.684  0.656E-03  0.656E-03
   1.694  0.690E-03  0.690E-03
   1.704  0.718E-03  0.718E-03
   1.714  0.739E-03  0.739E-03
   1.724  0.751E-03  0.751E-03
   1.734  0.752E-03  0.752E-03
   1.744  0.743E-03  0.743E-03
   1.754  0.722E-03  0.722E-03
   1.764  0.690E-03  0.690E-03
   1.774  0.649E-03  0.649E-03
   1.784  0.598E-03  0.598E-03
   1.794  0.540E-03  0.540E-03
   1.804  0.476E-03  0.476E-03
   1.814  0.409E-03  0.409E-03
   1.824  0.340E-03  0.340E-03
   1.834  0.272E-03  0.272E-03
   1.844  0.207E-03  0.207E-03
   1.854  0.146E-03  0.146E-03
   1.864  0.914E-04  0.914E-04
   1.874  0.431E-04  0.431E-04
   1.884  0.213E-05  0.213E-05
   1.894 -0.312E-04 -0.312E-04
   1.904 -0.571E-04 -0.571E-04
   1.914 -0.757E-04 -0.757E-04
   1.924 -0.878E-04 -0.878E-04
   1.934 -0.942E-04 -0.942E-04
   1.944 -0.955E-04 -0.955E-04
   1.954 -0.927E-04 -0.927E-04
   1.964 -0.867E-04 -0.867E-04
   1.974 -0.783E-04 -0.783E-04
   1.984 -0.681E-04 -0.681E-04
   1.994 -0.568E-04 -0.568E-04
   2.004 -0.448E-04 -0.448E-04
   2.014 -0.324E-04 -0.324E-04
   2.024 -0.200E-04 -0.200E-04
   2.034 -0.768E-05 -0.768E-05
   2.044  0.447E-05  0.447E-05
   2.054  0.164E-04  0.164E-04
   2.064  0.280E-04  0.280E-04
   2.074  0.394E-04  0.394E-04
   2.084  0.504E-04  0.504E-04
   2.094  0.610E-04  0.610E-04
   2.104  0.711E-04  0.711E-04
   2.114  0.806E-04  0.806E-04
   2.124  0.894E-04  0.894E-04
   2.134  0.972E-04  0.972E-04
   2.144  0.104E-03  0.104E-03
   2.154  0.109E-03  0.109E-03
   2.164  0.113E-03  0.113E-03
   2.174  0.116E-03  0.116E-03
   2.184  0.116E-03  0.116E-03
   2.194  0.115E-03  0.115E-03
   2.204  0.113E-03  0.113E-03
   2.214  0.109E-03  0.109E-03
   2.224  0.103E-03  0.103E-03
   2.234  0.966E-04  0.966E-04
   2.244  0.890E-04  0.890E-04
   2.254  0.809E-04  0.809E-04
   2.264  0.725E-04  0.725E-04
   2.274  0.642E-04  0.642E-04
   2.284  0.562E-04  0.562E-04
   2.294  0.489E-04  0.489E-04
   2.304  0.424E-04  0.424E-04
   2.314  0.368E-04  0.368E-04
   2.324  0.323E-04  0.323E-04
   2.334  0.289E-04  0.289E-04
   2.344  0.265E-04  0.265E-04
   2.354  0.251E-04  0.251E-04
   2.364  0.244E-04  0.244E-04
   2.374  0.243E-04  0.243E-04
   2.384  0.246E-04  0.246E-04
   2.394  0.252E-04  0.252E-04
   2.404  0.257E-04  0.257E-04
   2.414  0.261E-04  0.261E-04
   2.424  0.262E-04  0.262E-04
   2.434  0.259E-04  0.259E-04
   2.444  0.252E-04  0.252E-04
   2.454  0.240E-04  0.240E-04
   2.464  0.223E-04  0.223E-04
   2.474  0.203E-04  0.203E-04
   2.484  0.179E-04  0.179E-04
   2.494  0.153E-04  0.153E-04
   2.504  0.126E-04  0.126E-04
   2.514  0.983E-05  0.983E-05
   2.524  0.715E-05  0.715E-05
   2.534  0.463E-05  0.463E-05
   2.544  0.234E-05  0.234E-05
   2.554  0.331E-06  0.331E-06
   2.564 -0.136E-05 -0.136E-05
   2.574 -0.272E-05 -0.272E-05
   2.584 -0.374E-05 -0.374E-05
   2.594 -0.446E-05 -0.446E-05
   2.604 -0.489E-05 -0.489E-05
   2.614 -0.507E-05 -0.507E-05
   2.624 -0.505E-05 -0.505E-05
   2.634 -0.486E-05 -0.486E-05
   2.644 -0.456E-05 -0.456E-05
   2.654 -0.417E-05 -0.417E-05
   2.664 -0.373E-05 -0.373E-05
   2.674 -0.327E-05 -0.327E-05
   2.684 -0.281E-05 -0.281E-05
   2.694 -0.238E-05 -0.238E-05
   2.704 -0.197E-05 -0.197E-05
   2.714 -0.160E-05 -0.160E-05
   2.724 -0.127E-05 -0.127E-05
   2.734 -0.982E-06 -0.982E-06
   2.744 -0.722E-06 -0.722E-06
   2.754 -0.486E-06 -0.486E-06
   2.764 -0.265E-06 -0.265E-06
   2.774 -0.465E-07 -0.465E-07
   2.784  0.184E-06  0.184E-06
   2.794  0.443E-06  0.443E-06
   2.804  0.751E-06  0.751E-06
   2.814  0.113E-05  0.113E-05
   2.824  0.160E-05  0.160E-05
   2.834  0.220E-05  0.220E-05
   2.844  0.296E-05  0.296E-05
   2.854  0.390E-05  0.390E-05
   2.864  0.508E-05  0.508E-05
   2.874  0.653E-05  0.653E-05
   2.884  0.829E-05  0.829E-05
   2.894  0.104E-04  0.104E-04
   2.904  0.129E-04  0.129E-04
   2.914  0.158E-04  0.158E-04
   2.924  0.191E-04  0.191E-04
   2.934  0.229E-04  0.229E-04
   2.944  0.271E-04  0.271E-04
   2.954  0.317E-04  0.317E-04
   2.964  0.366E-04  0.366E-04
   2.974  0.418E-04  0.418E-04
   2.984  0.471E-04  0.471E-04
   2.994  0.526E-04  0.526E-04
   3.004  0.579E-04  0.579E-04
   3.014  0.631E-04  0.631E-04
   3.024  0.679E-04  0.679E-04
   3.034  0.723E-04  0.723E-04
   3.044  0.761E-04  0.761E-04
   3.054  0.793E-04  0.793E-04
   3.064  0.818E-04  0.818E-04
   3.074  0.837E-04  0.837E-04
   3.084  0.849E-04  0.849E-04
   3.094  0.856E-04  0.856E-04
   3.104  0.860E-04  0.860E-04
   3.114  0.861E-04  0.861E-04
   3.124  0.863E-04  0.863E-04
   3.134  0.868E-04  0.868E-04
   3.144  0.879E-04  0.879E-04
   3.154  0.897E-04  0.897E-04
   3.164  0.924E-04  0.924E-04
   3.174  0.963E-04  0.963E-04
   3.184  0.101E-03  0.101E-03
   3.194  0.108E-03  0.108E-03
   3.204  0.115E-03  0.115E-03
   3.214  0.123E-03  0.123E-03
   3.224  0.132E-03  0.132E-03
   3.234  0.141E-03  0.141E-03
   3.244  0.149E-03  0.149E-03
   3.254  0.158E-03  0.158E-03
   3.264  0.165E-03  0.165E-03
   3.274  0.171E-03  0.171E-03
   3.284  0.174E-03  0.174E-03
   3.294  0.176E-03  0.176E-03
   3.304  0.176E-03  0.176E-03
   3.314  0.172E-03  0.172E-03
   3.324  0.167E-03  0.167E-03
   3.334  0.159E-03  0.159E-03
   3.344  0.149E-03  0.149E-03
   3.354  0.138E-03  0.138E-03
   3.364  0.125E-03  0.125E-03
   3.374  0.111E-03  0.111E-03
   3.384  0.976E-04  0.976E-04
   3.394  0.841E-04  0.841E-04
   3.404  0.713E-04  0.713E-04
   3.414  0.597E-04  0.597E-04
   3.424  0.494E-04  0.494E-04
   3.434  0.408E-04  0.408E-04
   3.444  0.339E-04  0.339E-04
   3.454  0.289E-04  0.289E-04
   3.464  0.255E-04  0.255E-04
   3.474  0.236E-04  0.236E-04
   3.484  0.231E-04  0.231E-04
   3.494  0.236E-04  0.236E-04
   3.504  0.249E-04  0.249E-04
   3.514  0.267E-04  0.267E-04
   3.524  0.287E-04  0.287E-04
   3.534  0.308E-04  0.308E-04
   3.544  0.326E-04  0.326E-04
   3.554  0.342E-04  0.342E-04
   3.564  0.355E-04  0.355E-04
   3.574  0.364E-04  0.364E-04
   3.584  0.370E-04  0.370E-04
   3.594  0.373E-04  0.373E-04
   3.604  0.376E-04  0.376E-04
   3.614  0.378E-04  0.378E-04
   3.624  0.383E-04  0.383E-04
   3.634  0.389E-04  0.389E-04
   3.644  0.400E-04  0.400E-04
   3.654  0.414E-04  0.414E-04
   3.664  0.434E-04  0.434E-04
   3.674  0.457E-04  0.457E-04
   3.684  0.484E-04  0.484E-04
   3.694  0.513E-04  0.513E-04
   3.704  0.544E-04  0.544E-04
   3.714  0.574E-04  0.574E-04
   3.724  0.603E-04  0.603E-04
   3.734  0.627E-04  0.627E-04
   3.744  0.646E-04  0.646E-04
   3.754  0.659E-04  0.659E-04
   3.764  0.665E-04  0.665E-04
   3.774  0.663E-04  0.663E-04
   3.784  0.653E-04  0.653E-04
   3.794  0.636E-04  0.636E-04
   3.804  0.614E-04  0.614E-04
   3.814  0.586E-04  0.586E-04
   3.824  0.556E-04  0.556E-04
   3.834  0.525E-04  0.525E-04
   3.844  0.496E-04  0.496E-04
   3.854  0.469E-04  0.469E-04
   3.864  0.447E-04  0.447E-04
   3.874  0.431E-04  0.431E-04
   3.884  0.422E-04  0.422E-04
   3.894  0.420E-04  0.420E-04
   3.904  0.425E-04  0.425E-04
   3.914  0.436E-04  0.436E-04
   3.924  0.453E-04  0.453E-04
   3.934  0.473E-04  0.473E-04
   3.944  0.495E-04  0.495E-04
   3.954  0.517E-04  0.517E-04
   3.964  0.537E-04  0.537E-04
   3.974  0.553E-04  0.553E-04
   3.984  0.563E-04  0.563E-04
   3.994  0.567E-04  0.567E-04
   4.004  0.562E-04  0.562E-04
   4.014  0.550E-04  0.550E-04
   4.024  0.530E-04  0.530E-04
   4.034  0.502E-04  0.502E-04
   4.044  0.467E-04  0.467E-04
   4.054  0.428E-04  0.428E-04
   4.064  0.384E-04  0.384E-04
   4.074  0.339E-04  0.339E-04
   4.084  0.294E-04  0.294E-04
   4.094  0.250E-04  0.250E-04
   4.104  0.209E-04  0.209E-04
   4.114  0.172E-04  0.172E-04
   4.124  0.141E-04  0.141E-04
   4.134  0.115E-04  0.115E-04
   4.144  0.951E-05  0.951E-05
   4.154  0.816E-05  0.816E-05
   4.164  0.743E-05  0.743E-05
   4.174  0.727E-05  0.727E-05
   4.184  0.765E-05  0.765E-05
   4.194  0.853E-05  0.853E-05
   4.204  0.987E-05  0.987E-05
   4.214  0.116E-04  0.116E-04
   4.224  0.138E-04  0.138E-04
   4.234  0.165E-04  0.165E-04
   4.244  0.195E-04  0.195E-04
   4.254  0.231E-04  0.231E-04
   4.264  0.272E-04  0.272E-04
   4.274  0.318E-04  0.318E-04
   4.284  0.370E-04  0.370E-04
   4.294  0.429E-04  0.429E-04
   4.304  0.494E-04  0.494E-04
   4.314  0.565E-04  0.565E-04
   4.324  0.640E-04  0.640E-04
   4.334  0.720E-04  0.720E-04
   4.344  0.803E-04  0.803E-04
   4.354  0.885E-04  0.885E-04
   4.364  0.966E-04  0.966E-04
   4.374  0.104E-03  0.104E-03
   4.384  0.111E-03  0.111E-03
   4.394  0.117E-03  0.117E-03
   4.404  0.122E-03  0.122E-03
   4.414  0.125E-03  0.125E-03
   4.424  0.127E-03  0.127E-03
   4.434  0.127E-03  0.127E-03
   4.444  0.125E-03  0.125E-03
   4.454  0.121E-03  0.121E-03
   4.464  0.116E-03  0.116E-03
   4.474  0.110E-03  0.110E-03
   4.484  0.102E-03  0.102E-03
   4.494  0.943E-04  0.943E-04
   4.504  0.857E-04  0.857E-04
   4.514  0.771E-04  0.771E-04
   4.524  0.690E-04  0.690E-04
   4.534  0.616E-04  0.616E-04
   4.544  0.552E-04  0.552E-04
   4.554  0.501E-04  0.501E-04
   4.564  0.464E-04  0.464E-04
   4.574  0.442E-04  0.442E-04
   4.584  0.436E-04  0.436E-04
   4.594  0.443E-04  0.443E-04
   4.604  0.462E-04  0.462E-04
   4.614  0.491E-04  0.491E-04
   4.624  0.527E-04  0.527E-04
   4.634  0.567E-04  0.567E-04
   4.644  0.607E-04  0.607E-04
   4.654  0.644E-04  0.644E-04
   4.664  0.676E-04  0.676E-04
   4.674  0.699E-04  0.699E-04
   4.684  0.712E-04  0.712E-04
   4.694  0.714E-04  0.714E-04
   4.704  0.703E-04  0.703E-04
   4.714  0.679E-04  0.679E-04
   4.724  0.645E-04  0.645E-04
   4.734  0.600E-04  0.600E-04
   4.744  0.548E-04  0.548E-04
   4.754  0.489E-04  0.489E-04
   4.764  0.428E-04  0.428E-04
   4.774  0.368E-04  0.368E-04
   4.784  0.311E-04  0.311E-04
   4.794  0.262E-04  0.262E-04
   4.804  0.223E-04  0.223E-04
   4.814  0.199E-04  0.199E-04
   4.824  0.194E-04  0.194E-04
   4.834  0.210E-04  0.210E-04
   4.844  0.253E-04  0.253E-04
   4.854  0.328E-04  0.328E-04
   4.864  0.440E-04  0.440E-04
   4.874  0.593E-04  0.593E-04
   4.884  0.796E-04  0.796E-04
   4.894  0.105E-03  0.105E-03
   4.904  0.137E-03  0.137E-03
   4.914  0.176E-03  0.176E-03
   4.924  0.222E-03  0.222E-03
   4.934  0.276E-03  0.276E-03
   4.944  0.339E-03  0.339E-03
   4.954  0.409E-03  0.409E-03
   4.964  0.488E-03  0.488E-03
   4.974  0.575E-03  0.575E-03
   4.984  0.669E-03  0.669E-03
   4.994  0.768E-03  0.768E-03
   5.004  0.870E-03  0.870E-03
   5.014  0.974E-03  0.974E-03
   5.024  0.108E-02  0.108E-02
   5.034  0.118E-02  0.118E-02
   5.044  0.127E-02  0.127E-02
   5.054  0.135E-02  0.135E-02
   5.064  0.142E-02  0.142E-02
   5.074  0.147E-02  0.147E-02
   5.084  0.150E-02  0.150E-02
   5.094  0.151E-02  0.151E-02
   5.104  0.150E-02  0.150E-02
   5.114  0.147E-02  0.147E-02
   5.124  0.142E-02  0.142E-02
   5.134  0.135E-02  0.135E-02
   5.144  0.125E-02  0.125E-02
   5.154  0.115E-02  0.115E-02
   5.164  0.103E-02  0.103E-02
   5.174  0.901E-03  0.901E-03
   5.184  0.770E-03  0.770E-03
   5.194  0.638E-03  0.638E-03
   5.204  0.509E-03  0.509E-03
   5.214  0.387E-03  0.387E-03
   5.224  0.274E-03  0.274E-03
   5.234  0.172E-03  0.172E-03
   5.244  0.829E-04  0.829E-04
   5.254  0.761E-05  0.761E-05
   5.264 -0.537E-04 -0.537E-04
   5.274 -0.101E-03 -0.101E-03
   5.284 -0.136E-03 -0.136E-03
   5.294 -0.160E-03 -0.160E-03
   5.304 -0.173E-03 -0.173E-03
   5.314 -0.178E-03 -0.178E-03
   5.324 -0.175E-03 -0.175E-03
   5.334 -0.168E-03 -0.168E-03
   5.344 -0.156E-03 -0.156E-03
   5.354 -0.142E-03 -0.142E-03
   5.364 -0.127E-03 -0.127E-03
   5.374 -0.111E-03 -0.111E-03
   5.384 -0.956E-04 -0.956E-04
   5.394 -0.809E-04 -0.809E-04
   5.404 -0.675E-04 -0.675E-04
   5.414 -0.554E-04 -0.554E-04
   5.424 -0.449E-04 -0.449E-04
   5.434 -0.358E-04 -0.358E-04
   5.444 -0.281E-04 -0.281E-04
   5.454 -0.217E-04 -0.217E-04
   5.464 -0.164E-04 -0.164E-04
   5.474 -0.120E-04 -0.120E-04
   5.484 -0.836E-05 -0.836E-05
   5.494 -0.526E-05 -0.526E-05
   5.504 -0.252E-05 -0.252E-05
   5.514  0.779E-07  0.779E-07
   5.524  0.275E-05  0.275E-05
   5.534  0.573E-05  0.573E-05
   5.544  0.933E-05  0.933E-05
   5.554  0.139E-04  0.139E-04
   5.564  0.199E-04  0.199E-04
   5.574  0.280E-04  0.280E-04
   5.584  0.390E-04  0.390E-04
   5.594  0.541E-04  0.541E-04
   5.604  0.750E-04  0.750E-04
   5.614  0.104E-03  0.104E-03
   5.624  0.144E-03  0.144E-03
   5.634  0.199E-03  0.199E-03
   5.644  0.276E-03  0.276E-03
   5.654  0.381E-03  0.381E-03
   5.664  0.526E-03  0.526E-03
   5.674  0.723E-03  0.723E-03
   5.684  0.990E-03  0.990E-03
   5.694  0.135E-02  0.135E-02
   5.704  0.183E-02  0.183E-02
   5.714  0.246E-02  0.246E-02
   5.724  0.329E-02  0.329E-02
   5.734  0.437E-02  0.437E-02
   5.744  0.575E-02  0.575E-02
   5.754  0.751E-02  0.751E-02
   5.764  0.971E-02  0.971E-02
   5.774  0.124E-01  0.124E-01
   5.784  0.158E-01  0.158E-01
   5.794  0.199E-01  0.199E-01
   5.804  0.247E-01  0.247E-01
   5.814  0.305E-01  0.305E-01
   5.824  0.372E-01  0.372E-01
   5.834  0.449E-01  0.449E-01
   5.844  0.537E-01  0.537E-01
   5.854  0.635E-01  0.635E-01
   5.864  0.744E-01  0.744E-01
   5.874  0.862E-01  0.862E-01
   5.884  0.989E-01  0.989E-01
   5.894  0.112E+00  0.112E+00
   5.904  0.126E+00  0.126E+00
   5.914  0.140E+00  0.140E+00
   5.924  0.154E+00  0.154E+00
   5.934  0.167E+00  0.167E+00
   5.944  0.180E+00  0.180E+00
   5.954  0.191E+00  0.191E+00
   5.964  0.201E+00  0.201E+00
   5.974  0.208E+00  0.208E+00
   5.984  0.214E+00  0.214E+00
   5.994  0.217E+00  0.217E+00
   6.004  0.218E+00  0.218E+00
   6.014  0.216E+00  0.216E+00
   6.024  0.212E+00  0.212E+00
   6.034  0.205E+00  0.205E+00
   6.044  0.196E+00  0.196E+00
   6.054  0.185E+00  0.185E+00
   6.064  0.173E+00  0.173E+00
   6.074  0.160E+00  0.160E+00
   6.084  0.146E+00  0.146E+00
   6.094  0.133E+00  0.133E+00
   6.104  0.121E+00  0.121E+00
   6.114  0.109E+00  0.109E+00
   6.124  0.996E-01  0.996E-01
   6.134  0.918E-01  0.918E-01
   6.144  0.860E-01  0.860E-01
   6.154  0.825E-01  0.825E-01
   6.164  0.811E-01  0.811E-01
   6.174  0.817E-01  0.817E-01
   6.184  0.841E-01  0.841E-01
   6.194  0.878E-01  0.878E-01
   6.204  0.924E-01  0.924E-01
   6.214  0.975E-01  0.975E-01
   6.224  0.103E+00  0.103E+00
   6.234  0.107E+00  0.107E+00
   6.244  0.111E+00  0.111E+00
   6.254  0.113E+00  0.113E+00
   6.264  0.114E+00  0.114E+00
   6.274  0.113E+00  0.113E+00
   6.284  0.110E+00  0.110E+00
   6.294  0.106E+00  0.106E+00
   6.304  0.995E-01  0.995E-01
   6.314  0.916E-01  0.916E-01
   6.324  0.824E-01  0.824E-01
   6.334  0.724E-01  0.724E-01
   6.344  0.617E-01  0.617E-01
   6.354  0.509E-01  0.509E-01
   6.364  0.403E-01  0.403E-01
   6.374  0.303E-01  0.303E-01
   6.384  0.210E-01  0.210E-01
   6.394  0.128E-01  0.128E-01
   6.404  0.594E-02  0.594E-02
   6.414  0.469E-03  0.469E-03
   6.424 -0.348E-02 -0.348E-02
   6.434 -0.585E-02 -0.585E-02
   6.444 -0.663E-02 -0.663E-02
   6.454 -0.580E-02 -0.580E-02
   6.464 -0.337E-02 -0.337E-02
   6.474  0.647E-03  0.647E-03
   6.484  0.626E-02  0.626E-02
   6.494  0.135E-01  0.135E-01
   6.504  0.223E-01  0.223E-01
   6.514  0.328E-01  0.328E-01
   6.524  0.450E-01  0.450E-01
   6.534  0.588E-01  0.588E-01
   6.544  0.744E-01  0.744E-01
   6.554  0.916E-01  0.916E-01
   6.564  0.110E+00  0.110E+00
   6.574  0.130E+00  0.130E+00
   6.584  0.152E+00  0.152E+00
   6.594  0.174E+00  0.174E+00
   6.604  0.196E+00  0.196E+00
   6.614  0.218E+00  0.218E+00
   6.624  0.240E+00  0.240E+00
   6.634  0.261E+00  0.261E+00
   6.644  0.280E+00  0.280E+00
   6.654  0.297E+00  0.297E+00
   6.664  0.312E+00  0.312E+00
   6.674  0.324E+00  0.324E+00
   6.684  0.332E+00  0.332E+00
   6.694  0.338E+00  0.338E+00
   6.704  0.340E+00  0.340E+00
   6.714  0.339E+00  0.339E+00
   6.724  0.336E+00  0.336E+00
   6.734  0.331E+00  0.331E+00
   6.744  0.324E+00  0.324E+00
   6.754  0.315E+00  0.315E+00
   6.764  0.307E+00  0.307E+00
   6.774  0.298E+00  0.298E+00
   6.784  0.289E+00  0.289E+00
   6.794  0.281E+00  0.281E+00
   6.804  0.274E+00  0.274E+00
   6.814  0.267E+00  0.267E+00
   6.824  0.260E+00  0.260E+00
   6.834  0.254E+00  0.254E+00
   6.844  0.248E+00  0.248E+00
   6.854  0.241E+00  0.241E+00
   6.864  0.233E+00  0.233E+00
   6.874  0.224E+00  0.224E+00
   6.884  0.213E+00  0.213E+00
   6.894  0.201E+00  0.201E+00
   6.904  0.186E+00  0.186E+00
   6.914  0.170E+00  0.170E+00
   6.924  0.152E+00  0.152E+00
   6.934  0.133E+00  0.133E+00
   6.944  0.113E+00  0.113E+00
   6.954  0.935E-01  0.935E-01
   6.964  0.738E-01  0.738E-01
   6.974  0.549E-01  0.549E-01
   6.984  0.373E-01  0.373E-01
   6.994  0.213E-01  0.213E-01
   7.004  0.723E-02  0.723E-02
   7.014 -0.467E-02 -0.467E-02
   7.024 -0.143E-01 -0.143E-01
   7.034 -0.218E-01 -0.218E-01
   7.044 -0.271E-01 -0.271E-01
   7.054 -0.305E-01 -0.305E-01
   7.064 -0.321E-01 -0.321E-01
   7.074 -0.324E-01 -0.324E-01
   7.084 -0.314E-01 -0.314E-01
   7.094 -0.296E-01 -0.296E-01
   7.104 -0.271E-01 -0.271E-01
   7.114 -0.243E-01 -0.243E-01
   7.124 -0.213E-01 -0.213E-01
   7.134 -0.183E-01 -0.183E-01
   7.144 -0.154E-01 -0.154E-01
   7.154 -0.127E-01 -0.127E-01
   7.164 -0.104E-01 -0.104E-01
   7.174 -0.826E-02 -0.826E-02
   7.184 -0.649E-02 -0.649E-02
   7.194 -0.501E-02 -0.501E-02
   7.204 -0.382E-02 -0.382E-02
   7.214 -0.287E-02 -0.287E-02
   7.224 -0.213E-02 -0.213E-02
   7.234 -0.157E-02 -0.157E-02
   7.244 -0.116E-02 -0.116E-02
   7.254 -0.854E-03 -0.854E-03
   7.264 -0.631E-03 -0.631E-03
   7.274 -0.469E-03 -0.469E-03
   7.284 -0.347E-03 -0.347E-03
   7.294 -0.249E-03 -0.249E-03
   7.304 -0.166E-03 -0.166E-03
   7.314 -0.873E-04 -0.873E-04
   7.324 -0.858E-05 -0.858E-05
   7.334  0.739E-04  0.739E-04
   7.344  0.162E-03  0.162E-03
   7.354  0.256E-03  0.256E-03
   7.364  0.356E-03  0.356E-03
   7.374  0.461E-03  0.461E-03
   7.384  0.568E-03  0.568E-03
   7.394  0.677E-03  0.677E-03
   7.404  0.785E-03  0.785E-03
   7.414  0.890E-03  0.890E-03
   7.424  0.990E-03  0.990E-03
   7.434  0.108E-02  0.108E-02
   7.444  0.117E-02  0.117E-02
   7.454  0.124E-02  0.124E-02
   7.464  0.131E-02  0.131E-02
   7.474  0.136E-02  0.136E-02
   7.484  0.141E-02  0.141E-02
   7.494  0.144E-02  0.144E-02
   7.504  0.147E-02  0.147E-02
   7.514  0.149E-02  0.149E-02
   7.524  0.151E-02  0.151E-02
   7.534  0.153E-02  0.153E-02
   7.544  0.155E-02  0.155E-02
   7.554  0.159E-02  0.159E-02
   7.564  0.164E-02  0.164E-02
   7.574  0.172E-02  0.172E-02
   7.584  0.183E-02  0.183E-02
   7.594  0.196E-02  0.196E-02
   7.604  0.213E-02  0.213E-02
   7.614  0.234E-02  0.234E-02
   7.624  0.258E-02  0.258E-02
   7.634  0.286E-02  0.286E-02
   7.644  0.317E-02  0.317E-02
   7.654  0.351E-02  0.351E-02
   7.664  0.386E-02  0.386E-02
   7.674  0.422E-02  0.422E-02
   7.684  0.457E-02  0.457E-02
   7.694  0.490E-02  0.490E-02
   7.704  0.520E-02  0.520E-02
   7.714  0.545E-02  0.545E-02
   7.724  0.564E-02  0.564E-02
   7.734  0.575E-02  0.575E-02
   7.744  0.579E-02  0.579E-02
   7.754  0.574E-02  0.574E-02
   7.764  0.561E-02  0.561E-02
   7.774  0.539E-02  0.539E-02
   7.784  0.508E-02  0.508E-02
   7.794  0.471E-02  0.471E-02
   7.804  0.428E-02  0.428E-02
   7.814  0.380E-02  0.380E-02
   7.824  0.329E-02  0.329E-02
   7.834  0.277E-02  0.277E-02
   7.844  0.225E-02  0.225E-02
   7.854  0.174E-02  0.174E-02
   7.864  0.127E-02  0.127E-02
   7.874  0.834E-03  0.834E-03
   7.884  0.449E-03  0.449E-03
   7.894  0.118E-03  0.118E-03
   7.904 -0.156E-03 -0.156E-03
   7.914 -0.372E-03 -0.372E-03
   7.924 -0.534E-03 -0.534E-03
   7.934 -0.645E-03 -0.645E-03
   7.944 -0.712E-03 -0.712E-03
   7.954 -0.740E-03 -0.740E-03
   7.964 -0.736E-03 -0.736E-03
   7.974 -0.708E-03 -0.708E-03
   7.984 -0.662E-03 -0.662E-03
   7.994 -0.604E-03 -0.604E-03
   8.004 -0.539E-03 -0.539E-03
   8.014 -0.472E-03 -0.472E-03
   8.024 -0.405E-03 -0.405E-03
   8.034 -0.342E-03 -0.342E-03
   8.044 -0.283E-03 -0.283E-03
   8.054 -0.231E-03 -0.231E-03
   8.064 -0.184E-03 -0.184E-03
   8.074 -0.143E-03 -0.143E-03
   8.084 -0.106E-03 -0.106E-03
   8.094 -0.731E-04 -0.731E-04
   8.104 -0.417E-04 -0.417E-04
   8.114 -0.967E-05 -0.967E-05
   8.124  0.261E-04  0.261E-04
   8.134  0.698E-04  0.698E-04
   8.144  0.126E-03  0.126E-03
   8.154  0.203E-03  0.203E-03
   8.164  0.309E-03  0.309E-03
   8.174  0.456E-03  0.456E-03
   8.184  0.660E-03  0.660E-03
   8.194  0.942E-03  0.942E-03
   8.204  0.133E-02  0.133E-02
   8.214  0.184E-02  0.184E-02
   8.224  0.254E-02  0.254E-02
   8.234  0.346E-02  0.346E-02
   8.244  0.465E-02  0.465E-02
   8.254  0.620E-02  0.620E-02
   8.264  0.818E-02  0.818E-02
   8.274  0.107E-01  0.107E-01
   8.284  0.138E-01  0.138E-01
   8.294  0.176E-01  0.176E-01
   8.304  0.222E-01  0.222E-01
   8.314  0.278E-01  0.278E-01
   8.324  0.345E-01  0.345E-01
   8.334  0.423E-01  0.423E-01
   8.344  0.513E-01  0.513E-01
   8.354  0.617E-01  0.617E-01
   8.364  0.734E-01  0.734E-01
   8.374  0.865E-01  0.865E-01
   8.384  0.101E+00  0.101E+00
   8.394  0.117E+00  0.117E+00
   8.404  0.133E+00  0.133E+00
   8.414  0.151E+00  0.151E+00
   8.424  0.170E+00  0.170E+00
   8.434  0.189E+00  0.189E+00
   8.444  0.208E+00  0.208E+00
   8.454  0.226E+00  0.226E+00
   8.464  0.245E+00  0.245E+00
   8.474  0.262E+00  0.262E+00
   8.484  0.277E+00  0.277E+00
   8.494  0.291E+00  0.291E+00
   8.504  0.302E+00  0.302E+00
   8.514  0.311E+00  0.311E+00
   8.524  0.317E+00  0.317E+00
   8.534  0.319E+00  0.319E+00
   8.544  0.318E+00  0.318E+00
   8.554  0.313E+00  0.313E+00
   8.564  0.304E+00  0.304E+00
   8.574  0.292E+00  0.292E+00
   8.584  0.277E+00  0.277E+00
   8.594  0.259E+00  0.259E+00
   8.604  0.238E+00  0.238E+00
   8.614  0.216E+00  0.216E+00
   8.624  0.191E+00  0.191E+00
   8.634  0.166E+00  0.166E+00
   8.644  0.141E+00  0.141E+00
   8.654  0.116E+00  0.116E+00
   8.664  0.914E-01  0.914E-01
   8.674  0.685E-01  0.685E-01
   8.684  0.474E-01  0.474E-01
   8.694  0.286E-01  0.286E-01
   8.704  0.121E-01  0.121E-01
   8.714 -0.184E-02 -0.184E-02
   8.724 -0.132E-01 -0.132E-01
   8.734 -0.220E-01 -0.220E-01
   8.744 -0.285E-01 -0.285E-01
   8.754 -0.328E-01 -0.328E-01
   8.764 -0.352E-01 -0.352E-01
   8.774 -0.359E-01 -0.359E-01
   8.784 -0.354E-01 -0.354E-01
   8.794 -0.338E-01 -0.338E-01
   8.804 -0.315E-01 -0.315E-01
   8.814 -0.287E-01 -0.287E-01
   8.824 -0.256E-01 -0.256E-01
   8.834 -0.224E-01 -0.224E-01
   8.844 -0.193E-01 -0.193E-01
   8.854 -0.163E-01 -0.163E-01
   8.864 -0.136E-01 -0.136E-01
   8.874 -0.112E-01 -0.112E-01
   8.884 -0.905E-02 -0.905E-02
   8.894 -0.722E-02 -0.722E-02
   8.904 -0.569E-02 -0.569E-02
   8.914 -0.442E-02 -0.442E-02
   8.924 -0.339E-02 -0.339E-02
   8.934 -0.256E-02 -0.256E-02
   8.944 -0.191E-02 -0.191E-02
   8.954 -0.141E-02 -0.141E-02
   8.964 -0.103E-02 -0.103E-02
   8.974 -0.740E-03 -0.740E-03
   8.984 -0.525E-03 -0.525E-03
   8.994 -0.367E-03 -0.367E-03
   9.004 -0.253E-03 -0.253E-03
   9.014 -0.171E-03 -0.171E-03
   9.024 -0.112E-03 -0.112E-03
   9.034 -0.693E-04 -0.693E-04
   9.044 -0.384E-04 -0.384E-04
   9.054 -0.151E-04 -0.151E-04
   9.064  0.357E-05  0.357E-05
   9.074  0.198E-04  0.198E-04
   9.084  0.353E-04  0.353E-04
   9.094  0.513E-04  0.513E-04
   9.104  0.689E-04  0.689E-04
   9.114  0.888E-04  0.888E-04
   9.124  0.112E-03  0.112E-03
   9.134  0.138E-03  0.138E-03
   9.144  0.168E-03  0.168E-03
   9.154  0.202E-03  0.202E-03
   9.164  0.239E-03  0.239E-03
   9.174  0.281E-03  0.281E-03
   9.184  0.326E-03  0.326E-03
   9.194  0.374E-03  0.374E-03
   9.204  0.424E-03  0.424E-03
   9.214  0.476E-03  0.476E-03
   9.224  0.528E-03  0.528E-03
   9.234  0.581E-03  0.581E-03
   9.244  0.632E-03  0.632E-03
   9.254  0.682E-03  0.682E-03
   9.264  0.729E-03  0.729E-03
   9.274  0.774E-03  0.774E-03
   9.284  0.816E-03  0.816E-03
   9.294  0.855E-03  0.855E-03
   9.304  0.893E-03  0.893E-03
   9.314  0.931E-03  0.931E-03
   9.324  0.969E-03  0.969E-03
   9.334  0.101E-02  0.101E-02
   9.344  0.106E-02  0.106E-02
   9.354  0.111E-02  0.111E-02
   9.364  0.118E-02  0.118E-02
   9.374  0.126E-02  0.126E-02
   9.384  0.135E-02  0.135E-02
   9.394  0.147E-02  0.147E-02
   9.404  0.161E-02  0.161E-02
   9.414  0.178E-02  0.178E-02
   9.424  0.198E-02  0.198E-02
   9.434  0.222E-02  0.222E-02
   9.444  0.250E-02  0.250E-02
   9.454  0.282E-02  0.282E-02
   9.464  0.319E-02  0.319E-02
   9.474  0.361E-02  0.361E-02
   9.484  0.408E-02  0.408E-02
   9.494  0.461E-02  0.461E-02
   9.504  0.519E-02  0.519E-02
   9.514  0.583E-02  0.583E-02
   9.524  0.650E-02  0.650E-02
   9.534  0.722E-02  0.722E-02
   9.544  0.795E-02  0.795E-02
   9.554  0.870E-02  0.870E-02
   9.564  0.943E-02  0.943E-02
   9.574  0.101E-01  0.101E-01
   9.584  0.108E-01  0.108E-01
   9.594  0.113E-01  0.113E-01
   9.604  0.118E-01  0.118E-01
   9.614  0.121E-01  0.121E-01
   9.624  0.122E-01  0.122E-01
   9.634  0.122E-01  0.122E-01
   9.644  0.121E-01  0.121E-01
   9.654  0.117E-01  0.117E-01
   9.664  0.112E-01  0.112E-01
   9.674  0.105E-01  0.105E-01
   9.684  0.974E-02  0.974E-02
   9.694  0.882E-02  0.882E-02
   9.704  0.781E-02  0.781E-02
   9.714  0.675E-02  0.675E-02
   9.724  0.566E-02  0.566E-02
   9.734  0.459E-02  0.459E-02
   9.744  0.356E-02  0.356E-02
   9.754  0.261E-02  0.261E-02
   9.764  0.174E-02  0.174E-02
   9.774  0.987E-03  0.987E-03
   9.784  0.357E-03  0.357E-03
   9.794 -0.140E-03 -0.140E-03
   9.804 -0.505E-03 -0.505E-03
   9.814 -0.737E-03 -0.737E-03
   9.824 -0.844E-03 -0.844E-03
   9.834 -0.832E-03 -0.832E-03
   9.844 -0.714E-03 -0.714E-03
   9.854 -0.499E-03 -0.499E-03
   9.864 -0.201E-03 -0.201E-03
   9.874  0.170E-03  0.170E-03
   9.884  0.602E-03  0.602E-03
   9.894  0.108E-02  0.108E-02
   9.904  0.160E-02  0.160E-02
   9.914  0.214E-02  0.214E-02
   9.924  0.270E-02  0.270E-02
   9.934  0.326E-02  0.326E-02
   9.944  0.382E-02  0.382E-02
   9.954  0.435E-02  0.435E-02
   9.964  0.484E-02  0.484E-02
   9.974  0.529E-02  0.529E-02
   9.984  0.567E-02  0.567E-02
   9.994  0.598E-02  0.598E-02
  10.004  0.620E-02  0.620E-02
  10.014  0.633E-02  0.633E-02
  10.024  0.636E-02  0.636E-02
  10.034  0.629E-02  0.629E-02
  10.044  0.612E-02  0.612E-02
  10.054  0.585E-02  0.585E-02
  10.064  0.549E-02  0.549E-02
  10.074  0.506E-02  0.506E-02
  10.084  0.457E-02  0.457E-02
  10.094  0.403E-02  0.403E-02
  10.104  0.346E-02  0.346E-02
  10.114  0.288E-02  0.288E-02
  10.124  0.232E-02  0.232E-02
  10.134  0.177E-02  0.177E-02
  10.144  0.126E-02  0.126E-02
  10.154  0.800E-03  0.800E-03
  10.164  0.395E-03  0.395E-03
  10.174  0.504E-04  0.504E-04
  10.184 -0.231E-03 -0.231E-03
  10.194 -0.451E-03 -0.451E-03
  10.204 -0.613E-03 -0.613E-03
  10.214 -0.720E-03 -0.720E-03
  10.224 -0.781E-03 -0.781E-03
  10.234 -0.802E-03 -0.802E-03
  10.244 -0.790E-03 -0.790E-03
  10.254 -0.753E-03 -0.753E-03
  10.264 -0.698E-03 -0.698E-03
  10.274 -0.631E-03 -0.631E-03
  10.284 -0.557E-03 -0.557E-03
  10.294 -0.480E-03 -0.480E-03
  10.304 -0.402E-03 -0.402E-03
  10.314 -0.324E-03 -0.324E-03
  10.324 -0.247E-03 -0.247E-03
  10.334 -0.167E-03 -0.167E-03
  10.344 -0.828E-04 -0.828E-04
  10.354  0.127E-04  0.127E-04
  10.364  0.127E-03  0.127E-03
  10.374  0.271E-03  0.271E-03
  10.384  0.460E-03  0.460E-03
  10.394  0.713E-03  0.713E-03
  10.404  0.105E-02  0.105E-02
  10.414  0.151E-02  0.151E-02
  10.424  0.213E-02  0.213E-02
  10.434  0.295E-02  0.295E-02
  10.444  0.404E-02  0.404E-02
  10.454  0.545E-02  0.545E-02
  10.464  0.727E-02  0.727E-02
  10.474  0.959E-02  0.959E-02
  10.484  0.125E-01  0.125E-01
  10.494  0.161E-01  0.161E-01
  10.504  0.205E-01  0.205E-01
  10.514  0.258E-01  0.258E-01
  10.524  0.321E-01  0.321E-01
  10.534  0.394E-01  0.394E-01
  10.544  0.479E-01  0.479E-01
  10.554  0.575E-01  0.575E-01
  10.564  0.682E-01  0.682E-01
  10.574  0.799E-01  0.799E-01
  10.584  0.925E-01  0.925E-01
  10.594  0.106E+00  0.106E+00
  10.604  0.119E+00  0.119E+00
  10.614  0.133E+00  0.133E+00
  10.624  0.147E+00  0.147E+00
  10.634  0.159E+00  0.159E+00
  10.644  0.171E+00  0.171E+00
  10.654  0.181E+00  0.181E+00
  10.664  0.189E+00  0.189E+00
  10.674  0.195E+00  0.195E+00
  10.684  0.198E+00  0.198E+00
  10.694  0.198E+00  0.198E+00
  10.704  0.196E+00  0.196E+00
  10.714  0.190E+00  0.190E+00
  10.724  0.181E+00  0.181E+00
  10.734  0.170E+00  0.170E+00
  10.744  0.156E+00  0.156E+00
  10.754  0.141E+00  0.141E+00
  10.764  0.124E+00  0.124E+00
  10.774  0.107E+00  0.107E+00
  10.784  0.889E-01  0.889E-01
  10.794  0.713E-01  0.713E-01
  10.804  0.544E-01  0.544E-01
  10.814  0.387E-01  0.387E-01
  10.824  0.244E-01  0.244E-01
  10.834  0.120E-01  0.120E-01
  10.844  0.134E-02  0.134E-02
  10.854 -0.733E-02 -0.733E-02
  10.864 -0.141E-01 -0.141E-01
  10.874 -0.190E-01 -0.190E-01
  10.884 -0.223E-01 -0.223E-01
  10.894 -0.242E-01 -0.242E-01
  10.904 -0.248E-01 -0.248E-01
  10.914 -0.244E-01 -0.244E-01
  10.924 -0.233E-01 -0.233E-01
  10.934 -0.216E-01 -0.216E-01
  10.944 -0.195E-01 -0.195E-01
  10.954 -0.173E-01 -0.173E-01
  10.964 -0.150E-01 -0.150E-01
  10.974 -0.128E-01 -0.128E-01
  10.984 -0.106E-01 -0.106E-01
  10.994 -0.864E-02 -0.864E-02
  11.004 -0.683E-02 -0.683E-02
  11.014 -0.519E-02 -0.519E-02
  11.024 -0.372E-02 -0.372E-02
  11.034 -0.239E-02 -0.239E-02
  11.044 -0.116E-02 -0.116E-02
  11.054 -0.748E-06 -0.748E-06
  11.064  0.113E-02  0.113E-02
  11.074  0.228E-02  0.228E-02
  11.084  0.347E-02  0.347E-02
  11.094  0.474E-02  0.474E-02
  11.104  0.611E-02  0.611E-02
  11.114  0.761E-02  0.761E-02
  11.124  0.925E-02  0.925E-02
  11.134  0.110E-01  0.110E-01
  11.144  0.129E-01  0.129E-01
  11.154  0.149E-01  0.149E-01
  11.164  0.170E-01  0.170E-01
  11.174  0.191E-01  0.191E-01
  11.184  0.213E-01  0.213E-01
  11.194  0.233E-01  0.233E-01
  11.204  0.252E-01  0.252E-01
  11.214  0.269E-01  0.269E-01
  11.224  0.283E-01  0.283E-01
  11.234  0.294E-01  0.294E-01
  11.244  0.301E-01  0.301E-01
  11.254  0.304E-01  0.304E-01
  11.264  0.303E-01  0.303E-01
  11.274  0.297E-01  0.297E-01
  11.284  0.286E-01  0.286E-01
  11.294  0.271E-01  0.271E-01
  11.304  0.252E-01  0.252E-01
  11.314  0.230E-01  0.230E-01
  11.324  0.206E-01  0.206E-01
  11.334  0.179E-01  0.179E-01
  11.344  0.152E-01  0.152E-01
  11.354  0.125E-01  0.125E-01
  11.364  0.983E-02  0.983E-02
  11.374  0.731E-02  0.731E-02
  11.384  0.499E-02  0.499E-02
  11.394  0.292E-02  0.292E-02
  11.404  0.112E-02  0.112E-02
  11.414 -0.383E-03 -0.383E-03
  11.424 -0.159E-02 -0.159E-02
  11.434 -0.251E-02 -0.251E-02
  11.444 -0.316E-02 -0.316E-02
  11.454 -0.357E-02 -0.357E-02
  11.464 -0.377E-02 -0.377E-02
  11.474 -0.379E-02 -0.379E-02
  11.484 -0.368E-02 -0.368E-02
  11.494 -0.347E-02 -0.347E-02
  11.504 -0.319E-02 -0.319E-02
  11.514 -0.287E-02 -0.287E-02
  11.524 -0.252E-02 -0.252E-02
  11.534 -0.218E-02 -0.218E-02
  11.544 -0.185E-02 -0.185E-02
  11.554 -0.155E-02 -0.155E-02
  11.564 -0.127E-02 -0.127E-02
  11.574 -0.103E-02 -0.103E-02
  11.584 -0.822E-03 -0.822E-03
  11.594 -0.646E-03 -0.646E-03
  11.604 -0.502E-03 -0.502E-03
  11.614 -0.384E-03 -0.384E-03
  11.624 -0.290E-03 -0.290E-03
  11.634 -0.216E-03 -0.216E-03
