#  E (eV)   dos(E)     Int dos(E) EFermi =   -1.096 eV
 -10.000  0.4633E+00  0.4633E-02
  -9.990  0.4647E+00  0.9280E-02
  -9.980  0.4661E+00  0.1394E-01
  -9.970  0.4673E+00  0.1861E-01
  -9.960  0.4684E+00  0.2330E-01
  -9.950  0.4692E+00  0.2799E-01
  -9.940  0.4698E+00  0.3269E-01
  -9.930  0.4701E+00  0.3739E-01
  -9.920  0.4702E+00  0.4209E-01
  -9.910  0.4701E+00  0.4679E-01
  -9.900  0.4698E+00  0.5149E-01
  -9.890  0.4695E+00  0.5618E-01
  -9.880  0.4692E+00  0.6088E-01
  -9.870  0.4689E+00  0.6556E-01
  -9.860  0.4688E+00  0.7025E-01
  -9.850  0.4687E+00  0.7494E-01
  -9.840  0.4689E+00  0.7963E-01
  -9.830  0.4693E+00  0.8432E-01
  -9.820  0.4699E+00  0.8902E-01
  -9.810  0.4706E+00  0.9373E-01
  -9.800  0.4716E+00  0.9844E-01
  -9.790  0.4727E+00  0.1032E+00
  -9.780  0.4739E+00  0.1079E+00
  -9.770  0.4751E+00  0.1127E+00
  -9.760  0.4764E+00  0.1174E+00
  -9.750  0.4777E+00  0.1222E+00
  -9.740  0.4788E+00  0.1270E+00
  -9.730  0.4799E+00  0.1318E+00
  -9.720  0.4809E+00  0.1366E+00
  -9.710  0.4817E+00  0.1414E+00
  -9.700  0.4824E+00  0.1462E+00
  -9.690  0.4828E+00  0.1511E+00
  -9.680  0.4830E+00  0.1559E+00
  -9.670  0.4831E+00  0.1607E+00
  -9.660  0.4831E+00  0.1656E+00
  -9.650  0.4829E+00  0.1704E+00
  -9.640  0.4827E+00  0.1752E+00
  -9.630  0.4825E+00  0.1800E+00
  -9.620  0.4824E+00  0.1849E+00
  -9.610  0.4823E+00  0.1897E+00
  -9.600  0.4825E+00  0.1945E+00
  -9.590  0.4828E+00  0.1993E+00
  -9.580  0.4834E+00  0.2042E+00
  -9.570  0.4842E+00  0.2090E+00
  -9.560  0.4853E+00  0.2139E+00
  -9.550  0.4866E+00  0.2187E+00
  -9.540  0.4880E+00  0.2236E+00
  -9.530  0.4895E+00  0.2285E+00
  -9.520  0.4911E+00  0.2334E+00
  -9.510  0.4926E+00  0.2383E+00
  -9.500  0.4940E+00  0.2433E+00
  -9.490  0.4952E+00  0.2482E+00
  -9.480  0.4962E+00  0.2532E+00
  -9.470  0.4970E+00  0.2582E+00
  -9.460  0.4976E+00  0.2631E+00
  -9.450  0.4979E+00  0.2681E+00
  -9.440  0.4981E+00  0.2731E+00
  -9.430  0.4981E+00  0.2781E+00
  -9.420  0.4981E+00  0.2831E+00
  -9.410  0.4980E+00  0.2880E+00
  -9.400  0.4981E+00  0.2930E+00
  -9.390  0.4983E+00  0.2980E+00
  -9.380  0.4986E+00  0.3030E+00
  -9.370  0.4991E+00  0.3080E+00
  -9.360  0.4999E+00  0.3130E+00
  -9.350  0.5008E+00  0.3180E+00
  -9.340  0.5018E+00  0.3230E+00
  -9.330  0.5030E+00  0.3280E+00
  -9.320  0.5042E+00  0.3331E+00
  -9.310  0.5054E+00  0.3381E+00
  -9.300  0.5065E+00  0.3432E+00
  -9.290  0.5076E+00  0.3483E+00
  -9.280  0.5086E+00  0.3534E+00
  -9.270  0.5095E+00  0.3585E+00
  -9.260  0.5102E+00  0.3636E+00
  -9.250  0.5110E+00  0.3687E+00
  -9.240  0.5117E+00  0.3738E+00
  -9.230  0.5124E+00  0.3789E+00
  -9.220  0.5132E+00  0.3840E+00
  -9.210  0.5140E+00  0.3892E+00
  -9.200  0.5150E+00  0.3943E+00
  -9.190  0.5161E+00  0.3995E+00
  -9.180  0.5173E+00  0.4047E+00
  -9.170  0.5186E+00  0.4099E+00
  -9.160  0.5200E+00  0.4151E+00
  -9.150  0.5214E+00  0.4203E+00
  -9.140  0.5227E+00  0.4255E+00
  -9.130  0.5239E+00  0.4307E+00
  -9.120  0.5250E+00  0.4360E+00
  -9.110  0.5260E+00  0.4412E+00
  -9.100  0.5268E+00  0.4465E+00
  -9.090  0.5275E+00  0.4518E+00
  -9.080  0.5282E+00  0.4571E+00
  -9.070  0.5289E+00  0.4624E+00
  -9.060  0.5297E+00  0.4677E+00
  -9.050  0.5308E+00  0.4730E+00
  -9.040  0.5323E+00  0.4783E+00
  -9.030  0.5342E+00  0.4836E+00
  -9.020  0.5368E+00  0.4890E+00
  -9.010  0.5401E+00  0.4944E+00
  -9.000  0.5442E+00  0.4998E+00
  -8.990  0.5491E+00  0.5053E+00
  -8.980  0.5549E+00  0.5109E+00
  -8.970  0.5615E+00  0.5165E+00
  -8.960  0.5690E+00  0.5222E+00
  -8.950  0.5772E+00  0.5280E+00
  -8.940  0.5860E+00  0.5338E+00
  -8.930  0.5955E+00  0.5398E+00
  -8.920  0.6054E+00  0.5458E+00
  -8.910  0.6157E+00  0.5520E+00
  -8.900  0.6264E+00  0.5582E+00
  -8.890  0.6373E+00  0.5646E+00
  -8.880  0.6483E+00  0.5711E+00
  -8.870  0.6596E+00  0.5777E+00
  -8.860  0.6709E+00  0.5844E+00
  -8.850  0.6823E+00  0.5912E+00
  -8.840  0.6938E+00  0.5982E+00
  -8.830  0.7054E+00  0.6052E+00
  -8.820  0.7169E+00  0.6124E+00
  -8.810  0.7285E+00  0.6197E+00
  -8.800  0.7400E+00  0.6271E+00
  -8.790  0.7514E+00  0.6346E+00
  -8.780  0.7627E+00  0.6422E+00
  -8.770  0.7737E+00  0.6500E+00
  -8.760  0.7844E+00  0.6578E+00
  -8.750  0.7947E+00  0.6657E+00
  -8.740  0.8045E+00  0.6738E+00
  -8.730  0.8138E+00  0.6819E+00
  -8.720  0.8224E+00  0.6902E+00
  -8.710  0.8302E+00  0.6985E+00
  -8.700  0.8374E+00  0.7068E+00
  -8.690  0.8437E+00  0.7153E+00
  -8.680  0.8493E+00  0.7238E+00
  -8.670  0.8542E+00  0.7323E+00
  -8.660  0.8583E+00  0.7409E+00
  -8.650  0.8618E+00  0.7495E+00
  -8.640  0.8647E+00  0.7581E+00
  -8.630  0.8671E+00  0.7668E+00
  -8.620  0.8691E+00  0.7755E+00
  -8.610  0.8708E+00  0.7842E+00
  -8.600  0.8722E+00  0.7929E+00
  -8.590  0.8735E+00  0.8017E+00
  -8.580  0.8748E+00  0.8104E+00
  -8.570  0.8760E+00  0.8192E+00
  -8.560  0.8773E+00  0.8280E+00
  -8.550  0.8787E+00  0.8367E+00
  -8.540  0.8803E+00  0.8455E+00
  -8.530  0.8821E+00  0.8544E+00
  -8.520  0.8840E+00  0.8632E+00
  -8.510  0.8862E+00  0.8721E+00
  -8.500  0.8887E+00  0.8810E+00
  -8.490  0.8913E+00  0.8899E+00
  -8.480  0.8941E+00  0.8988E+00
  -8.470  0.8972E+00  0.9078E+00
  -8.460  0.9004E+00  0.9168E+00
  -8.450  0.9037E+00  0.9258E+00
  -8.440  0.9071E+00  0.9349E+00
  -8.430  0.9106E+00  0.9440E+00
  -8.420  0.9140E+00  0.9531E+00
  -8.410  0.9175E+00  0.9623E+00
  -8.400  0.9208E+00  0.9715E+00
  -8.390  0.9239E+00  0.9808E+00
  -8.380  0.9269E+00  0.9900E+00
  -8.370  0.9297E+00  0.9993E+00
  -8.360  0.9323E+00  0.1009E+01
  -8.350  0.9347E+00  0.1018E+01
  -8.340  0.9368E+00  0.1027E+01
  -8.330  0.9389E+00  0.1037E+01
  -8.320  0.9408E+00  0.1046E+01
  -8.310  0.9427E+00  0.1056E+01
  -8.300  0.9446E+00  0.1065E+01
  -8.290  0.9467E+00  0.1075E+01
  -8.280  0.9489E+00  0.1084E+01
  -8.270  0.9515E+00  0.1094E+01
  -8.260  0.9543E+00  0.1103E+01
  -8.250  0.9575E+00  0.1113E+01
  -8.240  0.9611E+00  0.1122E+01
  -8.230  0.9651E+00  0.1132E+01
  -8.220  0.9696E+00  0.1142E+01
  -8.210  0.9744E+00  0.1151E+01
  -8.200  0.9795E+00  0.1161E+01
  -8.190  0.9849E+00  0.1171E+01
  -8.180  0.9905E+00  0.1181E+01
  -8.170  0.9962E+00  0.1191E+01
  -8.160  0.1002E+01  0.1201E+01
  -8.150  0.1008E+01  0.1211E+01
  -8.140  0.1014E+01  0.1221E+01
  -8.130  0.1019E+01  0.1231E+01
  -8.120  0.1025E+01  0.1242E+01
  -8.110  0.1031E+01  0.1252E+01
  -8.100  0.1036E+01  0.1262E+01
  -8.090  0.1042E+01  0.1273E+01
  -8.080  0.1048E+01  0.1283E+01
  -8.070  0.1053E+01  0.1294E+01
  -8.060  0.1059E+01  0.1304E+01
  -8.050  0.1066E+01  0.1315E+01
  -8.040  0.1072E+01  0.1326E+01
  -8.030  0.1079E+01  0.1336E+01
  -8.020  0.1087E+01  0.1347E+01
  -8.010  0.1095E+01  0.1358E+01
  -8.000  0.1104E+01  0.1369E+01
  -7.990  0.1114E+01  0.1380E+01
  -7.980  0.1124E+01  0.1392E+01
  -7.970  0.1135E+01  0.1403E+01
  -7.960  0.1147E+01  0.1414E+01
  -7.950  0.1160E+01  0.1426E+01
  -7.940  0.1173E+01  0.1438E+01
  -7.930  0.1187E+01  0.1450E+01
  -7.920  0.1201E+01  0.1462E+01
  -7.910  0.1215E+01  0.1474E+01
  -7.900  0.1230E+01  0.1486E+01
  -7.890  0.1244E+01  0.1499E+01
  -7.880  0.1258E+01  0.1511E+01
  -7.870  0.1271E+01  0.1524E+01
  -7.860  0.1284E+01  0.1537E+01
  -7.850  0.1295E+01  0.1550E+01
  -7.840  0.1305E+01  0.1563E+01
  -7.830  0.1313E+01  0.1576E+01
  -7.820  0.1320E+01  0.1589E+01
  -7.810  0.1325E+01  0.1602E+01
  -7.800  0.1328E+01  0.1616E+01
  -7.790  0.1329E+01  0.1629E+01
  -7.780  0.1329E+01  0.1642E+01
  -7.770  0.1326E+01  0.1655E+01
  -7.760  0.1321E+01  0.1669E+01
  -7.750  0.1315E+01  0.1682E+01
  -7.740  0.1306E+01  0.1695E+01
  -7.730  0.1297E+01  0.1708E+01
  -7.720  0.1286E+01  0.1721E+01
  -7.710  0.1274E+01  0.1733E+01
  -7.700  0.1262E+01  0.1746E+01
  -7.690  0.1249E+01  0.1758E+01
  -7.680  0.1236E+01  0.1771E+01
  -7.670  0.1222E+01  0.1783E+01
  -7.660  0.1208E+01  0.1795E+01
  -7.650  0.1195E+01  0.1807E+01
  -7.640  0.1182E+01  0.1819E+01
  -7.630  0.1169E+01  0.1831E+01
  -7.620  0.1157E+01  0.1842E+01
  -7.610  0.1145E+01  0.1854E+01
  -7.600  0.1134E+01  0.1865E+01
  -7.590  0.1123E+01  0.1876E+01
  -7.580  0.1112E+01  0.1887E+01
  -7.570  0.1102E+01  0.1898E+01
  -7.560  0.1092E+01  0.1909E+01
  -7.550  0.1082E+01  0.1920E+01
  -7.540  0.1072E+01  0.1931E+01
  -7.530  0.1063E+01  0.1941E+01
  -7.520  0.1054E+01  0.1952E+01
  -7.510  0.1045E+01  0.1962E+01
  -7.500  0.1036E+01  0.1973E+01
  -7.490  0.1027E+01  0.1983E+01
  -7.480  0.1019E+01  0.1993E+01
  -7.470  0.1011E+01  0.2003E+01
  -7.460  0.1003E+01  0.2013E+01
  -7.450  0.9961E+00  0.2023E+01
  -7.440  0.9894E+00  0.2033E+01
  -7.430  0.9833E+00  0.2043E+01
  -7.420  0.9778E+00  0.2053E+01
  -7.410  0.9728E+00  0.2063E+01
  -7.400  0.9683E+00  0.2072E+01
  -7.390  0.9643E+00  0.2082E+01
  -7.380  0.9607E+00  0.2092E+01
  -7.370  0.9574E+00  0.2101E+01
  -7.360  0.9543E+00  0.2111E+01
  -7.350  0.9513E+00  0.2120E+01
  -7.340  0.9482E+00  0.2130E+01
  -7.330  0.9451E+00  0.2139E+01
  -7.320  0.9418E+00  0.2148E+01
  -7.310  0.9383E+00  0.2158E+01
  -7.300  0.9345E+00  0.2167E+01
  -7.290  0.9305E+00  0.2177E+01
  -7.280  0.9263E+00  0.2186E+01
  -7.270  0.9220E+00  0.2195E+01
  -7.260  0.9176E+00  0.2204E+01
  -7.250  0.9131E+00  0.2213E+01
  -7.240  0.9087E+00  0.2222E+01
  -7.230  0.9043E+00  0.2231E+01
  -7.220  0.9001E+00  0.2240E+01
  -7.210  0.8961E+00  0.2249E+01
  -7.200  0.8923E+00  0.2258E+01
  -7.190  0.8888E+00  0.2267E+01
  -7.180  0.8854E+00  0.2276E+01
  -7.170  0.8823E+00  0.2285E+01
  -7.160  0.8793E+00  0.2294E+01
  -7.150  0.8766E+00  0.2302E+01
  -7.140  0.8740E+00  0.2311E+01
  -7.130  0.8715E+00  0.2320E+01
  -7.120  0.8691E+00  0.2329E+01
  -7.110  0.8669E+00  0.2337E+01
  -7.100  0.8648E+00  0.2346E+01
  -7.090  0.8628E+00  0.2355E+01
  -7.080  0.8609E+00  0.2363E+01
  -7.070  0.8591E+00  0.2372E+01
  -7.060  0.8574E+00  0.2380E+01
  -7.050  0.8557E+00  0.2389E+01
  -7.040  0.8540E+00  0.2397E+01
  -7.030  0.8523E+00  0.2406E+01
  -7.020  0.8504E+00  0.2414E+01
  -7.010  0.8485E+00  0.2423E+01
  -7.000  0.8464E+00  0.2431E+01
  -6.990  0.8440E+00  0.2440E+01
  -6.980  0.8415E+00  0.2448E+01
  -6.970  0.8387E+00  0.2457E+01
  -6.960  0.8357E+00  0.2465E+01
  -6.950  0.8325E+00  0.2473E+01
  -6.940  0.8292E+00  0.2482E+01
  -6.930  0.8259E+00  0.2490E+01
  -6.920  0.8227E+00  0.2498E+01
  -6.910  0.8196E+00  0.2506E+01
  -6.900  0.8168E+00  0.2514E+01
  -6.890  0.8143E+00  0.2523E+01
  -6.880  0.8121E+00  0.2531E+01
  -6.870  0.8103E+00  0.2539E+01
  -6.860  0.8090E+00  0.2547E+01
  -6.850  0.8080E+00  0.2555E+01
  -6.840  0.8073E+00  0.2563E+01
  -6.830  0.8068E+00  0.2571E+01
  -6.820  0.8065E+00  0.2579E+01
  -6.810  0.8061E+00  0.2587E+01
  -6.800  0.8057E+00  0.2595E+01
  -6.790  0.8051E+00  0.2603E+01
  -6.780  0.8043E+00  0.2611E+01
  -6.770  0.8031E+00  0.2619E+01
  -6.760  0.8016E+00  0.2627E+01
  -6.750  0.7997E+00  0.2635E+01
  -6.740  0.7975E+00  0.2643E+01
  -6.730  0.7950E+00  0.2651E+01
  -6.720  0.7923E+00  0.2659E+01
  -6.710  0.7895E+00  0.2667E+01
  -6.700  0.7867E+00  0.2675E+01
  -6.690  0.7840E+00  0.2683E+01
  -6.680  0.7815E+00  0.2691E+01
  -6.670  0.7792E+00  0.2699E+01
  -6.660  0.7772E+00  0.2706E+01
  -6.650  0.7755E+00  0.2714E+01
  -6.640  0.7742E+00  0.2722E+01
  -6.630  0.7732E+00  0.2730E+01
  -6.620  0.7724E+00  0.2737E+01
  -6.610  0.7718E+00  0.2745E+01
  -6.600  0.7714E+00  0.2753E+01
  -6.590  0.7710E+00  0.2760E+01
  -6.580  0.7705E+00  0.2768E+01
  -6.570  0.7700E+00  0.2776E+01
  -6.560  0.7693E+00  0.2783E+01
  -6.550  0.7684E+00  0.2791E+01
  -6.540  0.7674E+00  0.2799E+01
  -6.530  0.7662E+00  0.2806E+01
  -6.520  0.7648E+00  0.2814E+01
  -6.510  0.7633E+00  0.2822E+01
  -6.500  0.7618E+00  0.2829E+01
  -6.490  0.7602E+00  0.2837E+01
  -6.480  0.7586E+00  0.2845E+01
  -6.470  0.7571E+00  0.2852E+01
  -6.460  0.7557E+00  0.2860E+01
  -6.450  0.7543E+00  0.2867E+01
  -6.440  0.7530E+00  0.2875E+01
  -6.430  0.7519E+00  0.2882E+01
  -6.420  0.7507E+00  0.2890E+01
  -6.410  0.7497E+00  0.2897E+01
  -6.400  0.7486E+00  0.2905E+01
  -6.390  0.7475E+00  0.2912E+01
  -6.380  0.7464E+00  0.2920E+01
  -6.370  0.7453E+00  0.2927E+01
  -6.360  0.7443E+00  0.2935E+01
  -6.350  0.7432E+00  0.2942E+01
  -6.340  0.7422E+00  0.2949E+01
  -6.330  0.7412E+00  0.2957E+01
  -6.320  0.7403E+00  0.2964E+01
  -6.310  0.7396E+00  0.2972E+01
  -6.300  0.7389E+00  0.2979E+01
  -6.290  0.7384E+00  0.2986E+01
  -6.280  0.7379E+00  0.2994E+01
  -6.270  0.7375E+00  0.3001E+01
  -6.260  0.7371E+00  0.3009E+01
  -6.250  0.7367E+00  0.3016E+01
  -6.240  0.7363E+00  0.3023E+01
  -6.230  0.7357E+00  0.3031E+01
  -6.220  0.7350E+00  0.3038E+01
  -6.210  0.7341E+00  0.3045E+01
  -6.200  0.7331E+00  0.3053E+01
  -6.190  0.7320E+00  0.3060E+01
  -6.180  0.7307E+00  0.3067E+01
  -6.170  0.7293E+00  0.3075E+01
  -6.160  0.7280E+00  0.3082E+01
  -6.150  0.7266E+00  0.3089E+01
  -6.140  0.7253E+00  0.3096E+01
  -6.130  0.7241E+00  0.3104E+01
  -6.120  0.7231E+00  0.3111E+01
  -6.110  0.7222E+00  0.3118E+01
  -6.100  0.7215E+00  0.3125E+01
  -6.090  0.7211E+00  0.3133E+01
  -6.080  0.7208E+00  0.3140E+01
  -6.070  0.7206E+00  0.3147E+01
  -6.060  0.7206E+00  0.3154E+01
  -6.050  0.7207E+00  0.3161E+01
  -6.040  0.7208E+00  0.3169E+01
  -6.030  0.7208E+00  0.3176E+01
  -6.020  0.7209E+00  0.3183E+01
  -6.010  0.7208E+00  0.3190E+01
  -6.000  0.7205E+00  0.3197E+01
  -5.990  0.7201E+00  0.3205E+01
  -5.980  0.7195E+00  0.3212E+01
  -5.970  0.7188E+00  0.3219E+01
  -5.960  0.7179E+00  0.3226E+01
  -5.950  0.7168E+00  0.3233E+01
  -5.940  0.7156E+00  0.3240E+01
  -5.930  0.7145E+00  0.3248E+01
  -5.920  0.7133E+00  0.3255E+01
  -5.910  0.7122E+00  0.3262E+01
  -5.900  0.7112E+00  0.3269E+01
  -5.890  0.7104E+00  0.3276E+01
  -5.880  0.7098E+00  0.3283E+01
  -5.870  0.7094E+00  0.3290E+01
  -5.860  0.7092E+00  0.3297E+01
  -5.850  0.7093E+00  0.3304E+01
  -5.840  0.7096E+00  0.3312E+01
  -5.830  0.7100E+00  0.3319E+01
  -5.820  0.7105E+00  0.3326E+01
  -5.810  0.7110E+00  0.3333E+01
  -5.800  0.7114E+00  0.3340E+01
  -5.790  0.7118E+00  0.3347E+01
  -5.780  0.7119E+00  0.3354E+01
  -5.770  0.7119E+00  0.3361E+01
  -5.760  0.7117E+00  0.3368E+01
  -5.750  0.7113E+00  0.3376E+01
  -5.740  0.7107E+00  0.3383E+01
  -5.730  0.7099E+00  0.3390E+01
  -5.720  0.7090E+00  0.3397E+01
  -5.710  0.7081E+00  0.3404E+01
  -5.700  0.7072E+00  0.3411E+01
  -5.690  0.7064E+00  0.3418E+01
  -5.680  0.7057E+00  0.3425E+01
  -5.670  0.7052E+00  0.3432E+01
  -5.660  0.7050E+00  0.3439E+01
  -5.650  0.7050E+00  0.3446E+01
  -5.640  0.7052E+00  0.3453E+01
  -5.630  0.7056E+00  0.3460E+01
  -5.620  0.7062E+00  0.3467E+01
  -5.610  0.7069E+00  0.3475E+01
  -5.600  0.7076E+00  0.3482E+01
  -5.590  0.7084E+00  0.3489E+01
  -5.580  0.7091E+00  0.3496E+01
  -5.570  0.7098E+00  0.3503E+01
  -5.560  0.7102E+00  0.3510E+01
  -5.550  0.7105E+00  0.3517E+01
  -5.540  0.7106E+00  0.3524E+01
  -5.530  0.7105E+00  0.3531E+01
  -5.520  0.7102E+00  0.3538E+01
  -5.510  0.7098E+00  0.3546E+01
  -5.500  0.7093E+00  0.3553E+01
  -5.490  0.7088E+00  0.3560E+01
  -5.480  0.7083E+00  0.3567E+01
  -5.470  0.7079E+00  0.3574E+01
  -5.460  0.7076E+00  0.3581E+01
  -5.450  0.7076E+00  0.3588E+01
  -5.440  0.7077E+00  0.3595E+01
  -5.430  0.7081E+00  0.3602E+01
  -5.420  0.7088E+00  0.3609E+01
  -5.410  0.7096E+00  0.3616E+01
  -5.400  0.7106E+00  0.3623E+01
  -5.390  0.7118E+00  0.3631E+01
  -5.380  0.7130E+00  0.3638E+01
  -5.370  0.7142E+00  0.3645E+01
  -5.360  0.7153E+00  0.3652E+01
  -5.350  0.7163E+00  0.3659E+01
  -5.340  0.7172E+00  0.3666E+01
  -5.330  0.7178E+00  0.3674E+01
  -5.320  0.7182E+00  0.3681E+01
  -5.310  0.7184E+00  0.3688E+01
  -5.300  0.7184E+00  0.3695E+01
  -5.290  0.7182E+00  0.3702E+01
  -5.280  0.7180E+00  0.3709E+01
  -5.270  0.7176E+00  0.3717E+01
  -5.260  0.7173E+00  0.3724E+01
  -5.250  0.7170E+00  0.3731E+01
  -5.240  0.7167E+00  0.3738E+01
  -5.230  0.7165E+00  0.3745E+01
  -5.220  0.7164E+00  0.3752E+01
  -5.210  0.7163E+00  0.3760E+01
  -5.200  0.7162E+00  0.3767E+01
  -5.190  0.7159E+00  0.3774E+01
  -5.180  0.7153E+00  0.3781E+01
  -5.170  0.7145E+00  0.3788E+01
  -5.160  0.7131E+00  0.3795E+01
  -5.150  0.7111E+00  0.3802E+01
  -5.140  0.7085E+00  0.3810E+01
  -5.130  0.7051E+00  0.3817E+01
  -5.120  0.7008E+00  0.3824E+01
  -5.110  0.6957E+00  0.3831E+01
  -5.100  0.6897E+00  0.3837E+01
  -5.090  0.6829E+00  0.3844E+01
  -5.080  0.6753E+00  0.3851E+01
  -5.070  0.6672E+00  0.3858E+01
  -5.060  0.6585E+00  0.3864E+01
  -5.050  0.6495E+00  0.3871E+01
  -5.040  0.6403E+00  0.3877E+01
  -5.030  0.6311E+00  0.3884E+01
  -5.020  0.6220E+00  0.3890E+01
  -5.010  0.6131E+00  0.3896E+01
  -5.000  0.6047E+00  0.3902E+01
  -4.990  0.5967E+00  0.3908E+01
  -4.980  0.5893E+00  0.3914E+01
  -4.970  0.5825E+00  0.3920E+01
  -4.960  0.5763E+00  0.3925E+01
  -4.950  0.5708E+00  0.3931E+01
  -4.940  0.5659E+00  0.3937E+01
  -4.930  0.5617E+00  0.3942E+01
  -4.920  0.5582E+00  0.3948E+01
  -4.910  0.5553E+00  0.3953E+01
  -4.900  0.5530E+00  0.3959E+01
  -4.890  0.5514E+00  0.3965E+01
  -4.880  0.5505E+00  0.3970E+01
  -4.870  0.5504E+00  0.3976E+01
  -4.860  0.5509E+00  0.3981E+01
  -4.850  0.5523E+00  0.3987E+01
  -4.840  0.5544E+00  0.3992E+01
  -4.830  0.5574E+00  0.3998E+01
  -4.820  0.5612E+00  0.4003E+01
  -4.810  0.5659E+00  0.4009E+01
  -4.800  0.5713E+00  0.4015E+01
  -4.790  0.5775E+00  0.4020E+01
  -4.780  0.5844E+00  0.4026E+01
  -4.770  0.5920E+00  0.4032E+01
  -4.760  0.6002E+00  0.4038E+01
  -4.750  0.6089E+00  0.4044E+01
  -4.740  0.6181E+00  0.4050E+01
  -4.730  0.6277E+00  0.4057E+01
  -4.720  0.6377E+00  0.4063E+01
  -4.710  0.6480E+00  0.4070E+01
  -4.700  0.6587E+00  0.4076E+01
  -4.690  0.6696E+00  0.4083E+01
  -4.680  0.6809E+00  0.4090E+01
  -4.670  0.6923E+00  0.4097E+01
  -4.660  0.7041E+00  0.4104E+01
  -4.650  0.7159E+00  0.4111E+01
  -4.640  0.7279E+00  0.4118E+01
  -4.630  0.7398E+00  0.4125E+01
  -4.620  0.7516E+00  0.4133E+01
  -4.610  0.7630E+00  0.4141E+01
  -4.600  0.7738E+00  0.4148E+01
  -4.590  0.7839E+00  0.4156E+01
  -4.580  0.7930E+00  0.4164E+01
  -4.570  0.8008E+00  0.4172E+01
  -4.560  0.8071E+00  0.4180E+01
  -4.550  0.8118E+00  0.4188E+01
  -4.540  0.8148E+00  0.4196E+01
  -4.530  0.8158E+00  0.4205E+01
  -4.520  0.8150E+00  0.4213E+01
  -4.510  0.8122E+00  0.4221E+01
  -4.500  0.8075E+00  0.4229E+01
  -4.490  0.8012E+00  0.4237E+01
  -4.480  0.7932E+00  0.4245E+01
  -4.470  0.7839E+00  0.4253E+01
  -4.460  0.7733E+00  0.4261E+01
  -4.450  0.7618E+00  0.4268E+01
  -4.440  0.7495E+00  0.4276E+01
  -4.430  0.7367E+00  0.4283E+01
  -4.420  0.7234E+00  0.4290E+01
  -4.410  0.7100E+00  0.4297E+01
  -4.400  0.6964E+00  0.4304E+01
  -4.390  0.6829E+00  0.4311E+01
  -4.380  0.6695E+00  0.4318E+01
  -4.370  0.6563E+00  0.4324E+01
  -4.360  0.6434E+00  0.4331E+01
  -4.350  0.6308E+00  0.4337E+01
  -4.340  0.6186E+00  0.4343E+01
  -4.330  0.6068E+00  0.4349E+01
  -4.320  0.5955E+00  0.4355E+01
  -4.310  0.5846E+00  0.4361E+01
  -4.300  0.5742E+00  0.4367E+01
  -4.290  0.5643E+00  0.4373E+01
  -4.280  0.5549E+00  0.4378E+01
  -4.270  0.5461E+00  0.4384E+01
  -4.260  0.5377E+00  0.4389E+01
  -4.250  0.5297E+00  0.4394E+01
  -4.240  0.5222E+00  0.4399E+01
  -4.230  0.5150E+00  0.4405E+01
  -4.220  0.5082E+00  0.4410E+01
  -4.210  0.5016E+00  0.4415E+01
  -4.200  0.4953E+00  0.4420E+01
  -4.190  0.4892E+00  0.4425E+01
  -4.180  0.4833E+00  0.4429E+01
  -4.170  0.4775E+00  0.4434E+01
  -4.160  0.4720E+00  0.4439E+01
  -4.150  0.4665E+00  0.4444E+01
  -4.140  0.4612E+00  0.4448E+01
  -4.130  0.4561E+00  0.4453E+01
  -4.120  0.4511E+00  0.4457E+01
  -4.110  0.4463E+00  0.4462E+01
  -4.100  0.4416E+00  0.4466E+01
  -4.090  0.4370E+00  0.4470E+01
  -4.080  0.4325E+00  0.4475E+01
  -4.070  0.4282E+00  0.4479E+01
  -4.060  0.4240E+00  0.4483E+01
  -4.050  0.4199E+00  0.4488E+01
  -4.040  0.4159E+00  0.4492E+01
  -4.030  0.4119E+00  0.4496E+01
  -4.020  0.4080E+00  0.4500E+01
  -4.010  0.4042E+00  0.4504E+01
  -4.000  0.4005E+00  0.4508E+01
  -3.990  0.3968E+00  0.4512E+01
  -3.980  0.3932E+00  0.4516E+01
  -3.970  0.3896E+00  0.4520E+01
  -3.960  0.3861E+00  0.4524E+01
  -3.950  0.3827E+00  0.4527E+01
  -3.940  0.3793E+00  0.4531E+01
  -3.930  0.3759E+00  0.4535E+01
  -3.920  0.3725E+00  0.4539E+01
  -3.910  0.3692E+00  0.4542E+01
  -3.900  0.3659E+00  0.4546E+01
  -3.890  0.3625E+00  0.4550E+01
  -3.880  0.3591E+00  0.4553E+01
  -3.870  0.3557E+00  0.4557E+01
  -3.860  0.3521E+00  0.4560E+01
  -3.850  0.3484E+00  0.4564E+01
  -3.840  0.3445E+00  0.4567E+01
  -3.830  0.3404E+00  0.4571E+01
  -3.820  0.3360E+00  0.4574E+01
  -3.810  0.3313E+00  0.4577E+01
  -3.800  0.3262E+00  0.4581E+01
  -3.790  0.3207E+00  0.4584E+01
  -3.780  0.3147E+00  0.4587E+01
  -3.770  0.3082E+00  0.4590E+01
  -3.760  0.3011E+00  0.4593E+01
  -3.750  0.2933E+00  0.4596E+01
  -3.740  0.2848E+00  0.4599E+01
  -3.730  0.2757E+00  0.4602E+01
  -3.720  0.2659E+00  0.4604E+01
  -3.710  0.2554E+00  0.4607E+01
  -3.700  0.2442E+00  0.4609E+01
  -3.690  0.2325E+00  0.4612E+01
  -3.680  0.2202E+00  0.4614E+01
  -3.670  0.2074E+00  0.4616E+01
  -3.660  0.1943E+00  0.4618E+01
  -3.650  0.1809E+00  0.4620E+01
  -3.640  0.1674E+00  0.4621E+01
  -3.630  0.1539E+00  0.4623E+01
  -3.620  0.1406E+00  0.4624E+01
  -3.610  0.1275E+00  0.4626E+01
  -3.600  0.1148E+00  0.4627E+01
  -3.590  0.1026E+00  0.4628E+01
  -3.580  0.9095E-01  0.4629E+01
  -3.570  0.8002E-01  0.4629E+01
  -3.560  0.6984E-01  0.4630E+01
  -3.550  0.6046E-01  0.4631E+01
  -3.540  0.5191E-01  0.4631E+01
  -3.530  0.4418E-01  0.4632E+01
  -3.520  0.3728E-01  0.4632E+01
  -3.510  0.3119E-01  0.4632E+01
  -3.500  0.2586E-01  0.4633E+01
  -3.490  0.2125E-01  0.4633E+01
  -3.480  0.1730E-01  0.4633E+01
  -3.470  0.1396E-01  0.4633E+01
  -3.460  0.1116E-01  0.4633E+01
  -3.450  0.8833E-02  0.4633E+01
  -3.440  0.6929E-02  0.4633E+01
  -3.430  0.5383E-02  0.4633E+01
  -3.420  0.4142E-02  0.4633E+01
  -3.410  0.3157E-02  0.4634E+01
  -3.400  0.2383E-02  0.4634E+01
  -3.390  0.1781E-02  0.4634E+01
  -3.380  0.1318E-02  0.4634E+01
  -3.370  0.9658E-03  0.4634E+01
  -3.360  0.7008E-03  0.4634E+01
  -3.350  0.5034E-03  0.4634E+01
  -3.340  0.3581E-03  0.4634E+01
  -3.330  0.2521E-03  0.4634E+01
  -3.320  0.1758E-03  0.4634E+01
  -3.310  0.1213E-03  0.4634E+01
  -3.300  0.8285E-04  0.4634E+01
  -3.290  0.5602E-04  0.4634E+01
  -3.280  0.3750E-04  0.4634E+01
  -3.270  0.2484E-04  0.4634E+01
  -3.260  0.1629E-04  0.4634E+01
  -3.250  0.1057E-04  0.4634E+01
  -3.240  0.6793E-05  0.4634E+01
  -3.230  0.4320E-05  0.4634E+01
  -3.220  0.2718E-05  0.4634E+01
  -3.210  0.1693E-05  0.4634E+01
  -3.200  0.1044E-05  0.4634E+01
  -3.190  0.6367E-06  0.4634E+01
  -3.180  0.3844E-06  0.4634E+01
  -3.170  0.2297E-06  0.4634E+01
  -3.160  0.1358E-06  0.4634E+01
  -3.150  0.7946E-07  0.4634E+01
  -3.140  0.4601E-07  0.4634E+01
  -3.130  0.2637E-07  0.4634E+01
  -3.120  0.1495E-07  0.4634E+01
  -3.110  0.8390E-08  0.4634E+01
  -3.100  0.4659E-08  0.4634E+01
  -3.090  0.2560E-08  0.4634E+01
  -3.080  0.1392E-08  0.4634E+01
  -3.070  0.7489E-09  0.4634E+01
  -3.060  0.3987E-09  0.4634E+01
  -3.050  0.2100E-09  0.4634E+01
  -3.040  0.1095E-09  0.4634E+01
  -3.030  0.5648E-10  0.4634E+01
  -3.020  0.2883E-10  0.4634E+01
  -3.010  0.1456E-10  0.4634E+01
  -3.000  0.7275E-11  0.4634E+01
  -2.990  0.3597E-11  0.4634E+01
  -2.980  0.1760E-11  0.4634E+01
  -2.970  0.8519E-12  0.4634E+01
  -2.960  0.4080E-12  0.4634E+01
  -2.950  0.1934E-12  0.4634E+01
  -2.940  0.9068E-13  0.4634E+01
  -2.930  0.4207E-13  0.4634E+01
  -2.920  0.1931E-13  0.4634E+01
  -2.910  0.8772E-14  0.4634E+01
  -2.900  0.3942E-14  0.4634E+01
  -2.890  0.1753E-14  0.4634E+01
  -2.880  0.7712E-15  0.4634E+01
  -2.870  0.3357E-15  0.4634E+01
  -2.860  0.1446E-15  0.4634E+01
  -2.850  0.6160E-16  0.4634E+01
  -2.840  0.2597E-16  0.4634E+01
  -2.830  0.1083E-16  0.4634E+01
  -2.820  0.4470E-17  0.4634E+01
  -2.810  0.1825E-17  0.4634E+01
  -2.800  0.7374E-18  0.4634E+01
  -2.790  0.2947E-18  0.4634E+01
  -2.780  0.1166E-18  0.4634E+01
  -2.770  0.4560E-19  0.4634E+01
  -2.760  0.1765E-19  0.4634E+01
  -2.750  0.6760E-20  0.4634E+01
  -2.740  0.2562E-20  0.4634E+01
  -2.730  0.9603E-21  0.4634E+01
  -2.720  0.3562E-21  0.4634E+01
  -2.710  0.1307E-21  0.4634E+01
  -2.700  0.4745E-22  0.4634E+01
  -2.690  0.1704E-22  0.4634E+01
  -2.680  0.6056E-23  0.4634E+01
  -2.670  0.2129E-23  0.4634E+01
  -2.660  0.7406E-24  0.4634E+01
  -2.650  0.2549E-24  0.4634E+01
  -2.640  0.8677E-25  0.4634E+01
  -2.630  0.2923E-25  0.4634E+01
  -2.620  0.9740E-26  0.4634E+01
  -2.610  0.3211E-26  0.4634E+01
  -2.600  0.1047E-26  0.4634E+01
  -2.590  0.3380E-27  0.4634E+01
  -2.580  0.1079E-27  0.4634E+01
  -2.570  0.3409E-28  0.4634E+01
  -2.560  0.1065E-28  0.4634E+01
  -2.550  0.3294E-29  0.4634E+01
  -2.540  0.1007E-29  0.4634E+01
  -2.530  0.3049E-30  0.4634E+01
  -2.520  0.9127E-31  0.4634E+01
  -2.510  0.2703E-31  0.4634E+01
  -2.500  0.7921E-32  0.4634E+01
  -2.490  0.2296E-32  0.4634E+01
  -2.480  0.6586E-33  0.4634E+01
  -2.470  0.1869E-33  0.4634E+01
  -2.460  0.5246E-34  0.4634E+01
  -2.450  0.1457E-34  0.4634E+01
  -2.440  0.4003E-35  0.4634E+01
  -2.430  0.1088E-35  0.4634E+01
  -2.420  0.2927E-36  0.4634E+01
  -2.410  0.7787E-37  0.4634E+01
  -2.400  0.2050E-37  0.4634E+01
  -2.390  0.5337E-38  0.4634E+01
  -2.380  0.1375E-38  0.4634E+01
  -2.370  0.3504E-39  0.4634E+01
  -2.360  0.8837E-40  0.4634E+01
  -2.350  0.2204E-40  0.4634E+01
  -2.340  0.5440E-41  0.4634E+01
  -2.330  0.1328E-41  0.4634E+01
  -2.320  0.3208E-42  0.4634E+01
  -2.310  0.7667E-43  0.4634E+01
  -2.300  0.1813E-43  0.4634E+01
  -2.290  0.4240E-44  0.4634E+01
  -2.280  0.9810E-45  0.4634E+01
  -2.270  0.2246E-45  0.4634E+01
  -2.260  0.5086E-46  0.4634E+01
  -2.250  0.1140E-46  0.4634E+01
  -2.240  0.2526E-47  0.4634E+01
  -2.230  0.5539E-48  0.4634E+01
  -2.220  0.1202E-48  0.4634E+01
  -2.210  0.2579E-49  0.4634E+01
  -2.200  0.5477E-50  0.4634E+01
  -2.190  0.1150E-50  0.4634E+01
  -2.180  0.2391E-51  0.4634E+01
  -2.170  0.4916E-52  0.4634E+01
  -2.160  0.9999E-53  0.4634E+01
  -2.150  0.2012E-53  0.4634E+01
  -2.140  0.4005E-54  0.4634E+01
  -2.130  0.7889E-55  0.4634E+01
  -2.120  0.1537E-55  0.4634E+01
  -2.110  0.2963E-56  0.4634E+01
  -2.100  0.5650E-57  0.4634E+01
  -2.090  0.1066E-57  0.4634E+01
  -2.080  0.1989E-58  0.4634E+01
  -2.070  0.3673E-59  0.4634E+01
  -2.060  0.6710E-60  0.4634E+01
  -2.050  0.1213E-60  0.4634E+01
  -2.040  0.2168E-61  0.4634E+01
  -2.030  0.3835E-62  0.4634E+01
  -2.020  0.6710E-63  0.4634E+01
  -2.010  0.1162E-63  0.4634E+01
  -2.000  0.1989E-64  0.4634E+01
  -1.990  0.3370E-65  0.4634E+01
  -1.980  0.5649E-66  0.4634E+01
  -1.970  0.9368E-67  0.4634E+01
  -1.960  0.1537E-67  0.4634E+01
  -1.950  0.2494E-68  0.4634E+01
  -1.940  0.4004E-69  0.4634E+01
  -1.930  0.6361E-70  0.4634E+01
  -1.920  0.9995E-71  0.4634E+01
  -1.910  0.1554E-71  0.4634E+01
  -1.900  0.2390E-72  0.4634E+01
  -1.890  0.3636E-73  0.4634E+01
  -1.880  0.5473E-74  0.4634E+01
  -1.870  0.8150E-75  0.4634E+01
  -1.860  0.1201E-75  0.4634E+01
  -1.850  0.1750E-76  0.4634E+01
  -1.840  0.2523E-77  0.4634E+01
  -1.830  0.3599E-78  0.4634E+01
  -1.820  0.5078E-79  0.4634E+01
  -1.810  0.7089E-80  0.4634E+01
  -1.800  0.9792E-81  0.4634E+01
  -1.790  0.1339E-81  0.4634E+01
  -1.780  0.1817E-82  0.4634E+01
  -1.770  0.2510E-83  0.4634E+01
  -1.760  0.4116E-84  0.4634E+01
  -1.750  0.1336E-84  0.4634E+01
  -1.740  0.9718E-85  0.4634E+01
  -1.730  0.9247E-85  0.4634E+01
  -1.720  0.9187E-85  0.4634E+01
  -1.710  0.9182E-85  0.4634E+01
  -1.700  0.9182E-85  0.4634E+01
  -1.690  0.9182E-85  0.4634E+01
  -1.680  0.9182E-85  0.4634E+01
  -1.670  0.9182E-85  0.4634E+01
  -1.660  0.9182E-85  0.4634E+01
  -1.650  0.9182E-85  0.4634E+01
  -1.640  0.9182E-85  0.4634E+01
  -1.630  0.9182E-85  0.4634E+01
  -1.620  0.9182E-85  0.4634E+01
  -1.610  0.9182E-85  0.4634E+01
  -1.600  0.9182E-85  0.4634E+01
  -1.590  0.9182E-85  0.4634E+01
  -1.580  0.9182E-85  0.4634E+01
  -1.570  0.9182E-85  0.4634E+01
  -1.560  0.9182E-85  0.4634E+01
  -1.550  0.9182E-85  0.4634E+01
  -1.540  0.9182E-85  0.4634E+01
  -1.530  0.9182E-85  0.4634E+01
  -1.520  0.9182E-85  0.4634E+01
  -1.510  0.9182E-85  0.4634E+01
  -1.500  0.9182E-85  0.4634E+01
  -1.490  0.9182E-85  0.4634E+01
  -1.480  0.9182E-85  0.4634E+01
  -1.470  0.9182E-85  0.4634E+01
  -1.460  0.9182E-85  0.4634E+01
  -1.450  0.9182E-85  0.4634E+01
  -1.440  0.9182E-85  0.4634E+01
  -1.430  0.9182E-85  0.4634E+01
  -1.420  0.9182E-85  0.4634E+01
  -1.410  0.9182E-85  0.4634E+01
  -1.400  0.9182E-85  0.4634E+01
  -1.390  0.9182E-85  0.4634E+01
  -1.380  0.9182E-85  0.4634E+01
  -1.370  0.9182E-85  0.4634E+01
  -1.360  0.9182E-85  0.4634E+01
  -1.350  0.9182E-85  0.4634E+01
  -1.340  0.9182E-85  0.4634E+01
  -1.330  0.9182E-85  0.4634E+01
  -1.320  0.9182E-85  0.4634E+01
  -1.310  0.9182E-85  0.4634E+01
  -1.300  0.9182E-85  0.4634E+01
  -1.290  0.9182E-85  0.4634E+01
  -1.280  0.9182E-85  0.4634E+01
  -1.270  0.9182E-85  0.4634E+01
  -1.260  0.9182E-85  0.4634E+01
  -1.250  0.9182E-85  0.4634E+01
  -1.240  0.9182E-85  0.4634E+01
  -1.230  0.9182E-85  0.4634E+01
  -1.220  0.9182E-85  0.4634E+01
  -1.210  0.9182E-85  0.4634E+01
  -1.200  0.9182E-85  0.4634E+01
  -1.190  0.9182E-85  0.4634E+01
  -1.180  0.9182E-85  0.4634E+01
  -1.170  0.9182E-85  0.4634E+01
  -1.160  0.9189E-85  0.4634E+01
  -1.150  0.9250E-85  0.4634E+01
  -1.140  0.9736E-85  0.4634E+01
  -1.130  0.1348E-84  0.4634E+01
  -1.120  0.4205E-84  0.4634E+01
  -1.110  0.2573E-83  0.4634E+01
  -1.100  0.1862E-82  0.4634E+01
  -1.090  0.1370E-81  0.4634E+01
  -1.080  0.1000E-80  0.4634E+01
  -1.070  0.7231E-80  0.4634E+01
  -1.060  0.5171E-79  0.4634E+01
  -1.050  0.3659E-78  0.4634E+01
  -1.040  0.2561E-77  0.4634E+01
  -1.030  0.1774E-76  0.4634E+01
  -1.020  0.1215E-75  0.4634E+01
  -1.010  0.8234E-75  0.4634E+01
  -1.000  0.5520E-74  0.4634E+01
  -0.990  0.3662E-73  0.4634E+01
  -0.980  0.2403E-72  0.4634E+01
  -0.970  0.1560E-71  0.4634E+01
  -0.960  0.1002E-70  0.4634E+01
  -0.950  0.6363E-70  0.4634E+01
  -0.940  0.3999E-69  0.4634E+01
  -0.930  0.2487E-68  0.4634E+01
  -0.920  0.1530E-67  0.4634E+01
  -0.910  0.9308E-67  0.4634E+01
  -0.900  0.5604E-66  0.4634E+01
  -0.890  0.3337E-65  0.4634E+01
  -0.880  0.1966E-64  0.4634E+01
  -0.870  0.1146E-63  0.4634E+01
  -0.860  0.6609E-63  0.4634E+01
  -0.850  0.3771E-62  0.4634E+01
  -0.840  0.2128E-61  0.4634E+01
  -0.830  0.1188E-60  0.4634E+01
  -0.820  0.6563E-60  0.4634E+01
  -0.810  0.3586E-59  0.4634E+01
  -0.800  0.1939E-58  0.4634E+01
  -0.790  0.1037E-57  0.4634E+01
  -0.780  0.5485E-57  0.4634E+01
  -0.770  0.2871E-56  0.4634E+01
  -0.760  0.1487E-55  0.4634E+01
  -0.750  0.7616E-55  0.4634E+01
  -0.740  0.3860E-54  0.4634E+01
  -0.730  0.1935E-53  0.4634E+01
  -0.720  0.9599E-53  0.4634E+01
  -0.710  0.4710E-52  0.4634E+01
  -0.700  0.2287E-51  0.4634E+01
  -0.690  0.1098E-50  0.4634E+01
  -0.680  0.5217E-50  0.4634E+01
  -0.670  0.2452E-49  0.4634E+01
  -0.660  0.1140E-48  0.4634E+01
  -0.650  0.5246E-48  0.4634E+01
  -0.640  0.2388E-47  0.4634E+01
  -0.630  0.1075E-46  0.4634E+01
  -0.620  0.4789E-46  0.4634E+01
  -0.610  0.2110E-45  0.4634E+01
  -0.600  0.9199E-45  0.4634E+01
  -0.590  0.3968E-44  0.4634E+01
  -0.580  0.1693E-43  0.4634E+01
  -0.570  0.7146E-43  0.4634E+01
  -0.560  0.2984E-42  0.4634E+01
  -0.550  0.1233E-41  0.4634E+01
  -0.540  0.5040E-41  0.4634E+01
  -0.530  0.2038E-40  0.4634E+01
  -0.520  0.8152E-40  0.4634E+01
  -0.510  0.3227E-39  0.4634E+01
  -0.500  0.1263E-38  0.4634E+01
  -0.490  0.4894E-38  0.4634E+01
  -0.480  0.1875E-37  0.4634E+01
  -0.470  0.7110E-37  0.4634E+01
  -0.460  0.2667E-36  0.4634E+01
  -0.450  0.9895E-36  0.4634E+01
  -0.440  0.3633E-35  0.4634E+01
  -0.430  0.1319E-34  0.4634E+01
  -0.420  0.4740E-34  0.4634E+01
  -0.410  0.1685E-33  0.4634E+01
  -0.400  0.5926E-33  0.4634E+01
  -0.390  0.2062E-32  0.4634E+01
  -0.380  0.7097E-32  0.4634E+01
  -0.370  0.2417E-31  0.4634E+01
  -0.360  0.8143E-31  0.4634E+01
  -0.350  0.2714E-30  0.4634E+01
  -0.340  0.8950E-30  0.4634E+01
  -0.330  0.2920E-29  0.4634E+01
  -0.320  0.9424E-29  0.4634E+01
  -0.310  0.3009E-28  0.4634E+01
  -0.300  0.9506E-28  0.4634E+01
  -0.290  0.2971E-27  0.4634E+01
  -0.280  0.9187E-27  0.4634E+01
  -0.270  0.2810E-26  0.4634E+01
  -0.260  0.8506E-26  0.4634E+01
  -0.250  0.2547E-25  0.4634E+01
  -0.240  0.7545E-25  0.4634E+01
  -0.230  0.2211E-24  0.4634E+01
  -0.220  0.6413E-24  0.4634E+01
  -0.210  0.1840E-23  0.4634E+01
  -0.200  0.5222E-23  0.4634E+01
  -0.190  0.1466E-22  0.4634E+01
  -0.180  0.4073E-22  0.4634E+01
  -0.170  0.1120E-21  0.4634E+01
  -0.160  0.3045E-21  0.4634E+01
  -0.150  0.8192E-21  0.4634E+01
  -0.140  0.2181E-20  0.4634E+01
  -0.130  0.5743E-20  0.4634E+01
  -0.120  0.1496E-19  0.4634E+01
  -0.110  0.3857E-19  0.4634E+01
  -0.100  0.9839E-19  0.4634E+01
  -0.090  0.2483E-18  0.4634E+01
  -0.080  0.6199E-18  0.4634E+01
  -0.070  0.1531E-17  0.4634E+01
  -0.060  0.3742E-17  0.4634E+01
  -0.050  0.9048E-17  0.4634E+01
  -0.040  0.2165E-16  0.4634E+01
  -0.030  0.5124E-16  0.4634E+01
  -0.020  0.1200E-15  0.4634E+01
  -0.010  0.2781E-15  0.4634E+01
   0.000  0.6375E-15  0.4634E+01
   0.010  0.1446E-14  0.4634E+01
   0.020  0.3245E-14  0.4634E+01
   0.030  0.7207E-14  0.4634E+01
   0.040  0.1583E-13  0.4634E+01
   0.050  0.3442E-13  0.4634E+01
   0.060  0.7404E-13  0.4634E+01
   0.070  0.1576E-12  0.4634E+01
   0.080  0.3318E-12  0.4634E+01
   0.090  0.6914E-12  0.4634E+01
   0.100  0.1425E-11  0.4634E+01
   0.110  0.2907E-11  0.4634E+01
   0.120  0.5868E-11  0.4634E+01
   0.130  0.1172E-10  0.4634E+01
   0.140  0.2316E-10  0.4634E+01
   0.150  0.4529E-10  0.4634E+01
   0.160  0.8762E-10  0.4634E+01
   0.170  0.1677E-09  0.4634E+01
   0.180  0.3178E-09  0.4634E+01
   0.190  0.5957E-09  0.4634E+01
   0.200  0.1105E-08  0.4634E+01
   0.210  0.2028E-08  0.4634E+01
   0.220  0.3684E-08  0.4634E+01
   0.230  0.6621E-08  0.4634E+01
   0.240  0.1178E-07  0.4634E+01
   0.250  0.2072E-07  0.4634E+01
   0.260  0.3610E-07  0.4634E+01
   0.270  0.6221E-07  0.4634E+01
   0.280  0.1061E-06  0.4634E+01
   0.290  0.1791E-06  0.4634E+01
   0.300  0.2992E-06  0.4634E+01
   0.310  0.4946E-06  0.4634E+01
   0.320  0.8092E-06  0.4634E+01
   0.330  0.1310E-05  0.4634E+01
   0.340  0.2099E-05  0.4634E+01
   0.350  0.3330E-05  0.4634E+01
   0.360  0.5226E-05  0.4634E+01
   0.370  0.8119E-05  0.4634E+01
   0.380  0.1248E-04  0.4634E+01
   0.390  0.1900E-04  0.4634E+01
   0.400  0.2862E-04  0.4634E+01
   0.410  0.4268E-04  0.4634E+01
   0.420  0.6299E-04  0.4634E+01
   0.430  0.9203E-04  0.4634E+01
   0.440  0.1331E-03  0.4634E+01
   0.450  0.1906E-03  0.4634E+01
   0.460  0.2701E-03  0.4634E+01
   0.470  0.3790E-03  0.4634E+01
   0.480  0.5266E-03  0.4634E+01
   0.490  0.7243E-03  0.4634E+01
   0.500  0.9864E-03  0.4634E+01
   0.510  0.1330E-02  0.4634E+01
   0.520  0.1776E-02  0.4634E+01
   0.530  0.2348E-02  0.4634E+01
   0.540  0.3075E-02  0.4634E+01
   0.550  0.3988E-02  0.4634E+01
   0.560  0.5122E-02  0.4634E+01
   0.570  0.6517E-02  0.4634E+01
   0.580  0.8212E-02  0.4634E+01
   0.590  0.1025E-01  0.4634E+01
   0.600  0.1268E-01  0.4634E+01
   0.610  0.1554E-01  0.4634E+01
   0.620  0.1887E-01  0.4635E+01
   0.630  0.2271E-01  0.4635E+01
   0.640  0.2708E-01  0.4635E+01
   0.650  0.3202E-01  0.4635E+01
   0.660  0.3752E-01  0.4636E+01
   0.670  0.4360E-01  0.4636E+01
   0.680  0.5023E-01  0.4637E+01
   0.690  0.5741E-01  0.4637E+01
   0.700  0.6507E-01  0.4638E+01
   0.710  0.7318E-01  0.4639E+01
   0.720  0.8166E-01  0.4639E+01
   0.730  0.9045E-01  0.4640E+01
   0.740  0.9945E-01  0.4641E+01
   0.750  0.1086E+00  0.4642E+01
   0.760  0.1177E+00  0.4644E+01
   0.770  0.1269E+00  0.4645E+01
   0.780  0.1358E+00  0.4646E+01
   0.790  0.1446E+00  0.4648E+01
   0.800  0.1531E+00  0.4649E+01
   0.810  0.1612E+00  0.4651E+01
   0.820  0.1690E+00  0.4653E+01
   0.830  0.1763E+00  0.4654E+01
   0.840  0.1834E+00  0.4656E+01
   0.850  0.1900E+00  0.4658E+01
   0.860  0.1964E+00  0.4660E+01
   0.870  0.2026E+00  0.4662E+01
   0.880  0.2087E+00  0.4664E+01
   0.890  0.2148E+00  0.4666E+01
   0.900  0.2212E+00  0.4668E+01
   0.910  0.2279E+00  0.4671E+01
   0.920  0.2351E+00  0.4673E+01
   0.930  0.2432E+00  0.4676E+01
   0.940  0.2524E+00  0.4678E+01
   0.950  0.2628E+00  0.4681E+01
   0.960  0.2748E+00  0.4683E+01
   0.970  0.2887E+00  0.4686E+01
   0.980  0.3048E+00  0.4689E+01
   0.990  0.3233E+00  0.4693E+01
   1.000  0.3446E+00  0.4696E+01
   1.010  0.3688E+00  0.4700E+01
   1.020  0.3963E+00  0.4704E+01
   1.030  0.4271E+00  0.4708E+01
   1.040  0.4616E+00  0.4713E+01
   1.050  0.4996E+00  0.4718E+01
   1.060  0.5413E+00  0.4723E+01
   1.070  0.5866E+00  0.4729E+01
   1.080  0.6353E+00  0.4735E+01
   1.090  0.6870E+00  0.4742E+01
   1.100  0.7416E+00  0.4749E+01
   1.110  0.7984E+00  0.4757E+01
   1.120  0.8570E+00  0.4766E+01
   1.130  0.9166E+00  0.4775E+01
   1.140  0.9766E+00  0.4785E+01
   1.150  0.1036E+01  0.4795E+01
   1.160  0.1094E+01  0.4806E+01
   1.170  0.1150E+01  0.4818E+01
   1.180  0.1203E+01  0.4830E+01
   1.190  0.1253E+01  0.4842E+01
   1.200  0.1298E+01  0.4855E+01
   1.210  0.1337E+01  0.4869E+01
   1.220  0.1371E+01  0.4882E+01
   1.230  0.1399E+01  0.4896E+01
   1.240  0.1421E+01  0.4911E+01
   1.250  0.1436E+01  0.4925E+01
   1.260  0.1445E+01  0.4939E+01
   1.270  0.1448E+01  0.4954E+01
   1.280  0.1445E+01  0.4968E+01
   1.290  0.1437E+01  0.4983E+01
   1.300  0.1424E+01  0.4997E+01
   1.310  0.1407E+01  0.5011E+01
   1.320  0.1386E+01  0.5025E+01
   1.330  0.1362E+01  0.5039E+01
   1.340  0.1336E+01  0.5052E+01
   1.350  0.1308E+01  0.5065E+01
   1.360  0.1279E+01  0.5078E+01
   1.370  0.1250E+01  0.5090E+01
   1.380  0.1220E+01  0.5102E+01
   1.390  0.1191E+01  0.5114E+01
   1.400  0.1163E+01  0.5126E+01
   1.410  0.1135E+01  0.5137E+01
   1.420  0.1109E+01  0.5148E+01
   1.430  0.1084E+01  0.5159E+01
   1.440  0.1061E+01  0.5170E+01
   1.450  0.1038E+01  0.5180E+01
   1.460  0.1018E+01  0.5190E+01
   1.470  0.9982E+00  0.5200E+01
   1.480  0.9800E+00  0.5210E+01
   1.490  0.9631E+00  0.5220E+01
   1.500  0.9473E+00  0.5229E+01
   1.510  0.9326E+00  0.5239E+01
   1.520  0.9189E+00  0.5248E+01
   1.530  0.9060E+00  0.5257E+01
   1.540  0.8940E+00  0.5266E+01
   1.550  0.8827E+00  0.5275E+01
   1.560  0.8721E+00  0.5283E+01
   1.570  0.8622E+00  0.5292E+01
   1.580  0.8528E+00  0.5301E+01
   1.590  0.8440E+00  0.5309E+01
   1.600  0.8357E+00  0.5317E+01
   1.610  0.8280E+00  0.5326E+01
   1.620  0.8208E+00  0.5334E+01
   1.630  0.8141E+00  0.5342E+01
   1.640  0.8080E+00  0.5350E+01
   1.650  0.8023E+00  0.5358E+01
   1.660  0.7973E+00  0.5366E+01
   1.670  0.7928E+00  0.5374E+01
   1.680  0.7889E+00  0.5382E+01
   1.690  0.7856E+00  0.5390E+01
   1.700  0.7830E+00  0.5398E+01
   1.710  0.7810E+00  0.5405E+01
   1.720  0.7796E+00  0.5413E+01
   1.730  0.7790E+00  0.5421E+01
   1.740  0.7792E+00  0.5429E+01
   1.750  0.7801E+00  0.5437E+01
   1.760  0.7818E+00  0.5444E+01
   1.770  0.7842E+00  0.5452E+01
   1.780  0.7875E+00  0.5460E+01
   1.790  0.7915E+00  0.5468E+01
   1.800  0.7962E+00  0.5476E+01
   1.810  0.8016E+00  0.5484E+01
   1.820  0.8075E+00  0.5492E+01
   1.830  0.8139E+00  0.5500E+01
   1.840  0.8206E+00  0.5508E+01
   1.850  0.8275E+00  0.5517E+01
   1.860  0.8344E+00  0.5525E+01
   1.870  0.8412E+00  0.5533E+01
   1.880  0.8478E+00  0.5542E+01
   1.890  0.8541E+00  0.5550E+01
   1.900  0.8599E+00  0.5559E+01
   1.910  0.8652E+00  0.5568E+01
   1.920  0.8700E+00  0.5576E+01
   1.930  0.8742E+00  0.5585E+01
   1.940  0.8778E+00  0.5594E+01
   1.950  0.8809E+00  0.5603E+01
   1.960  0.8835E+00  0.5612E+01
   1.970  0.8856E+00  0.5620E+01
   1.980  0.8873E+00  0.5629E+01
   1.990  0.8886E+00  0.5638E+01
   2.000  0.8896E+00  0.5647E+01
   2.010  0.8903E+00  0.5656E+01
   2.020  0.8907E+00  0.5665E+01
   2.030  0.8908E+00  0.5674E+01
   2.040  0.8906E+00  0.5683E+01
   2.050  0.8901E+00  0.5692E+01
   2.060  0.8893E+00  0.5700E+01
   2.070  0.8882E+00  0.5709E+01
   2.080  0.8869E+00  0.5718E+01
   2.090  0.8853E+00  0.5727E+01
   2.100  0.8835E+00  0.5736E+01
   2.110  0.8815E+00  0.5745E+01
   2.120  0.8795E+00  0.5754E+01
   2.130  0.8774E+00  0.5762E+01
   2.140  0.8753E+00  0.5771E+01
   2.150  0.8733E+00  0.5780E+01
   2.160  0.8714E+00  0.5788E+01
   2.170  0.8697E+00  0.5797E+01
   2.180  0.8682E+00  0.5806E+01
   2.190  0.8670E+00  0.5815E+01
   2.200  0.8659E+00  0.5823E+01
   2.210  0.8649E+00  0.5832E+01
   2.220  0.8641E+00  0.5840E+01
   2.230  0.8634E+00  0.5849E+01
   2.240  0.8626E+00  0.5858E+01
   2.250  0.8618E+00  0.5866E+01
   2.260  0.8610E+00  0.5875E+01
   2.270  0.8600E+00  0.5884E+01
   2.280  0.8588E+00  0.5892E+01
   2.290  0.8574E+00  0.5901E+01
   2.300  0.8560E+00  0.5909E+01
   2.310  0.8544E+00  0.5918E+01
   2.320  0.8527E+00  0.5926E+01
   2.330  0.8511E+00  0.5935E+01
   2.340  0.8497E+00  0.5943E+01
   2.350  0.8484E+00  0.5952E+01
   2.360  0.8474E+00  0.5960E+01
   2.370  0.8468E+00  0.5969E+01
   2.380  0.8466E+00  0.5977E+01
   2.390  0.8470E+00  0.5986E+01
   2.400  0.8478E+00  0.5994E+01
   2.410  0.8492E+00  0.6003E+01
   2.420  0.8511E+00  0.6011E+01
   2.430  0.8535E+00  0.6020E+01
   2.440  0.8564E+00  0.6028E+01
   2.450  0.8597E+00  0.6037E+01
   2.460  0.8634E+00  0.6046E+01
   2.470  0.8675E+00  0.6054E+01
   2.480  0.8720E+00  0.6063E+01
   2.490  0.8768E+00  0.6072E+01
   2.500  0.8820E+00  0.6081E+01
   2.510  0.8875E+00  0.6089E+01
   2.520  0.8935E+00  0.6098E+01
   2.530  0.8998E+00  0.6107E+01
   2.540  0.9066E+00  0.6116E+01
   2.550  0.9138E+00  0.6126E+01
   2.560  0.9215E+00  0.6135E+01
   2.570  0.9295E+00  0.6144E+01
   2.580  0.9379E+00  0.6153E+01
   2.590  0.9466E+00  0.6163E+01
   2.600  0.9555E+00  0.6172E+01
   2.610  0.9645E+00  0.6182E+01
   2.620  0.9735E+00  0.6192E+01
   2.630  0.9824E+00  0.6202E+01
   2.640  0.9909E+00  0.6212E+01
   2.650  0.9991E+00  0.6222E+01
   2.660  0.1007E+01  0.6232E+01
   2.670  0.1014E+01  0.6242E+01
   2.680  0.1020E+01  0.6252E+01
   2.690  0.1025E+01  0.6262E+01
   2.700  0.1030E+01  0.6273E+01
   2.710  0.1034E+01  0.6283E+01
   2.720  0.1037E+01  0.6293E+01
   2.730  0.1039E+01  0.6304E+01
   2.740  0.1041E+01  0.6314E+01
   2.750  0.1042E+01  0.6324E+01
   2.760  0.1043E+01  0.6335E+01
   2.770  0.1043E+01  0.6345E+01
   2.780  0.1043E+01  0.6356E+01
   2.790  0.1044E+01  0.6366E+01
   2.800  0.1044E+01  0.6377E+01
   2.810  0.1044E+01  0.6387E+01
   2.820  0.1045E+01  0.6397E+01
   2.830  0.1046E+01  0.6408E+01
   2.840  0.1047E+01  0.6418E+01
   2.850  0.1048E+01  0.6429E+01
   2.860  0.1049E+01  0.6439E+01
   2.870  0.1051E+01  0.6450E+01
   2.880  0.1052E+01  0.6460E+01
   2.890  0.1054E+01  0.6471E+01
   2.900  0.1055E+01  0.6482E+01
   2.910  0.1056E+01  0.6492E+01
   2.920  0.1056E+01  0.6503E+01
   2.930  0.1057E+01  0.6513E+01
   2.940  0.1056E+01  0.6524E+01
   2.950  0.1056E+01  0.6534E+01
   2.960  0.1055E+01  0.6545E+01
   2.970  0.1055E+01  0.6555E+01
   2.980  0.1054E+01  0.6566E+01
   2.990  0.1053E+01  0.6576E+01
   3.000  0.1052E+01  0.6587E+01
   3.010  0.1052E+01  0.6598E+01
   3.020  0.1052E+01  0.6608E+01
   3.030  0.1052E+01  0.6619E+01
   3.040  0.1052E+01  0.6629E+01
   3.050  0.1053E+01  0.6640E+01
   3.060  0.1055E+01  0.6650E+01
   3.070  0.1056E+01  0.6661E+01
   3.080  0.1058E+01  0.6671E+01
   3.090  0.1061E+01  0.6682E+01
   3.100  0.1063E+01  0.6693E+01
   3.110  0.1066E+01  0.6703E+01
   3.120  0.1068E+01  0.6714E+01
   3.130  0.1070E+01  0.6725E+01
   3.140  0.1072E+01  0.6735E+01
   3.150  0.1074E+01  0.6746E+01
   3.160  0.1075E+01  0.6757E+01
   3.170  0.1076E+01  0.6768E+01
   3.180  0.1077E+01  0.6778E+01
   3.190  0.1077E+01  0.6789E+01
   3.200  0.1077E+01  0.6800E+01
   3.210  0.1077E+01  0.6811E+01
   3.220  0.1077E+01  0.6821E+01
   3.230  0.1077E+01  0.6832E+01
   3.240  0.1077E+01  0.6843E+01
   3.250  0.1078E+01  0.6854E+01
   3.260  0.1079E+01  0.6865E+01
   3.270  0.1081E+01  0.6875E+01
   3.280  0.1083E+01  0.6886E+01
   3.290  0.1086E+01  0.6897E+01
   3.300  0.1089E+01  0.6908E+01
   3.310  0.1093E+01  0.6919E+01
   3.320  0.1098E+01  0.6930E+01
   3.330  0.1103E+01  0.6941E+01
   3.340  0.1108E+01  0.6952E+01
   3.350  0.1113E+01  0.6963E+01
   3.360  0.1118E+01  0.6974E+01
   3.370  0.1123E+01  0.6985E+01
   3.380  0.1128E+01  0.6997E+01
   3.390  0.1133E+01  0.7008E+01
   3.400  0.1137E+01  0.7019E+01
   3.410  0.1141E+01  0.7031E+01
   3.420  0.1145E+01  0.7042E+01
   3.430  0.1149E+01  0.7054E+01
   3.440  0.1152E+01  0.7065E+01
   3.450  0.1157E+01  0.7077E+01
   3.460  0.1161E+01  0.7089E+01
   3.470  0.1166E+01  0.7100E+01
   3.480  0.1172E+01  0.7112E+01
   3.490  0.1178E+01  0.7124E+01
   3.500  0.1186E+01  0.7136E+01
   3.510  0.1195E+01  0.7147E+01
   3.520  0.1205E+01  0.7160E+01
   3.530  0.1216E+01  0.7172E+01
   3.540  0.1229E+01  0.7184E+01
   3.550  0.1243E+01  0.7196E+01
   3.560  0.1259E+01  0.7209E+01
   3.570  0.1275E+01  0.7222E+01
   3.580  0.1293E+01  0.7235E+01
   3.590  0.1312E+01  0.7248E+01
   3.600  0.1331E+01  0.7261E+01
   3.610  0.1351E+01  0.7275E+01
   3.620  0.1371E+01  0.7288E+01
   3.630  0.1392E+01  0.7302E+01
   3.640  0.1411E+01  0.7316E+01
   3.650  0.1430E+01  0.7331E+01
   3.660  0.1448E+01  0.7345E+01
   3.670  0.1463E+01  0.7360E+01
   3.680  0.1477E+01  0.7375E+01
   3.690  0.1487E+01  0.7389E+01
   3.700  0.1495E+01  0.7404E+01
   3.710  0.1499E+01  0.7419E+01
   3.720  0.1499E+01  0.7434E+01
   3.730  0.1494E+01  0.7449E+01
   3.740  0.1485E+01  0.7464E+01
   3.750  0.1471E+01  0.7479E+01
   3.760  0.1452E+01  0.7493E+01
   3.770  0.1428E+01  0.7508E+01
   3.780  0.1400E+01  0.7522E+01
   3.790  0.1368E+01  0.7535E+01
   3.800  0.1331E+01  0.7549E+01
   3.810  0.1291E+01  0.7562E+01
   3.820  0.1247E+01  0.7574E+01
   3.830  0.1202E+01  0.7586E+01
   3.840  0.1154E+01  0.7598E+01
   3.850  0.1105E+01  0.7609E+01
   3.860  0.1056E+01  0.7619E+01
   3.870  0.1007E+01  0.7629E+01
   3.880  0.9579E+00  0.7639E+01
   3.890  0.9103E+00  0.7648E+01
   3.900  0.8644E+00  0.7657E+01
   3.910  0.8204E+00  0.7665E+01
   3.920  0.7788E+00  0.7673E+01
   3.930  0.7398E+00  0.7680E+01
   3.940  0.7036E+00  0.7687E+01
   3.950  0.6703E+00  0.7694E+01
   3.960  0.6401E+00  0.7700E+01
   3.970  0.6127E+00  0.7706E+01
   3.980  0.5884E+00  0.7712E+01
   3.990  0.5669E+00  0.7718E+01
   4.000  0.5482E+00  0.7723E+01
   4.010  0.5322E+00  0.7729E+01
   4.020  0.5187E+00  0.7734E+01
   4.030  0.5075E+00  0.7739E+01
   4.040  0.4984E+00  0.7744E+01
   4.050  0.4914E+00  0.7749E+01
   4.060  0.4862E+00  0.7754E+01
   4.070  0.4828E+00  0.7758E+01
   4.080  0.4808E+00  0.7763E+01
   4.090  0.4802E+00  0.7768E+01
   4.100  0.4809E+00  0.7773E+01
   4.110  0.4826E+00  0.7778E+01
   4.120  0.4854E+00  0.7783E+01
   4.130  0.4891E+00  0.7787E+01
   4.140  0.4936E+00  0.7792E+01
   4.150  0.4989E+00  0.7797E+01
   4.160  0.5048E+00  0.7802E+01
   4.170  0.5113E+00  0.7808E+01
   4.180  0.5183E+00  0.7813E+01
   4.190  0.5258E+00  0.7818E+01
   4.200  0.5337E+00  0.7823E+01
   4.210  0.5419E+00  0.7829E+01
   4.220  0.5503E+00  0.7834E+01
   4.230  0.5588E+00  0.7840E+01
   4.240  0.5675E+00  0.7845E+01
   4.250  0.5762E+00  0.7851E+01
   4.260  0.5848E+00  0.7857E+01
   4.270  0.5933E+00  0.7863E+01
   4.280  0.6017E+00  0.7869E+01
   4.290  0.6099E+00  0.7875E+01
   4.300  0.6179E+00  0.7881E+01
   4.310  0.6257E+00  0.7888E+01
   4.320  0.6333E+00  0.7894E+01
   4.330  0.6408E+00  0.7900E+01
   4.340  0.6482E+00  0.7907E+01
   4.350  0.6556E+00  0.7913E+01
   4.360  0.6630E+00  0.7920E+01
   4.370  0.6703E+00  0.7927E+01
   4.380  0.6778E+00  0.7933E+01
   4.390  0.6853E+00  0.7940E+01
   4.400  0.6929E+00  0.7947E+01
   4.410  0.7004E+00  0.7954E+01
   4.420  0.7080E+00  0.7961E+01
   4.430  0.7154E+00  0.7968E+01
   4.440  0.7226E+00  0.7976E+01
   4.450  0.7294E+00  0.7983E+01
   4.460  0.7357E+00  0.7990E+01
   4.470  0.7415E+00  0.7998E+01
   4.480  0.7465E+00  0.8005E+01
   4.490  0.7506E+00  0.8013E+01
   4.500  0.7539E+00  0.8020E+01
   4.510  0.7561E+00  0.8028E+01
   4.520  0.7574E+00  0.8035E+01
   4.530  0.7577E+00  0.8043E+01
   4.540  0.7571E+00  0.8051E+01
   4.550  0.7556E+00  0.8058E+01
   4.560  0.7535E+00  0.8066E+01
   4.570  0.7509E+00  0.8073E+01
   4.580  0.7479E+00  0.8081E+01
   4.590  0.7447E+00  0.8088E+01
   4.600  0.7416E+00  0.8096E+01
   4.610  0.7388E+00  0.8103E+01
   4.620  0.7363E+00  0.8110E+01
   4.630  0.7344E+00  0.8118E+01
   4.640  0.7331E+00  0.8125E+01
   4.650  0.7327E+00  0.8132E+01
   4.660  0.7330E+00  0.8140E+01
   4.670  0.7342E+00  0.8147E+01
   4.680  0.7361E+00  0.8154E+01
   4.690  0.7388E+00  0.8162E+01
   4.700  0.7421E+00  0.8169E+01
   4.710  0.7459E+00  0.8177E+01
   4.720  0.7501E+00  0.8184E+01
   4.730  0.7544E+00  0.8192E+01
   4.740  0.7587E+00  0.8199E+01
   4.750  0.7629E+00  0.8207E+01
   4.760  0.7668E+00  0.8214E+01
   4.770  0.7703E+00  0.8222E+01
   4.780  0.7733E+00  0.8230E+01
   4.790  0.7756E+00  0.8238E+01
   4.800  0.7774E+00  0.8245E+01
   4.810  0.7786E+00  0.8253E+01
   4.820  0.7791E+00  0.8261E+01
   4.830  0.7791E+00  0.8269E+01
   4.840  0.7787E+00  0.8277E+01
   4.850  0.7779E+00  0.8284E+01
   4.860  0.7767E+00  0.8292E+01
   4.870  0.7755E+00  0.8300E+01
   4.880  0.7741E+00  0.8308E+01
   4.890  0.7728E+00  0.8315E+01
   4.900  0.7717E+00  0.8323E+01
   4.910  0.7707E+00  0.8331E+01
   4.920  0.7701E+00  0.8339E+01
   4.930  0.7698E+00  0.8346E+01
   4.940  0.7698E+00  0.8354E+01
   4.950  0.7703E+00  0.8362E+01
   4.960  0.7712E+00  0.8369E+01
   4.970  0.7725E+00  0.8377E+01
   4.980  0.7742E+00  0.8385E+01
   4.990  0.7765E+00  0.8393E+01
   5.000  0.7791E+00  0.8400E+01
   5.010  0.7823E+00  0.8408E+01
   5.020  0.7859E+00  0.8416E+01
   5.030  0.7900E+00  0.8424E+01
   5.040  0.7947E+00  0.8432E+01
   5.050  0.8000E+00  0.8440E+01
   5.060  0.8060E+00  0.8448E+01
   5.070  0.8127E+00  0.8456E+01
   5.080  0.8203E+00  0.8464E+01
   5.090  0.8288E+00  0.8473E+01
   5.100  0.8386E+00  0.8481E+01
   5.110  0.8496E+00  0.8489E+01
   5.120  0.8622E+00  0.8498E+01
   5.130  0.8766E+00  0.8507E+01
   5.140  0.8931E+00  0.8516E+01
   5.150  0.9119E+00  0.8525E+01
   5.160  0.9335E+00  0.8534E+01
   5.170  0.9582E+00  0.8544E+01
   5.180  0.9862E+00  0.8554E+01
   5.190  0.1018E+01  0.8564E+01
   5.200  0.1054E+01  0.8574E+01
   5.210  0.1094E+01  0.8585E+01
   5.220  0.1138E+01  0.8597E+01
   5.230  0.1187E+01  0.8609E+01
   5.240  0.1241E+01  0.8621E+01
   5.250  0.1299E+01  0.8634E+01
   5.260  0.1362E+01  0.8648E+01
   5.270  0.1428E+01  0.8662E+01
   5.280  0.1498E+01  0.8677E+01
   5.290  0.1570E+01  0.8693E+01
   5.300  0.1644E+01  0.8709E+01
   5.310  0.1718E+01  0.8726E+01
   5.320  0.1793E+01  0.8744E+01
   5.330  0.1866E+01  0.8763E+01
   5.340  0.1936E+01  0.8782E+01
   5.350  0.2001E+01  0.8802E+01
   5.360  0.2062E+01  0.8823E+01
   5.370  0.2116E+01  0.8844E+01
   5.380  0.2161E+01  0.8866E+01
   5.390  0.2198E+01  0.8887E+01
   5.400  0.2225E+01  0.8910E+01
   5.410  0.2242E+01  0.8932E+01
   5.420  0.2247E+01  0.8955E+01
   5.430  0.2242E+01  0.8977E+01
   5.440  0.2225E+01  0.8999E+01
   5.450  0.2197E+01  0.9021E+01
   5.460  0.2160E+01  0.9043E+01
   5.470  0.2112E+01  0.9064E+01
   5.480  0.2056E+01  0.9085E+01
   5.490  0.1993E+01  0.9104E+01
   5.500  0.1924E+01  0.9124E+01
   5.510  0.1850E+01  0.9142E+01
   5.520  0.1772E+01  0.9160E+01
   5.530  0.1693E+01  0.9177E+01
   5.540  0.1614E+01  0.9193E+01
   5.550  0.1535E+01  0.9208E+01
   5.560  0.1458E+01  0.9223E+01
   5.570  0.1385E+01  0.9237E+01
   5.580  0.1315E+01  0.9250E+01
   5.590  0.1250E+01  0.9262E+01
   5.600  0.1191E+01  0.9274E+01
   5.610  0.1137E+01  0.9286E+01
   5.620  0.1089E+01  0.9297E+01
   5.630  0.1047E+01  0.9307E+01
   5.640  0.1011E+01  0.9317E+01
   5.650  0.9811E+00  0.9327E+01
   5.660  0.9562E+00  0.9337E+01
   5.670  0.9364E+00  0.9346E+01
   5.680  0.9212E+00  0.9355E+01
   5.690  0.9100E+00  0.9364E+01
   5.700  0.9023E+00  0.9373E+01
   5.710  0.8976E+00  0.9382E+01
   5.720  0.8953E+00  0.9391E+01
   5.730  0.8950E+00  0.9400E+01
   5.740  0.8962E+00  0.9409E+01
   5.750  0.8983E+00  0.9418E+01
   5.760  0.9011E+00  0.9427E+01
   5.770  0.9041E+00  0.9436E+01
   5.780  0.9071E+00  0.9445E+01
   5.790  0.9098E+00  0.9454E+01
   5.800  0.9120E+00  0.9463E+01
   5.810  0.9136E+00  0.9473E+01
   5.820  0.9144E+00  0.9482E+01
   5.830  0.9146E+00  0.9491E+01
   5.840  0.9140E+00  0.9500E+01
   5.850  0.9129E+00  0.9509E+01
   5.860  0.9112E+00  0.9518E+01
   5.870  0.9092E+00  0.9527E+01
   5.880  0.9070E+00  0.9536E+01
   5.890  0.9048E+00  0.9545E+01
   5.900  0.9029E+00  0.9554E+01
   5.910  0.9014E+00  0.9563E+01
   5.920  0.9006E+00  0.9572E+01
   5.930  0.9006E+00  0.9582E+01
   5.940  0.9016E+00  0.9591E+01
   5.950  0.9037E+00  0.9600E+01
   5.960  0.9071E+00  0.9609E+01
   5.970  0.9117E+00  0.9618E+01
   5.980  0.9175E+00  0.9627E+01
   5.990  0.9246E+00  0.9636E+01
   6.000  0.9326E+00  0.9645E+01
   6.010  0.9416E+00  0.9655E+01
   6.020  0.9512E+00  0.9664E+01
   6.030  0.9612E+00  0.9674E+01
   6.040  0.9714E+00  0.9684E+01
   6.050  0.9815E+00  0.9694E+01
   6.060  0.9912E+00  0.9703E+01
   6.070  0.1000E+01  0.9713E+01
   6.080  0.1008E+01  0.9724E+01
   6.090  0.1015E+01  0.9734E+01
   6.100  0.1020E+01  0.9744E+01
   6.110  0.1024E+01  0.9754E+01
   6.120  0.1026E+01  0.9764E+01
   6.130  0.1027E+01  0.9775E+01
   6.140  0.1026E+01  0.9785E+01
   6.150  0.1023E+01  0.9795E+01
   6.160  0.1018E+01  0.9805E+01
   6.170  0.1012E+01  0.9815E+01
   6.180  0.1005E+01  0.9826E+01
   6.190  0.9963E+00  0.9835E+01
   6.200  0.9869E+00  0.9845E+01
   6.210  0.9767E+00  0.9855E+01
   6.220  0.9660E+00  0.9865E+01
   6.230  0.9551E+00  0.9874E+01
   6.240  0.9440E+00  0.9884E+01
   6.250  0.9330E+00  0.9893E+01
   6.260  0.9223E+00  0.9902E+01
   6.270  0.9120E+00  0.9911E+01
   6.280  0.9023E+00  0.9920E+01
   6.290  0.8933E+00  0.9929E+01
   6.300  0.8849E+00  0.9938E+01
   6.310  0.8774E+00  0.9947E+01
   6.320  0.8708E+00  0.9956E+01
   6.330  0.8650E+00  0.9964E+01
   6.340  0.8602E+00  0.9973E+01
   6.350  0.8562E+00  0.9982E+01
   6.360  0.8530E+00  0.9990E+01
   6.370  0.8506E+00  0.9999E+01
   6.380  0.8490E+00  0.1001E+02
   6.390  0.8480E+00  0.1002E+02
   6.400  0.8476E+00  0.1002E+02
   6.410  0.8476E+00  0.1003E+02
   6.420  0.8480E+00  0.1004E+02
   6.430  0.8486E+00  0.1005E+02
   6.440  0.8494E+00  0.1006E+02
   6.450  0.8502E+00  0.1007E+02
   6.460  0.8510E+00  0.1007E+02
   6.470  0.8516E+00  0.1008E+02
   6.480  0.8520E+00  0.1009E+02
   6.490  0.8521E+00  0.1010E+02
   6.500  0.8519E+00  0.1011E+02
   6.510  0.8514E+00  0.1012E+02
   6.520  0.8504E+00  0.1013E+02
   6.530  0.8491E+00  0.1013E+02
   6.540  0.8475E+00  0.1014E+02
   6.550  0.8454E+00  0.1015E+02
   6.560  0.8431E+00  0.1016E+02
   6.570  0.8404E+00  0.1017E+02
   6.580  0.8375E+00  0.1018E+02
   6.590  0.8344E+00  0.1019E+02
   6.600  0.8311E+00  0.1019E+02
   6.610  0.8278E+00  0.1020E+02
   6.620  0.8244E+00  0.1021E+02
   6.630  0.8211E+00  0.1022E+02
   6.640  0.8179E+00  0.1023E+02
   6.650  0.8149E+00  0.1023E+02
   6.660  0.8122E+00  0.1024E+02
   6.670  0.8098E+00  0.1025E+02
   6.680  0.8078E+00  0.1026E+02
   6.690  0.8063E+00  0.1027E+02
   6.700  0.8053E+00  0.1027E+02
   6.710  0.8048E+00  0.1028E+02
   6.720  0.8049E+00  0.1029E+02
   6.730  0.8056E+00  0.1030E+02
   6.740  0.8069E+00  0.1031E+02
   6.750  0.8087E+00  0.1032E+02
   6.760  0.8110E+00  0.1032E+02
   6.770  0.8137E+00  0.1033E+02
   6.780  0.8168E+00  0.1034E+02
   6.790  0.8202E+00  0.1035E+02
   6.800  0.8238E+00  0.1036E+02
   6.810  0.8277E+00  0.1036E+02
   6.820  0.8316E+00  0.1037E+02
   6.830  0.8355E+00  0.1038E+02
   6.840  0.8395E+00  0.1039E+02
   6.850  0.8433E+00  0.1040E+02
   6.860  0.8471E+00  0.1041E+02
   6.870  0.8508E+00  0.1041E+02
   6.880  0.8542E+00  0.1042E+02
   6.890  0.8575E+00  0.1043E+02
   6.900  0.8605E+00  0.1044E+02
   6.910  0.8631E+00  0.1045E+02
   6.920  0.8654E+00  0.1046E+02
   6.930  0.8673E+00  0.1047E+02
   6.940  0.8686E+00  0.1048E+02
   6.950  0.8693E+00  0.1048E+02
   6.960  0.8693E+00  0.1049E+02
   6.970  0.8685E+00  0.1050E+02
   6.980  0.8668E+00  0.1051E+02
   6.990  0.8643E+00  0.1052E+02
   7.000  0.8608E+00  0.1053E+02
   7.010  0.8564E+00  0.1054E+02
   7.020  0.8512E+00  0.1054E+02
   7.030  0.8452E+00  0.1055E+02
   7.040  0.8387E+00  0.1056E+02
   7.050  0.8318E+00  0.1057E+02
   7.060  0.8248E+00  0.1058E+02
   7.070  0.8179E+00  0.1059E+02
   7.080  0.8114E+00  0.1059E+02
   7.090  0.8055E+00  0.1060E+02
   7.100  0.8006E+00  0.1061E+02
   7.110  0.7967E+00  0.1062E+02
   7.120  0.7942E+00  0.1063E+02
   7.130  0.7931E+00  0.1063E+02
   7.140  0.7936E+00  0.1064E+02
   7.150  0.7955E+00  0.1065E+02
   7.160  0.7989E+00  0.1066E+02
   7.170  0.8037E+00  0.1067E+02
   7.180  0.8096E+00  0.1067E+02
   7.190  0.8163E+00  0.1068E+02
   7.200  0.8237E+00  0.1069E+02
   7.210  0.8314E+00  0.1070E+02
   7.220  0.8390E+00  0.1071E+02
   7.230  0.8462E+00  0.1072E+02
   7.240  0.8527E+00  0.1072E+02
   7.250  0.8583E+00  0.1073E+02
   7.260  0.8625E+00  0.1074E+02
   7.270  0.8653E+00  0.1075E+02
   7.280  0.8665E+00  0.1076E+02
   7.290  0.8660E+00  0.1077E+02
   7.300  0.8637E+00  0.1078E+02
   7.310  0.8598E+00  0.1078E+02
   7.320  0.8544E+00  0.1079E+02
   7.330  0.8475E+00  0.1080E+02
   7.340  0.8395E+00  0.1081E+02
   7.350  0.8305E+00  0.1082E+02
   7.360  0.8209E+00  0.1083E+02
   7.370  0.8110E+00  0.1083E+02
   7.380  0.8011E+00  0.1084E+02
   7.390  0.7914E+00  0.1085E+02
   7.400  0.7822E+00  0.1086E+02
   7.410  0.7739E+00  0.1087E+02
   7.420  0.7666E+00  0.1087E+02
   7.430  0.7606E+00  0.1088E+02
   7.440  0.7559E+00  0.1089E+02
   7.450  0.7527E+00  0.1090E+02
   7.460  0.7510E+00  0.1090E+02
   7.470  0.7508E+00  0.1091E+02
   7.480  0.7521E+00  0.1092E+02
   7.490  0.7546E+00  0.1093E+02
   7.500  0.7584E+00  0.1093E+02
   7.510  0.7632E+00  0.1094E+02
   7.520  0.7687E+00  0.1095E+02
   7.530  0.7748E+00  0.1096E+02
   7.540  0.7812E+00  0.1096E+02
   7.550  0.7876E+00  0.1097E+02
   7.560  0.7938E+00  0.1098E+02
   7.570  0.7995E+00  0.1099E+02
   7.580  0.8047E+00  0.1100E+02
   7.590  0.8090E+00  0.1100E+02
   7.600  0.8125E+00  0.1101E+02
   7.610  0.8149E+00  0.1102E+02
   7.620  0.8163E+00  0.1103E+02
   7.630  0.8167E+00  0.1104E+02
   7.640  0.8160E+00  0.1105E+02
   7.650  0.8145E+00  0.1105E+02
   7.660  0.8121E+00  0.1106E+02
   7.670  0.8091E+00  0.1107E+02
   7.680  0.8054E+00  0.1108E+02
   7.690  0.8012E+00  0.1109E+02
   7.700  0.7966E+00  0.1109E+02
   7.710  0.7918E+00  0.1110E+02
   7.720  0.7868E+00  0.1111E+02
   7.730  0.7817E+00  0.1112E+02
   7.740  0.7765E+00  0.1113E+02
   7.750  0.7714E+00  0.1113E+02
   7.760  0.7664E+00  0.1114E+02
   7.770  0.7615E+00  0.1115E+02
   7.780  0.7569E+00  0.1116E+02
   7.790  0.7526E+00  0.1116E+02
   7.800  0.7487E+00  0.1117E+02
   7.810  0.7453E+00  0.1118E+02
   7.820  0.7425E+00  0.1119E+02
   7.830  0.7403E+00  0.1119E+02
   7.840  0.7389E+00  0.1120E+02
   7.850  0.7384E+00  0.1121E+02
   7.860  0.7387E+00  0.1122E+02
   7.870  0.7399E+00  0.1122E+02
   7.880  0.7420E+00  0.1123E+02
   7.890  0.7449E+00  0.1124E+02
   7.900  0.7486E+00  0.1124E+02
   7.910  0.7529E+00  0.1125E+02
   7.920  0.7576E+00  0.1126E+02
   7.930  0.7627E+00  0.1127E+02
   7.940  0.7678E+00  0.1128E+02
   7.950  0.7729E+00  0.1128E+02
   7.960  0.7777E+00  0.1129E+02
   7.970  0.7819E+00  0.1130E+02
   7.980  0.7856E+00  0.1131E+02
   7.990  0.7885E+00  0.1131E+02
   8.000  0.7906E+00  0.1132E+02
   8.010  0.7918E+00  0.1133E+02
   8.020  0.7922E+00  0.1134E+02
   8.030  0.7917E+00  0.1135E+02
   8.040  0.7906E+00  0.1135E+02
   8.050  0.7889E+00  0.1136E+02
   8.060  0.7867E+00  0.1137E+02
   8.070  0.7842E+00  0.1138E+02
   8.080  0.7816E+00  0.1139E+02
   8.090  0.7790E+00  0.1139E+02
   8.100  0.7764E+00  0.1140E+02
   8.110  0.7741E+00  0.1141E+02
   8.120  0.7721E+00  0.1142E+02
   8.130  0.7705E+00  0.1142E+02
   8.140  0.7691E+00  0.1143E+02
   8.150  0.7682E+00  0.1144E+02
   8.160  0.7675E+00  0.1145E+02
   8.170  0.7670E+00  0.1145E+02
   8.180  0.7668E+00  0.1146E+02
   8.190  0.7668E+00  0.1147E+02
   8.200  0.7668E+00  0.1148E+02
   8.210  0.7670E+00  0.1149E+02
   8.220  0.7672E+00  0.1149E+02
   8.230  0.7675E+00  0.1150E+02
   8.240  0.7680E+00  0.1151E+02
   8.250  0.7686E+00  0.1152E+02
   8.260  0.7695E+00  0.1152E+02
   8.270  0.7707E+00  0.1153E+02
   8.280  0.7723E+00  0.1154E+02
   8.290  0.7744E+00  0.1155E+02
   8.300  0.7770E+00  0.1155E+02
   8.310  0.7804E+00  0.1156E+02
   8.320  0.7844E+00  0.1157E+02
   8.330  0.7892E+00  0.1158E+02
   8.340  0.7948E+00  0.1159E+02
   8.350  0.8013E+00  0.1159E+02
   8.360  0.8086E+00  0.1160E+02
   8.370  0.8167E+00  0.1161E+02
   8.380  0.8257E+00  0.1162E+02
   8.390  0.8356E+00  0.1163E+02
   8.400  0.8462E+00  0.1164E+02
   8.410  0.8575E+00  0.1164E+02
   8.420  0.8696E+00  0.1165E+02
   8.430  0.8823E+00  0.1166E+02
   8.440  0.8956E+00  0.1167E+02
   8.450  0.9093E+00  0.1168E+02
   8.460  0.9234E+00  0.1169E+02
   8.470  0.9377E+00  0.1170E+02
   8.480  0.9522E+00  0.1171E+02
   8.490  0.9668E+00  0.1172E+02
   8.500  0.9812E+00  0.1173E+02
   8.510  0.9955E+00  0.1174E+02
   8.520  0.1009E+01  0.1175E+02
   8.530  0.1023E+01  0.1176E+02
   8.540  0.1036E+01  0.1177E+02
   8.550  0.1048E+01  0.1178E+02
   8.560  0.1059E+01  0.1179E+02
   8.570  0.1070E+01  0.1180E+02
   8.580  0.1079E+01  0.1181E+02
   8.590  0.1088E+01  0.1182E+02
   8.600  0.1094E+01  0.1183E+02
   8.610  0.1100E+01  0.1184E+02
   8.620  0.1104E+01  0.1185E+02
   8.630  0.1106E+01  0.1187E+02
   8.640  0.1107E+01  0.1188E+02
   8.650  0.1106E+01  0.1189E+02
   8.660  0.1103E+01  0.1190E+02
   8.670  0.1098E+01  0.1191E+02
   8.680  0.1092E+01  0.1192E+02
   8.690  0.1084E+01  0.1193E+02
   8.700  0.1074E+01  0.1194E+02
   8.710  0.1063E+01  0.1195E+02
   8.720  0.1051E+01  0.1196E+02
   8.730  0.1037E+01  0.1197E+02
   8.740  0.1023E+01  0.1198E+02
   8.750  0.1008E+01  0.1199E+02
   8.760  0.9933E+00  0.1200E+02
   8.770  0.9780E+00  0.1201E+02
   8.780  0.9627E+00  0.1202E+02
   8.790  0.9476E+00  0.1203E+02
   8.800  0.9330E+00  0.1204E+02
   8.810  0.9189E+00  0.1205E+02
   8.820  0.9053E+00  0.1206E+02
   8.830  0.8924E+00  0.1207E+02
   8.840  0.8802E+00  0.1208E+02
   8.850  0.8687E+00  0.1209E+02
   8.860  0.8578E+00  0.1210E+02
   8.870  0.8474E+00  0.1210E+02
   8.880  0.8376E+00  0.1211E+02
   8.890  0.8282E+00  0.1212E+02
   8.900  0.8193E+00  0.1213E+02
   8.910  0.8106E+00  0.1214E+02
   8.920  0.8022E+00  0.1214E+02
   8.930  0.7941E+00  0.1215E+02
   8.940  0.7860E+00  0.1216E+02
   8.950  0.7781E+00  0.1217E+02
   8.960  0.7703E+00  0.1218E+02
   8.970  0.7626E+00  0.1218E+02
   8.980  0.7548E+00  0.1219E+02
   8.990  0.7470E+00  0.1220E+02
   9.000  0.7393E+00  0.1221E+02
   9.010  0.7314E+00  0.1221E+02
   9.020  0.7236E+00  0.1222E+02
   9.030  0.7157E+00  0.1223E+02
   9.040  0.7078E+00  0.1224E+02
   9.050  0.7000E+00  0.1224E+02
   9.060  0.6921E+00  0.1225E+02
   9.070  0.6844E+00  0.1226E+02
   9.080  0.6767E+00  0.1226E+02
   9.090  0.6692E+00  0.1227E+02
   9.100  0.6619E+00  0.1228E+02
   9.110  0.6548E+00  0.1228E+02
   9.120  0.6479E+00  0.1229E+02
   9.130  0.6412E+00  0.1230E+02
   9.140  0.6347E+00  0.1230E+02
   9.150  0.6283E+00  0.1231E+02
   9.160  0.6220E+00  0.1231E+02
   9.170  0.6156E+00  0.1232E+02
   9.180  0.6091E+00  0.1233E+02
   9.190  0.6022E+00  0.1233E+02
   9.200  0.5950E+00  0.1234E+02
   9.210  0.5871E+00  0.1234E+02
   9.220  0.5785E+00  0.1235E+02
   9.230  0.5690E+00  0.1236E+02
   9.240  0.5586E+00  0.1236E+02
   9.250  0.5470E+00  0.1237E+02
   9.260  0.5343E+00  0.1237E+02
   9.270  0.5203E+00  0.1238E+02
   9.280  0.5052E+00  0.1238E+02
   9.290  0.4889E+00  0.1239E+02
   9.300  0.4715E+00  0.1239E+02
   9.310  0.4533E+00  0.1240E+02
   9.320  0.4342E+00  0.1240E+02
   9.330  0.4146E+00  0.1240E+02
   9.340  0.3947E+00  0.1241E+02
   9.350  0.3748E+00  0.1241E+02
   9.360  0.3550E+00  0.1242E+02
   9.370  0.3356E+00  0.1242E+02
   9.380  0.3170E+00  0.1242E+02
   9.390  0.2992E+00  0.1243E+02
   9.400  0.2826E+00  0.1243E+02
   9.410  0.2673E+00  0.1243E+02
   9.420  0.2535E+00  0.1243E+02
   9.430  0.2412E+00  0.1244E+02
   9.440  0.2305E+00  0.1244E+02
   9.450  0.2213E+00  0.1244E+02
   9.460  0.2138E+00  0.1244E+02
   9.470  0.2078E+00  0.1244E+02
   9.480  0.2032E+00  0.1245E+02
   9.490  0.2000E+00  0.1245E+02
   9.500  0.1979E+00  0.1245E+02
   9.510  0.1967E+00  0.1245E+02
   9.520  0.1965E+00  0.1245E+02
   9.530  0.1969E+00  0.1246E+02
   9.540  0.1978E+00  0.1246E+02
   9.550  0.1990E+00  0.1246E+02
   9.560  0.2004E+00  0.1246E+02
   9.570  0.2019E+00  0.1246E+02
   9.580  0.2032E+00  0.1247E+02
   9.590  0.2044E+00  0.1247E+02
   9.600  0.2053E+00  0.1247E+02
   9.610  0.2058E+00  0.1247E+02
   9.620  0.2058E+00  0.1248E+02
   9.630  0.2054E+00  0.1248E+02
   9.640  0.2045E+00  0.1248E+02
   9.650  0.2032E+00  0.1248E+02
   9.660  0.2013E+00  0.1248E+02
   9.670  0.1990E+00  0.1249E+02
   9.680  0.1962E+00  0.1249E+02
   9.690  0.1931E+00  0.1249E+02
   9.700  0.1897E+00  0.1249E+02
   9.710  0.1861E+00  0.1249E+02
   9.720  0.1823E+00  0.1249E+02
   9.730  0.1785E+00  0.1250E+02
   9.740  0.1746E+00  0.1250E+02
   9.750  0.1708E+00  0.1250E+02
   9.760  0.1671E+00  0.1250E+02
   9.770  0.1636E+00  0.1250E+02
   9.780  0.1603E+00  0.1250E+02
   9.790  0.1574E+00  0.1251E+02
   9.800  0.1548E+00  0.1251E+02
   9.810  0.1526E+00  0.1251E+02
   9.820  0.1507E+00  0.1251E+02
   9.830  0.1494E+00  0.1251E+02
   9.840  0.1485E+00  0.1251E+02
   9.850  0.1480E+00  0.1252E+02
   9.860  0.1480E+00  0.1252E+02
   9.870  0.1485E+00  0.1252E+02
   9.880  0.1495E+00  0.1252E+02
   9.890  0.1509E+00  0.1252E+02
   9.900  0.1527E+00  0.1252E+02
   9.910  0.1549E+00  0.1252E+02
   9.920  0.1573E+00  0.1253E+02
   9.930  0.1600E+00  0.1253E+02
   9.940  0.1628E+00  0.1253E+02
   9.950  0.1656E+00  0.1253E+02
   9.960  0.1684E+00  0.1253E+02
   9.970  0.1710E+00  0.1253E+02
   9.980  0.1735E+00  0.1254E+02
   9.990  0.1756E+00  0.1254E+02
  10.000  0.1773E+00  0.1254E+02
