#  E (eV)   dos(E)     Int dos(E) EFermi =   -2.630 eV
 -10.000  0.3824E+00  0.3824E-02
  -9.990  0.3842E+00  0.7665E-02
  -9.980  0.3888E+00  0.1155E-01
  -9.970  0.3960E+00  0.1551E-01
  -9.960  0.4057E+00  0.1957E-01
  -9.950  0.4174E+00  0.2374E-01
  -9.940  0.4306E+00  0.2805E-01
  -9.930  0.4450E+00  0.3250E-01
  -9.920  0.4600E+00  0.3710E-01
  -9.910  0.4752E+00  0.4185E-01
  -9.900  0.4899E+00  0.4675E-01
  -9.890  0.5038E+00  0.5179E-01
  -9.880  0.5164E+00  0.5695E-01
  -9.870  0.5274E+00  0.6223E-01
  -9.860  0.5364E+00  0.6759E-01
  -9.850  0.5432E+00  0.7302E-01
  -9.840  0.5477E+00  0.7850E-01
  -9.830  0.5498E+00  0.8400E-01
  -9.820  0.5494E+00  0.8949E-01
  -9.810  0.5467E+00  0.9496E-01
  -9.800  0.5418E+00  0.1004E+00
  -9.790  0.5349E+00  0.1057E+00
  -9.780  0.5262E+00  0.1110E+00
  -9.770  0.5160E+00  0.1161E+00
  -9.760  0.5047E+00  0.1212E+00
  -9.750  0.4925E+00  0.1261E+00
  -9.740  0.4798E+00  0.1309E+00
  -9.730  0.4669E+00  0.1356E+00
  -9.720  0.4543E+00  0.1401E+00
  -9.710  0.4422E+00  0.1446E+00
  -9.700  0.4310E+00  0.1489E+00
  -9.690  0.4210E+00  0.1531E+00
  -9.680  0.4126E+00  0.1572E+00
  -9.670  0.4061E+00  0.1613E+00
  -9.660  0.4018E+00  0.1653E+00
  -9.650  0.3998E+00  0.1693E+00
  -9.640  0.4004E+00  0.1733E+00
  -9.630  0.4036E+00  0.1773E+00
  -9.620  0.4096E+00  0.1814E+00
  -9.610  0.4183E+00  0.1856E+00
  -9.600  0.4294E+00  0.1899E+00
  -9.590  0.4428E+00  0.1943E+00
  -9.580  0.4582E+00  0.1989E+00
  -9.570  0.4750E+00  0.2036E+00
  -9.560  0.4928E+00  0.2086E+00
  -9.550  0.5110E+00  0.2137E+00
  -9.540  0.5288E+00  0.2190E+00
  -9.530  0.5458E+00  0.2244E+00
  -9.520  0.5612E+00  0.2300E+00
  -9.510  0.5744E+00  0.2358E+00
  -9.500  0.5849E+00  0.2416E+00
  -9.490  0.5923E+00  0.2476E+00
  -9.480  0.5963E+00  0.2535E+00
  -9.470  0.5966E+00  0.2595E+00
  -9.460  0.5933E+00  0.2654E+00
  -9.450  0.5865E+00  0.2713E+00
  -9.440  0.5764E+00  0.2771E+00
  -9.430  0.5635E+00  0.2827E+00
  -9.420  0.5482E+00  0.2882E+00
  -9.410  0.5311E+00  0.2935E+00
  -9.400  0.5129E+00  0.2986E+00
  -9.390  0.4943E+00  0.3035E+00
  -9.380  0.4759E+00  0.3083E+00
  -9.370  0.4583E+00  0.3129E+00
  -9.360  0.4423E+00  0.3173E+00
  -9.350  0.4281E+00  0.3216E+00
  -9.340  0.4164E+00  0.3258E+00
  -9.330  0.4073E+00  0.3298E+00
  -9.320  0.4010E+00  0.3338E+00
  -9.310  0.3978E+00  0.3378E+00
  -9.300  0.3976E+00  0.3418E+00
  -9.290  0.4003E+00  0.3458E+00
  -9.280  0.4058E+00  0.3499E+00
  -9.270  0.4139E+00  0.3540E+00
  -9.260  0.4244E+00  0.3582E+00
  -9.250  0.4370E+00  0.3626E+00
  -9.240  0.4514E+00  0.3671E+00
  -9.230  0.4673E+00  0.3718E+00
  -9.220  0.4844E+00  0.3766E+00
  -9.210  0.5023E+00  0.3817E+00
  -9.200  0.5208E+00  0.3869E+00
  -9.190  0.5393E+00  0.3923E+00
  -9.180  0.5577E+00  0.3978E+00
  -9.170  0.5754E+00  0.4036E+00
  -9.160  0.5921E+00  0.4095E+00
  -9.150  0.6074E+00  0.4156E+00
  -9.140  0.6209E+00  0.4218E+00
  -9.130  0.6322E+00  0.4281E+00
  -9.120  0.6412E+00  0.4345E+00
  -9.110  0.6474E+00  0.4410E+00
  -9.100  0.6507E+00  0.4475E+00
  -9.090  0.6510E+00  0.4540E+00
  -9.080  0.6483E+00  0.4605E+00
  -9.070  0.6426E+00  0.4669E+00
  -9.060  0.6341E+00  0.4733E+00
  -9.050  0.6230E+00  0.4795E+00
  -9.040  0.6098E+00  0.4856E+00
  -9.030  0.5948E+00  0.4915E+00
  -9.020  0.5785E+00  0.4973E+00
  -9.010  0.5616E+00  0.5029E+00
  -9.000  0.5444E+00  0.5084E+00
  -8.990  0.5278E+00  0.5137E+00
  -8.980  0.5122E+00  0.5188E+00
  -8.970  0.4983E+00  0.5238E+00
  -8.960  0.4865E+00  0.5286E+00
  -8.950  0.4774E+00  0.5334E+00
  -8.940  0.4713E+00  0.5381E+00
  -8.930  0.4687E+00  0.5428E+00
  -8.920  0.4698E+00  0.5475E+00
  -8.910  0.4747E+00  0.5523E+00
  -8.900  0.4836E+00  0.5571E+00
  -8.890  0.4963E+00  0.5621E+00
  -8.880  0.5128E+00  0.5672E+00
  -8.870  0.5329E+00  0.5725E+00
  -8.860  0.5562E+00  0.5781E+00
  -8.850  0.5824E+00  0.5839E+00
  -8.840  0.6110E+00  0.5900E+00
  -8.830  0.6415E+00  0.5964E+00
  -8.820  0.6734E+00  0.6032E+00
  -8.810  0.7060E+00  0.6102E+00
  -8.800  0.7387E+00  0.6176E+00
  -8.790  0.7710E+00  0.6253E+00
  -8.780  0.8023E+00  0.6333E+00
  -8.770  0.8320E+00  0.6417E+00
  -8.760  0.8596E+00  0.6503E+00
  -8.750  0.8848E+00  0.6591E+00
  -8.740  0.9071E+00  0.6682E+00
  -8.730  0.9263E+00  0.6774E+00
  -8.720  0.9422E+00  0.6869E+00
  -8.710  0.9546E+00  0.6964E+00
  -8.700  0.9634E+00  0.7060E+00
  -8.690  0.9688E+00  0.7157E+00
  -8.680  0.9709E+00  0.7254E+00
  -8.670  0.9698E+00  0.7351E+00
  -8.660  0.9657E+00  0.7448E+00
  -8.650  0.9591E+00  0.7544E+00
  -8.640  0.9501E+00  0.7639E+00
  -8.630  0.9393E+00  0.7733E+00
  -8.620  0.9269E+00  0.7825E+00
  -8.610  0.9134E+00  0.7917E+00
  -8.600  0.8992E+00  0.8007E+00
  -8.590  0.8848E+00  0.8095E+00
  -8.580  0.8704E+00  0.8182E+00
  -8.570  0.8566E+00  0.8268E+00
  -8.560  0.8435E+00  0.8352E+00
  -8.550  0.8316E+00  0.8435E+00
  -8.540  0.8211E+00  0.8518E+00
  -8.530  0.8122E+00  0.8599E+00
  -8.520  0.8052E+00  0.8679E+00
  -8.510  0.8001E+00  0.8759E+00
  -8.500  0.7971E+00  0.8839E+00
  -8.490  0.7963E+00  0.8919E+00
  -8.480  0.7978E+00  0.8998E+00
  -8.470  0.8014E+00  0.9079E+00
  -8.460  0.8072E+00  0.9159E+00
  -8.450  0.8151E+00  0.9241E+00
  -8.440  0.8251E+00  0.9323E+00
  -8.430  0.8368E+00  0.9407E+00
  -8.420  0.8502E+00  0.9492E+00
  -8.410  0.8649E+00  0.9578E+00
  -8.400  0.8807E+00  0.9667E+00
  -8.390  0.8971E+00  0.9756E+00
  -8.380  0.9139E+00  0.9848E+00
  -8.370  0.9306E+00  0.9941E+00
  -8.360  0.9467E+00  0.1004E+01
  -8.350  0.9618E+00  0.1013E+01
  -8.340  0.9756E+00  0.1023E+01
  -8.330  0.9875E+00  0.1033E+01
  -8.320  0.9974E+00  0.1043E+01
  -8.310  0.1005E+01  0.1053E+01
  -8.300  0.1010E+01  0.1063E+01
  -8.290  0.1012E+01  0.1073E+01
  -8.280  0.1013E+01  0.1083E+01
  -8.270  0.1011E+01  0.1093E+01
  -8.260  0.1007E+01  0.1103E+01
  -8.250  0.1001E+01  0.1113E+01
  -8.240  0.9946E+00  0.1123E+01
  -8.230  0.9877E+00  0.1133E+01
  -8.220  0.9809E+00  0.1143E+01
  -8.210  0.9748E+00  0.1153E+01
  -8.200  0.9700E+00  0.1162E+01
  -8.190  0.9670E+00  0.1172E+01
  -8.180  0.9661E+00  0.1182E+01
  -8.170  0.9677E+00  0.1191E+01
  -8.160  0.9718E+00  0.1201E+01
  -8.150  0.9786E+00  0.1211E+01
  -8.140  0.9878E+00  0.1221E+01
  -8.130  0.9994E+00  0.1231E+01
  -8.120  0.1013E+01  0.1241E+01
  -8.110  0.1028E+01  0.1251E+01
  -8.100  0.1043E+01  0.1262E+01
  -8.090  0.1060E+01  0.1272E+01
  -8.080  0.1075E+01  0.1283E+01
  -8.070  0.1091E+01  0.1294E+01
  -8.060  0.1105E+01  0.1305E+01
  -8.050  0.1117E+01  0.1316E+01
  -8.040  0.1127E+01  0.1327E+01
  -8.030  0.1135E+01  0.1339E+01
  -8.020  0.1142E+01  0.1350E+01
  -8.010  0.1146E+01  0.1362E+01
  -8.000  0.1148E+01  0.1373E+01
  -7.990  0.1150E+01  0.1385E+01
  -7.980  0.1150E+01  0.1396E+01
  -7.970  0.1150E+01  0.1408E+01
  -7.960  0.1150E+01  0.1419E+01
  -7.950  0.1151E+01  0.1431E+01
  -7.940  0.1153E+01  0.1442E+01
  -7.930  0.1157E+01  0.1454E+01
  -7.920  0.1162E+01  0.1465E+01
  -7.910  0.1169E+01  0.1477E+01
  -7.900  0.1179E+01  0.1489E+01
  -7.890  0.1190E+01  0.1501E+01
  -7.880  0.1202E+01  0.1513E+01
  -7.870  0.1216E+01  0.1525E+01
  -7.860  0.1231E+01  0.1537E+01
  -7.850  0.1246E+01  0.1550E+01
  -7.840  0.1260E+01  0.1562E+01
  -7.830  0.1274E+01  0.1575E+01
  -7.820  0.1286E+01  0.1588E+01
  -7.810  0.1297E+01  0.1601E+01
  -7.800  0.1305E+01  0.1614E+01
  -7.790  0.1311E+01  0.1627E+01
  -7.780  0.1315E+01  0.1640E+01
  -7.770  0.1315E+01  0.1653E+01
  -7.760  0.1313E+01  0.1666E+01
  -7.750  0.1309E+01  0.1680E+01
  -7.740  0.1303E+01  0.1693E+01
  -7.730  0.1294E+01  0.1705E+01
  -7.720  0.1285E+01  0.1718E+01
  -7.710  0.1274E+01  0.1731E+01
  -7.700  0.1262E+01  0.1744E+01
  -7.690  0.1249E+01  0.1756E+01
  -7.680  0.1237E+01  0.1769E+01
  -7.670  0.1225E+01  0.1781E+01
  -7.660  0.1213E+01  0.1793E+01
  -7.650  0.1202E+01  0.1805E+01
  -7.640  0.1191E+01  0.1817E+01
  -7.630  0.1182E+01  0.1829E+01
  -7.620  0.1173E+01  0.1840E+01
  -7.610  0.1165E+01  0.1852E+01
  -7.600  0.1158E+01  0.1864E+01
  -7.590  0.1152E+01  0.1875E+01
  -7.580  0.1146E+01  0.1887E+01
  -7.570  0.1140E+01  0.1898E+01
  -7.560  0.1135E+01  0.1909E+01
  -7.550  0.1130E+01  0.1921E+01
  -7.540  0.1124E+01  0.1932E+01
  -7.530  0.1118E+01  0.1943E+01
  -7.520  0.1111E+01  0.1954E+01
  -7.510  0.1104E+01  0.1965E+01
  -7.500  0.1095E+01  0.1976E+01
  -7.490  0.1085E+01  0.1987E+01
  -7.480  0.1075E+01  0.1998E+01
  -7.470  0.1062E+01  0.2008E+01
  -7.460  0.1049E+01  0.2019E+01
  -7.450  0.1034E+01  0.2029E+01
  -7.440  0.1019E+01  0.2039E+01
  -7.430  0.1002E+01  0.2049E+01
  -7.420  0.9853E+00  0.2059E+01
  -7.410  0.9679E+00  0.2069E+01
  -7.400  0.9504E+00  0.2078E+01
  -7.390  0.9330E+00  0.2088E+01
  -7.380  0.9162E+00  0.2097E+01
  -7.370  0.9002E+00  0.2106E+01
  -7.360  0.8853E+00  0.2115E+01
  -7.350  0.8718E+00  0.2124E+01
  -7.340  0.8599E+00  0.2132E+01
  -7.330  0.8499E+00  0.2141E+01
  -7.320  0.8419E+00  0.2149E+01
  -7.310  0.8359E+00  0.2157E+01
  -7.300  0.8322E+00  0.2166E+01
  -7.290  0.8306E+00  0.2174E+01
  -7.280  0.8312E+00  0.2182E+01
  -7.270  0.8338E+00  0.2191E+01
  -7.260  0.8382E+00  0.2199E+01
  -7.250  0.8444E+00  0.2208E+01
  -7.240  0.8520E+00  0.2216E+01
  -7.230  0.8609E+00  0.2225E+01
  -7.220  0.8707E+00  0.2233E+01
  -7.210  0.8812E+00  0.2242E+01
  -7.200  0.8920E+00  0.2251E+01
  -7.190  0.9030E+00  0.2260E+01
  -7.180  0.9137E+00  0.2269E+01
  -7.170  0.9240E+00  0.2279E+01
  -7.160  0.9336E+00  0.2288E+01
  -7.150  0.9423E+00  0.2297E+01
  -7.140  0.9498E+00  0.2307E+01
  -7.130  0.9560E+00  0.2316E+01
  -7.120  0.9607E+00  0.2326E+01
  -7.110  0.9639E+00  0.2336E+01
  -7.100  0.9653E+00  0.2345E+01
  -7.090  0.9648E+00  0.2355E+01
  -7.080  0.9625E+00  0.2365E+01
  -7.070  0.9583E+00  0.2374E+01
  -7.060  0.9521E+00  0.2384E+01
  -7.050  0.9439E+00  0.2393E+01
  -7.040  0.9337E+00  0.2402E+01
  -7.030  0.9218E+00  0.2412E+01
  -7.020  0.9080E+00  0.2421E+01
  -7.010  0.8927E+00  0.2430E+01
  -7.000  0.8760E+00  0.2438E+01
  -6.990  0.8581E+00  0.2447E+01
  -6.980  0.8395E+00  0.2455E+01
  -6.970  0.8205E+00  0.2464E+01
  -6.960  0.8014E+00  0.2472E+01
  -6.950  0.7829E+00  0.2479E+01
  -6.940  0.7652E+00  0.2487E+01
  -6.930  0.7490E+00  0.2495E+01
  -6.920  0.7347E+00  0.2502E+01
  -6.910  0.7227E+00  0.2509E+01
  -6.900  0.7135E+00  0.2516E+01
  -6.890  0.7073E+00  0.2523E+01
  -6.880  0.7044E+00  0.2530E+01
  -6.870  0.7050E+00  0.2537E+01
  -6.860  0.7090E+00  0.2545E+01
  -6.850  0.7163E+00  0.2552E+01
  -6.840  0.7267E+00  0.2559E+01
  -6.830  0.7399E+00  0.2566E+01
  -6.820  0.7553E+00  0.2574E+01
  -6.810  0.7725E+00  0.2582E+01
  -6.800  0.7908E+00  0.2590E+01
  -6.790  0.8095E+00  0.2598E+01
  -6.780  0.8278E+00  0.2606E+01
  -6.770  0.8452E+00  0.2614E+01
  -6.760  0.8609E+00  0.2623E+01
  -6.750  0.8742E+00  0.2632E+01
  -6.740  0.8846E+00  0.2641E+01
  -6.730  0.8917E+00  0.2649E+01
  -6.720  0.8950E+00  0.2658E+01
  -6.710  0.8944E+00  0.2667E+01
  -6.700  0.8898E+00  0.2676E+01
  -6.690  0.8814E+00  0.2685E+01
  -6.680  0.8693E+00  0.2694E+01
  -6.670  0.8538E+00  0.2702E+01
  -6.660  0.8357E+00  0.2711E+01
  -6.650  0.8153E+00  0.2719E+01
  -6.640  0.7935E+00  0.2727E+01
  -6.630  0.7710E+00  0.2734E+01
  -6.620  0.7486E+00  0.2742E+01
  -6.610  0.7271E+00  0.2749E+01
  -6.600  0.7073E+00  0.2756E+01
  -6.590  0.6899E+00  0.2763E+01
  -6.580  0.6756E+00  0.2770E+01
  -6.570  0.6649E+00  0.2777E+01
  -6.560  0.6582E+00  0.2783E+01
  -6.550  0.6558E+00  0.2790E+01
  -6.540  0.6577E+00  0.2796E+01
  -6.530  0.6639E+00  0.2803E+01
  -6.520  0.6742E+00  0.2810E+01
  -6.510  0.6882E+00  0.2817E+01
  -6.500  0.7054E+00  0.2824E+01
  -6.490  0.7250E+00  0.2831E+01
  -6.480  0.7464E+00  0.2838E+01
  -6.470  0.7686E+00  0.2846E+01
  -6.460  0.7909E+00  0.2854E+01
  -6.450  0.8122E+00  0.2862E+01
  -6.440  0.8317E+00  0.2870E+01
  -6.430  0.8486E+00  0.2879E+01
  -6.420  0.8622E+00  0.2887E+01
  -6.410  0.8720E+00  0.2896E+01
  -6.400  0.8774E+00  0.2905E+01
  -6.390  0.8782E+00  0.2914E+01
  -6.380  0.8743E+00  0.2922E+01
  -6.370  0.8659E+00  0.2931E+01
  -6.360  0.8533E+00  0.2940E+01
  -6.350  0.8369E+00  0.2948E+01
  -6.340  0.8173E+00  0.2956E+01
  -6.330  0.7952E+00  0.2964E+01
  -6.320  0.7715E+00  0.2972E+01
  -6.310  0.7470E+00  0.2979E+01
  -6.300  0.7225E+00  0.2987E+01
  -6.290  0.6989E+00  0.2994E+01
  -6.280  0.6769E+00  0.3000E+01
  -6.270  0.6573E+00  0.3007E+01
  -6.260  0.6406E+00  0.3013E+01
  -6.250  0.6273E+00  0.3020E+01
  -6.240  0.6176E+00  0.3026E+01
  -6.230  0.6118E+00  0.3032E+01
  -6.220  0.6099E+00  0.3038E+01
  -6.210  0.6118E+00  0.3044E+01
  -6.200  0.6172E+00  0.3050E+01
  -6.190  0.6257E+00  0.3057E+01
  -6.180  0.6370E+00  0.3063E+01
  -6.170  0.6505E+00  0.3069E+01
  -6.160  0.6656E+00  0.3076E+01
  -6.150  0.6818E+00  0.3083E+01
  -6.140  0.6985E+00  0.3090E+01
  -6.130  0.7151E+00  0.3097E+01
  -6.120  0.7311E+00  0.3104E+01
  -6.110  0.7460E+00  0.3112E+01
  -6.100  0.7594E+00  0.3119E+01
  -6.090  0.7710E+00  0.3127E+01
  -6.080  0.7806E+00  0.3135E+01
  -6.070  0.7881E+00  0.3143E+01
  -6.060  0.7933E+00  0.3151E+01
  -6.050  0.7964E+00  0.3159E+01
  -6.040  0.7974E+00  0.3167E+01
  -6.030  0.7965E+00  0.3175E+01
  -6.020  0.7939E+00  0.3183E+01
  -6.010  0.7898E+00  0.3190E+01
  -6.000  0.7844E+00  0.3198E+01
  -5.990  0.7780E+00  0.3206E+01
  -5.980  0.7709E+00  0.3214E+01
  -5.970  0.7634E+00  0.3221E+01
  -5.960  0.7556E+00  0.3229E+01
  -5.950  0.7478E+00  0.3236E+01
  -5.940  0.7402E+00  0.3244E+01
  -5.930  0.7330E+00  0.3251E+01
  -5.920  0.7262E+00  0.3258E+01
  -5.910  0.7200E+00  0.3266E+01
  -5.900  0.7144E+00  0.3273E+01
  -5.890  0.7094E+00  0.3280E+01
  -5.880  0.7050E+00  0.3287E+01
  -5.870  0.7011E+00  0.3294E+01
  -5.860  0.6976E+00  0.3301E+01
  -5.850  0.6944E+00  0.3308E+01
  -5.840  0.6913E+00  0.3315E+01
  -5.830  0.6883E+00  0.3322E+01
  -5.820  0.6851E+00  0.3329E+01
  -5.810  0.6818E+00  0.3335E+01
  -5.800  0.6782E+00  0.3342E+01
  -5.790  0.6744E+00  0.3349E+01
  -5.780  0.6704E+00  0.3356E+01
  -5.770  0.6663E+00  0.3362E+01
  -5.760  0.6622E+00  0.3369E+01
  -5.750  0.6585E+00  0.3375E+01
  -5.740  0.6552E+00  0.3382E+01
  -5.730  0.6527E+00  0.3389E+01
  -5.720  0.6512E+00  0.3395E+01
  -5.710  0.6509E+00  0.3402E+01
  -5.700  0.6521E+00  0.3408E+01
  -5.690  0.6549E+00  0.3415E+01
  -5.680  0.6594E+00  0.3421E+01
  -5.670  0.6656E+00  0.3428E+01
  -5.660  0.6734E+00  0.3435E+01
  -5.650  0.6828E+00  0.3441E+01
  -5.640  0.6934E+00  0.3448E+01
  -5.630  0.7049E+00  0.3455E+01
  -5.620  0.7172E+00  0.3463E+01
  -5.610  0.7296E+00  0.3470E+01
  -5.600  0.7418E+00  0.3477E+01
  -5.590  0.7535E+00  0.3485E+01
  -5.580  0.7641E+00  0.3492E+01
  -5.570  0.7733E+00  0.3500E+01
  -5.560  0.7807E+00  0.3508E+01
  -5.550  0.7862E+00  0.3516E+01
  -5.540  0.7895E+00  0.3524E+01
  -5.530  0.7905E+00  0.3532E+01
  -5.520  0.7893E+00  0.3540E+01
  -5.510  0.7859E+00  0.3547E+01
  -5.500  0.7805E+00  0.3555E+01
  -5.490  0.7733E+00  0.3563E+01
  -5.480  0.7646E+00  0.3571E+01
  -5.470  0.7548E+00  0.3578E+01
  -5.460  0.7443E+00  0.3586E+01
  -5.450  0.7333E+00  0.3593E+01
  -5.440  0.7223E+00  0.3600E+01
  -5.430  0.7115E+00  0.3607E+01
  -5.420  0.7013E+00  0.3614E+01
  -5.410  0.6918E+00  0.3621E+01
  -5.400  0.6832E+00  0.3628E+01
  -5.390  0.6756E+00  0.3635E+01
  -5.380  0.6691E+00  0.3641E+01
  -5.370  0.6635E+00  0.3648E+01
  -5.360  0.6590E+00  0.3655E+01
  -5.350  0.6555E+00  0.3661E+01
  -5.340  0.6529E+00  0.3668E+01
  -5.330  0.6512E+00  0.3674E+01
  -5.320  0.6504E+00  0.3681E+01
  -5.310  0.6504E+00  0.3687E+01
  -5.300  0.6512E+00  0.3694E+01
  -5.290  0.6530E+00  0.3700E+01
  -5.280  0.6557E+00  0.3707E+01
  -5.270  0.6595E+00  0.3714E+01
  -5.260  0.6642E+00  0.3720E+01
  -5.250  0.6701E+00  0.3727E+01
  -5.240  0.6771E+00  0.3734E+01
  -5.230  0.6852E+00  0.3740E+01
  -5.220  0.6942E+00  0.3747E+01
  -5.210  0.7040E+00  0.3754E+01
  -5.200  0.7144E+00  0.3762E+01
  -5.190  0.7251E+00  0.3769E+01
  -5.180  0.7358E+00  0.3776E+01
  -5.170  0.7460E+00  0.3784E+01
  -5.160  0.7555E+00  0.3791E+01
  -5.150  0.7637E+00  0.3799E+01
  -5.140  0.7703E+00  0.3807E+01
  -5.130  0.7748E+00  0.3814E+01
  -5.120  0.7770E+00  0.3822E+01
  -5.110  0.7766E+00  0.3830E+01
  -5.100  0.7734E+00  0.3838E+01
  -5.090  0.7674E+00  0.3845E+01
  -5.080  0.7584E+00  0.3853E+01
  -5.070  0.7466E+00  0.3860E+01
  -5.060  0.7323E+00  0.3868E+01
  -5.050  0.7155E+00  0.3875E+01
  -5.040  0.6968E+00  0.3882E+01
  -5.030  0.6765E+00  0.3889E+01
  -5.020  0.6550E+00  0.3895E+01
  -5.010  0.6329E+00  0.3901E+01
  -5.000  0.6104E+00  0.3907E+01
  -4.990  0.5883E+00  0.3913E+01
  -4.980  0.5668E+00  0.3919E+01
  -4.970  0.5464E+00  0.3925E+01
  -4.960  0.5274E+00  0.3930E+01
  -4.950  0.5103E+00  0.3935E+01
  -4.940  0.4953E+00  0.3940E+01
  -4.930  0.4827E+00  0.3945E+01
  -4.920  0.4726E+00  0.3949E+01
  -4.910  0.4652E+00  0.3954E+01
  -4.900  0.4606E+00  0.3959E+01
  -4.890  0.4590E+00  0.3963E+01
  -4.880  0.4604E+00  0.3968E+01
  -4.870  0.4647E+00  0.3972E+01
  -4.860  0.4719E+00  0.3977E+01
  -4.850  0.4819E+00  0.3982E+01
  -4.840  0.4945E+00  0.3987E+01
  -4.830  0.5097E+00  0.3992E+01
  -4.820  0.5270E+00  0.3997E+01
  -4.810  0.5462E+00  0.4003E+01
  -4.800  0.5670E+00  0.4008E+01
  -4.790  0.5888E+00  0.4014E+01
  -4.780  0.6114E+00  0.4020E+01
  -4.770  0.6342E+00  0.4027E+01
  -4.760  0.6567E+00  0.4033E+01
  -4.750  0.6785E+00  0.4040E+01
  -4.740  0.6992E+00  0.4047E+01
  -4.730  0.7183E+00  0.4054E+01
  -4.720  0.7354E+00  0.4062E+01
  -4.710  0.7503E+00  0.4069E+01
  -4.700  0.7628E+00  0.4077E+01
  -4.690  0.7727E+00  0.4085E+01
  -4.680  0.7798E+00  0.4092E+01
  -4.670  0.7843E+00  0.4100E+01
  -4.660  0.7862E+00  0.4108E+01
  -4.650  0.7856E+00  0.4116E+01
  -4.640  0.7828E+00  0.4124E+01
  -4.630  0.7780E+00  0.4132E+01
  -4.620  0.7716E+00  0.4139E+01
  -4.610  0.7640E+00  0.4147E+01
  -4.600  0.7555E+00  0.4154E+01
  -4.590  0.7466E+00  0.4162E+01
  -4.580  0.7377E+00  0.4169E+01
  -4.570  0.7292E+00  0.4177E+01
  -4.560  0.7216E+00  0.4184E+01
  -4.550  0.7152E+00  0.4191E+01
  -4.540  0.7103E+00  0.4198E+01
  -4.530  0.7071E+00  0.4205E+01
  -4.520  0.7060E+00  0.4212E+01
  -4.510  0.7069E+00  0.4219E+01
  -4.500  0.7097E+00  0.4226E+01
  -4.490  0.7145E+00  0.4233E+01
  -4.480  0.7208E+00  0.4241E+01
  -4.470  0.7284E+00  0.4248E+01
  -4.460  0.7366E+00  0.4255E+01
  -4.450  0.7451E+00  0.4263E+01
  -4.440  0.7531E+00  0.4270E+01
  -4.430  0.7601E+00  0.4278E+01
  -4.420  0.7653E+00  0.4286E+01
  -4.410  0.7682E+00  0.4293E+01
  -4.400  0.7683E+00  0.4301E+01
  -4.390  0.7652E+00  0.4309E+01
  -4.380  0.7585E+00  0.4316E+01
  -4.370  0.7483E+00  0.4324E+01
  -4.360  0.7344E+00  0.4331E+01
  -4.350  0.7172E+00  0.4338E+01
  -4.340  0.6970E+00  0.4345E+01
  -4.330  0.6742E+00  0.4352E+01
  -4.320  0.6496E+00  0.4358E+01
  -4.310  0.6237E+00  0.4365E+01
  -4.300  0.5973E+00  0.4371E+01
  -4.290  0.5712E+00  0.4376E+01
  -4.280  0.5460E+00  0.4382E+01
  -4.270  0.5224E+00  0.4387E+01
  -4.260  0.5010E+00  0.4392E+01
  -4.250  0.4822E+00  0.4397E+01
  -4.240  0.4664E+00  0.4401E+01
  -4.230  0.4536E+00  0.4406E+01
  -4.220  0.4441E+00  0.4410E+01
  -4.210  0.4376E+00  0.4415E+01
  -4.200  0.4341E+00  0.4419E+01
  -4.190  0.4331E+00  0.4424E+01
  -4.180  0.4344E+00  0.4428E+01
  -4.170  0.4375E+00  0.4432E+01
  -4.160  0.4418E+00  0.4437E+01
  -4.150  0.4468E+00  0.4441E+01
  -4.140  0.4522E+00  0.4446E+01
  -4.130  0.4572E+00  0.4450E+01
  -4.120  0.4616E+00  0.4455E+01
  -4.110  0.4650E+00  0.4459E+01
  -4.100  0.4670E+00  0.4464E+01
  -4.090  0.4674E+00  0.4469E+01
  -4.080  0.4661E+00  0.4473E+01
  -4.070  0.4632E+00  0.4478E+01
  -4.060  0.4585E+00  0.4483E+01
  -4.050  0.4524E+00  0.4487E+01
  -4.040  0.4449E+00  0.4492E+01
  -4.030  0.4364E+00  0.4496E+01
  -4.020  0.4272E+00  0.4500E+01
  -4.010  0.4176E+00  0.4504E+01
  -4.000  0.4079E+00  0.4509E+01
  -3.990  0.3985E+00  0.4513E+01
  -3.980  0.3896E+00  0.4516E+01
  -3.970  0.3815E+00  0.4520E+01
  -3.960  0.3743E+00  0.4524E+01
  -3.950  0.3681E+00  0.4528E+01
  -3.940  0.3630E+00  0.4531E+01
  -3.930  0.3590E+00  0.4535E+01
  -3.920  0.3559E+00  0.4538E+01
  -3.910  0.3537E+00  0.4542E+01
  -3.900  0.3521E+00  0.4546E+01
  -3.890  0.3510E+00  0.4549E+01
  -3.880  0.3502E+00  0.4553E+01
  -3.870  0.3494E+00  0.4556E+01
  -3.860  0.3484E+00  0.4560E+01
  -3.850  0.3470E+00  0.4563E+01
  -3.840  0.3452E+00  0.4566E+01
  -3.830  0.3427E+00  0.4570E+01
  -3.820  0.3395E+00  0.4573E+01
  -3.810  0.3355E+00  0.4577E+01
  -3.800  0.3307E+00  0.4580E+01
  -3.790  0.3251E+00  0.4583E+01
  -3.780  0.3186E+00  0.4586E+01
  -3.770  0.3114E+00  0.4589E+01
  -3.760  0.3033E+00  0.4593E+01
  -3.750  0.2946E+00  0.4595E+01
  -3.740  0.2851E+00  0.4598E+01
  -3.730  0.2751E+00  0.4601E+01
  -3.720  0.2644E+00  0.4604E+01
  -3.710  0.2532E+00  0.4606E+01
  -3.700  0.2415E+00  0.4609E+01
  -3.690  0.2293E+00  0.4611E+01
  -3.680  0.2167E+00  0.4613E+01
  -3.670  0.2038E+00  0.4615E+01
  -3.660  0.1907E+00  0.4617E+01
  -3.650  0.1774E+00  0.4619E+01
  -3.640  0.1640E+00  0.4620E+01
  -3.630  0.1507E+00  0.4622E+01
  -3.620  0.1376E+00  0.4623E+01
  -3.610  0.1247E+00  0.4625E+01
  -3.600  0.1123E+00  0.4626E+01
  -3.590  0.1003E+00  0.4627E+01
  -3.580  0.8887E-01  0.4628E+01
  -3.570  0.7814E-01  0.4628E+01
  -3.560  0.6814E-01  0.4629E+01
  -3.550  0.5893E-01  0.4630E+01
  -3.540  0.5052E-01  0.4630E+01
  -3.530  0.4294E-01  0.4631E+01
  -3.520  0.3617E-01  0.4631E+01
  -3.510  0.3019E-01  0.4631E+01
  -3.500  0.2498E-01  0.4632E+01
  -3.490  0.2047E-01  0.4632E+01
  -3.480  0.1663E-01  0.4632E+01
  -3.470  0.1338E-01  0.4632E+01
  -3.460  0.1066E-01  0.4632E+01
  -3.450  0.8415E-02  0.4632E+01
  -3.440  0.6580E-02  0.4632E+01
  -3.430  0.5096E-02  0.4632E+01
  -3.420  0.3909E-02  0.4632E+01
  -3.410  0.2970E-02  0.4632E+01
  -3.400  0.2234E-02  0.4632E+01
  -3.390  0.1665E-02  0.4632E+01
  -3.380  0.1228E-02  0.4632E+01
  -3.370  0.8975E-03  0.4632E+01
  -3.360  0.6494E-03  0.4632E+01
  -3.350  0.4653E-03  0.4632E+01
  -3.340  0.3301E-03  0.4632E+01
  -3.330  0.2319E-03  0.4632E+01
  -3.320  0.1613E-03  0.4632E+01
  -3.310  0.1111E-03  0.4632E+01
  -3.300  0.7580E-04  0.4632E+01
  -3.290  0.5119E-04  0.4632E+01
  -3.280  0.3422E-04  0.4632E+01
  -3.270  0.2266E-04  0.4632E+01
  -3.260  0.1485E-04  0.4632E+01
  -3.250  0.9637E-05  0.4632E+01
  -3.240  0.6192E-05  0.4632E+01
  -3.230  0.3938E-05  0.4632E+01
  -3.220  0.2480E-05  0.4632E+01
  -3.210  0.1546E-05  0.4632E+01
  -3.200  0.9543E-06  0.4632E+01
  -3.190  0.5831E-06  0.4632E+01
  -3.180  0.3527E-06  0.4632E+01
  -3.170  0.2112E-06  0.4632E+01
  -3.160  0.1252E-06  0.4632E+01
  -3.150  0.7343E-07  0.4632E+01
  -3.140  0.4264E-07  0.4632E+01
  -3.130  0.2451E-07  0.4632E+01
  -3.120  0.1395E-07  0.4632E+01
  -3.110  0.7856E-08  0.4632E+01
  -3.100  0.4380E-08  0.4632E+01
  -3.090  0.2417E-08  0.4632E+01
  -3.080  0.1320E-08  0.4632E+01
  -3.070  0.7133E-09  0.4632E+01
  -3.060  0.3816E-09  0.4632E+01
  -3.050  0.2020E-09  0.4632E+01
  -3.040  0.1059E-09  0.4632E+01
  -3.030  0.5489E-10  0.4632E+01
  -3.020  0.2817E-10  0.4632E+01
  -3.010  0.1431E-10  0.4632E+01
  -3.000  0.7190E-11  0.4632E+01
  -2.990  0.3576E-11  0.4632E+01
  -2.980  0.1760E-11  0.4632E+01
  -2.970  0.8572E-12  0.4632E+01
  -2.960  0.4132E-12  0.4632E+01
  -2.950  0.1970E-12  0.4632E+01
  -2.940  0.9299E-13  0.4632E+01
  -2.930  0.4343E-13  0.4632E+01
  -2.920  0.2007E-13  0.4632E+01
  -2.910  0.9175E-14  0.4632E+01
  -2.900  0.4151E-14  0.4632E+01
  -2.890  0.1858E-14  0.4632E+01
  -2.880  0.8230E-15  0.4632E+01
  -2.870  0.3607E-15  0.4632E+01
  -2.860  0.1564E-15  0.4632E+01
  -2.850  0.6711E-16  0.4632E+01
  -2.840  0.2849E-16  0.4632E+01
  -2.830  0.1197E-16  0.4632E+01
  -2.820  0.4973E-17  0.4632E+01
  -2.810  0.2045E-17  0.4632E+01
  -2.800  0.8318E-18  0.4632E+01
  -2.790  0.3348E-18  0.4632E+01
  -2.780  0.1333E-18  0.4632E+01
  -2.770  0.5252E-19  0.4632E+01
  -2.760  0.2047E-19  0.4632E+01
  -2.750  0.7895E-20  0.4632E+01
  -2.740  0.3012E-20  0.4632E+01
  -2.730  0.1137E-20  0.4632E+01
  -2.720  0.4246E-21  0.4632E+01
  -2.710  0.1569E-21  0.4632E+01
  -2.700  0.5735E-22  0.4632E+01
  -2.690  0.2074E-22  0.4632E+01
  -2.680  0.7420E-23  0.4632E+01
  -2.670  0.2626E-23  0.4632E+01
  -2.660  0.9196E-24  0.4632E+01
  -2.650  0.3186E-24  0.4632E+01
  -2.640  0.1092E-24  0.4632E+01
  -2.630  0.3702E-25  0.4632E+01
  -2.620  0.1242E-25  0.4632E+01
  -2.610  0.4121E-26  0.4632E+01
  -2.600  0.1353E-26  0.4632E+01
  -2.590  0.4394E-27  0.4632E+01
  -2.580  0.1412E-27  0.4632E+01
  -2.570  0.4488E-28  0.4632E+01
  -2.560  0.1411E-28  0.4632E+01
  -2.550  0.4390E-29  0.4632E+01
  -2.540  0.1351E-29  0.4632E+01
  -2.530  0.4114E-30  0.4632E+01
  -2.520  0.1239E-30  0.4632E+01
  -2.510  0.3692E-31  0.4632E+01
  -2.500  0.1088E-31  0.4632E+01
  -2.490  0.3174E-32  0.4632E+01
  -2.480  0.9157E-33  0.4632E+01
  -2.470  0.2613E-33  0.4632E+01
  -2.460  0.7379E-34  0.4632E+01
  -2.450  0.2061E-34  0.4632E+01
  -2.440  0.5695E-35  0.4632E+01
  -2.430  0.1557E-35  0.4632E+01
  -2.420  0.4210E-36  0.4632E+01
  -2.410  0.1126E-36  0.4632E+01
  -2.400  0.2980E-37  0.4632E+01
  -2.390  0.7803E-38  0.4632E+01
  -2.380  0.2021E-38  0.4632E+01
  -2.370  0.5178E-39  0.4632E+01
  -2.360  0.1312E-39  0.4632E+01
  -2.350  0.3291E-40  0.4632E+01
  -2.340  0.8163E-41  0.4632E+01
  -2.330  0.2003E-41  0.4632E+01
  -2.320  0.4863E-42  0.4632E+01
  -2.310  0.1168E-42  0.4632E+01
  -2.300  0.2774E-43  0.4632E+01
  -2.290  0.6520E-44  0.4632E+01
  -2.280  0.1516E-44  0.4632E+01
  -2.270  0.3487E-45  0.4632E+01
  -2.260  0.7933E-46  0.4632E+01
  -2.250  0.1786E-46  0.4632E+01
  -2.240  0.3976E-47  0.4632E+01
  -2.230  0.8758E-48  0.4632E+01
  -2.220  0.1909E-48  0.4632E+01
  -2.210  0.4114E-49  0.4632E+01
  -2.200  0.8774E-50  0.4632E+01
  -2.190  0.1851E-50  0.4632E+01
  -2.180  0.3863E-51  0.4632E+01
  -2.170  0.7975E-52  0.4632E+01
  -2.160  0.1629E-52  0.4632E+01
  -2.150  0.3291E-53  0.4632E+01
  -2.140  0.6578E-54  0.4632E+01
  -2.130  0.1301E-54  0.4632E+01
  -2.120  0.2544E-55  0.4632E+01
  -2.110  0.4923E-56  0.4632E+01
  -2.100  0.9424E-57  0.4632E+01
  -2.090  0.1785E-57  0.4632E+01
  -2.080  0.3343E-58  0.4632E+01
  -2.070  0.6195E-59  0.4632E+01
  -2.060  0.1136E-59  0.4632E+01
  -2.050  0.2060E-60  0.4632E+01
  -2.040  0.3696E-61  0.4632E+01
  -2.030  0.6559E-62  0.4632E+01
  -2.020  0.1152E-62  0.4632E+01
  -2.010  0.2000E-63  0.4632E+01
  -2.000  0.3437E-64  0.4632E+01
  -1.990  0.5842E-65  0.4632E+01
  -1.980  0.9823E-66  0.4632E+01
  -1.970  0.1634E-66  0.4632E+01
  -1.960  0.2689E-67  0.4632E+01
  -1.950  0.4377E-68  0.4632E+01
  -1.940  0.7049E-69  0.4632E+01
  -1.930  0.1123E-69  0.4632E+01
  -1.920  0.1770E-70  0.4632E+01
  -1.910  0.2759E-71  0.4632E+01
  -1.900  0.4256E-72  0.4632E+01
  -1.890  0.6493E-73  0.4632E+01
  -1.880  0.9800E-74  0.4632E+01
  -1.870  0.1463E-74  0.4632E+01
  -1.860  0.2161E-75  0.4632E+01
  -1.850  0.3158E-76  0.4632E+01
  -1.840  0.4565E-77  0.4632E+01
  -1.830  0.6528E-78  0.4632E+01
  -1.820  0.9234E-79  0.4632E+01
  -1.810  0.1292E-79  0.4632E+01
  -1.800  0.1789E-80  0.4632E+01
  -1.790  0.2452E-81  0.4632E+01
  -1.780  0.3337E-82  0.4632E+01
  -1.770  0.4631E-83  0.4632E+01
  -1.760  0.7733E-84  0.4632E+01
  -1.750  0.2609E-84  0.4632E+01
  -1.740  0.1936E-84  0.4632E+01
  -1.730  0.1849E-84  0.4632E+01
  -1.720  0.1838E-84  0.4632E+01
  -1.710  0.1836E-84  0.4632E+01
  -1.700  0.1836E-84  0.4632E+01
  -1.690  0.1836E-84  0.4632E+01
  -1.680  0.1836E-84  0.4632E+01
  -1.670  0.1836E-84  0.4632E+01
  -1.660  0.1836E-84  0.4632E+01
  -1.650  0.1836E-84  0.4632E+01
  -1.640  0.1836E-84  0.4632E+01
  -1.630  0.1836E-84  0.4632E+01
  -1.620  0.1836E-84  0.4632E+01
  -1.610  0.1836E-84  0.4632E+01
  -1.600  0.1836E-84  0.4632E+01
  -1.590  0.1836E-84  0.4632E+01
  -1.580  0.1836E-84  0.4632E+01
  -1.570  0.1836E-84  0.4632E+01
  -1.560  0.1836E-84  0.4632E+01
  -1.550  0.1836E-84  0.4632E+01
  -1.540  0.1836E-84  0.4632E+01
  -1.530  0.1836E-84  0.4632E+01
  -1.520  0.1836E-84  0.4632E+01
  -1.510  0.1836E-84  0.4632E+01
  -1.500  0.1836E-84  0.4632E+01
  -1.490  0.1836E-84  0.4632E+01
  -1.480  0.1836E-84  0.4632E+01
  -1.470  0.1836E-84  0.4632E+01
  -1.460  0.1836E-84  0.4632E+01
  -1.450  0.1836E-84  0.4632E+01
  -1.440  0.1836E-84  0.4632E+01
  -1.430  0.1836E-84  0.4632E+01
  -1.420  0.1836E-84  0.4632E+01
  -1.410  0.1836E-84  0.4632E+01
  -1.400  0.1836E-84  0.4632E+01
  -1.390  0.1836E-84  0.4632E+01
  -1.380  0.1836E-84  0.4632E+01
  -1.370  0.1836E-84  0.4632E+01
  -1.360  0.1836E-84  0.4632E+01
  -1.350  0.1836E-84  0.4632E+01
  -1.340  0.1836E-84  0.4632E+01
  -1.330  0.1836E-84  0.4632E+01
  -1.320  0.1836E-84  0.4632E+01
  -1.310  0.1836E-84  0.4632E+01
  -1.300  0.1836E-84  0.4632E+01
  -1.290  0.1836E-84  0.4632E+01
  -1.280  0.1836E-84  0.4632E+01
  -1.270  0.1836E-84  0.4632E+01
  -1.260  0.1836E-84  0.4632E+01
  -1.250  0.1836E-84  0.4632E+01
  -1.240  0.1836E-84  0.4632E+01
  -1.230  0.1836E-84  0.4632E+01
  -1.220  0.1836E-84  0.4632E+01
  -1.210  0.1836E-84  0.4632E+01
  -1.200  0.1836E-84  0.4632E+01
  -1.190  0.1836E-84  0.4632E+01
  -1.180  0.1836E-84  0.4632E+01
  -1.170  0.1836E-84  0.4632E+01
  -1.160  0.1838E-84  0.4632E+01
  -1.150  0.1852E-84  0.4632E+01
  -1.140  0.1958E-84  0.4632E+01
  -1.130  0.2774E-84  0.4632E+01
  -1.120  0.8961E-84  0.4632E+01
  -1.110  0.5533E-83  0.4632E+01
  -1.100  0.3992E-82  0.4632E+01
  -1.090  0.2921E-81  0.4632E+01
  -1.080  0.2122E-80  0.4632E+01
  -1.070  0.1526E-79  0.4632E+01
  -1.060  0.1086E-78  0.4632E+01
  -1.050  0.7639E-78  0.4632E+01
  -1.040  0.5318E-77  0.4632E+01
  -1.030  0.3662E-76  0.4632E+01
  -1.020  0.2495E-75  0.4632E+01
  -1.010  0.1682E-74  0.4632E+01
  -1.000  0.1121E-73  0.4632E+01
  -0.990  0.7395E-73  0.4632E+01
  -0.980  0.4825E-72  0.4632E+01
  -0.970  0.3115E-71  0.4632E+01
  -0.960  0.1989E-70  0.4632E+01
  -0.950  0.1256E-69  0.4632E+01
  -0.940  0.7851E-69  0.4632E+01
  -0.930  0.4853E-68  0.4632E+01
  -0.920  0.2968E-67  0.4632E+01
  -0.910  0.1796E-66  0.4632E+01
  -0.900  0.1075E-65  0.4632E+01
  -0.890  0.6364E-65  0.4632E+01
  -0.880  0.3727E-64  0.4632E+01
  -0.870  0.2160E-63  0.4632E+01
  -0.860  0.1238E-62  0.4632E+01
  -0.850  0.7020E-62  0.4632E+01
  -0.840  0.3938E-61  0.4632E+01
  -0.830  0.2186E-60  0.4632E+01
  -0.820  0.1200E-59  0.4632E+01
  -0.810  0.6517E-59  0.4632E+01
  -0.800  0.3501E-58  0.4632E+01
  -0.790  0.1861E-57  0.4632E+01
  -0.780  0.9786E-57  0.4632E+01
  -0.770  0.5091E-56  0.4632E+01
  -0.760  0.2620E-55  0.4632E+01
  -0.750  0.1334E-54  0.4632E+01
  -0.740  0.6716E-54  0.4632E+01
  -0.730  0.3346E-53  0.4632E+01
  -0.720  0.1649E-52  0.4632E+01
  -0.710  0.8042E-52  0.4632E+01
  -0.700  0.3879E-51  0.4632E+01
  -0.690  0.1851E-50  0.4632E+01
  -0.680  0.8739E-50  0.4632E+01
  -0.670  0.4081E-49  0.4632E+01
  -0.660  0.1886E-48  0.4632E+01
  -0.650  0.8618E-48  0.4632E+01
  -0.640  0.3897E-47  0.4632E+01
  -0.630  0.1743E-46  0.4632E+01
  -0.620  0.7714E-46  0.4632E+01
  -0.610  0.3377E-45  0.4632E+01
  -0.600  0.1463E-44  0.4632E+01
  -0.590  0.6267E-44  0.4632E+01
  -0.580  0.2656E-43  0.4632E+01
  -0.570  0.1114E-42  0.4632E+01
  -0.560  0.4621E-42  0.4632E+01
  -0.550  0.1897E-41  0.4632E+01
  -0.540  0.7701E-41  0.4632E+01
  -0.530  0.3093E-40  0.4632E+01
  -0.520  0.1229E-39  0.4632E+01
  -0.510  0.4832E-39  0.4632E+01
  -0.500  0.1879E-38  0.4632E+01
  -0.490  0.7231E-38  0.4632E+01
  -0.480  0.2752E-37  0.4632E+01
  -0.470  0.1037E-36  0.4632E+01
  -0.460  0.3862E-36  0.4632E+01
  -0.450  0.1423E-35  0.4632E+01
  -0.440  0.5190E-35  0.4632E+01
  -0.430  0.1872E-34  0.4632E+01
  -0.420  0.6683E-34  0.4632E+01
  -0.410  0.2360E-33  0.4632E+01
  -0.400  0.8243E-33  0.4632E+01
  -0.390  0.2849E-32  0.4632E+01
  -0.380  0.9740E-32  0.4632E+01
  -0.370  0.3295E-31  0.4632E+01
  -0.360  0.1103E-30  0.4632E+01
  -0.350  0.3651E-30  0.4632E+01
  -0.340  0.1196E-29  0.4632E+01
  -0.330  0.3875E-29  0.4632E+01
  -0.320  0.1243E-28  0.4632E+01
  -0.310  0.3942E-28  0.4632E+01
  -0.300  0.1237E-27  0.4632E+01
  -0.290  0.3841E-27  0.4632E+01
  -0.280  0.1180E-26  0.4632E+01
  -0.270  0.3587E-26  0.4632E+01
  -0.260  0.1079E-25  0.4632E+01
  -0.250  0.3209E-25  0.4632E+01
  -0.240  0.9446E-25  0.4632E+01
  -0.230  0.2751E-24  0.4632E+01
  -0.220  0.7927E-24  0.4632E+01
  -0.210  0.2260E-23  0.4632E+01
  -0.200  0.6375E-23  0.4632E+01
  -0.190  0.1779E-22  0.4632E+01
  -0.180  0.4913E-22  0.4632E+01
  -0.170  0.1342E-21  0.4632E+01
  -0.160  0.3629E-21  0.4632E+01
  -0.150  0.9706E-21  0.4632E+01
  -0.140  0.2568E-20  0.4632E+01
  -0.130  0.6726E-20  0.4632E+01
  -0.120  0.1742E-19  0.4632E+01
  -0.110  0.4467E-19  0.4632E+01
  -0.100  0.1133E-18  0.4632E+01
  -0.090  0.2844E-18  0.4632E+01
  -0.080  0.7062E-18  0.4632E+01
  -0.070  0.1735E-17  0.4632E+01
  -0.060  0.4219E-17  0.4632E+01
  -0.050  0.1015E-16  0.4632E+01
  -0.040  0.2416E-16  0.4632E+01
  -0.030  0.5691E-16  0.4632E+01
  -0.020  0.1327E-15  0.4632E+01
  -0.010  0.3059E-15  0.4632E+01
   0.000  0.6982E-15  0.4632E+01
   0.010  0.1577E-14  0.4632E+01
   0.020  0.3524E-14  0.4632E+01
   0.030  0.7792E-14  0.4632E+01
   0.040  0.1705E-13  0.4632E+01
   0.050  0.3692E-13  0.4632E+01
   0.060  0.7911E-13  0.4632E+01
   0.070  0.1677E-12  0.4632E+01
   0.080  0.3519E-12  0.4632E+01
   0.090  0.7308E-12  0.4632E+01
   0.100  0.1502E-11  0.4632E+01
   0.110  0.3053E-11  0.4632E+01
   0.120  0.6144E-11  0.4632E+01
   0.130  0.1223E-10  0.4632E+01
   0.140  0.2411E-10  0.4632E+01
   0.150  0.4702E-10  0.4632E+01
   0.160  0.9074E-10  0.4632E+01
   0.170  0.1733E-09  0.4632E+01
   0.180  0.3276E-09  0.4632E+01
   0.190  0.6127E-09  0.4632E+01
   0.200  0.1134E-08  0.4632E+01
   0.210  0.2078E-08  0.4632E+01
   0.220  0.3768E-08  0.4632E+01
   0.230  0.6761E-08  0.4632E+01
   0.240  0.1201E-07  0.4632E+01
   0.250  0.2110E-07  0.4632E+01
   0.260  0.3671E-07  0.4632E+01
   0.270  0.6320E-07  0.4632E+01
   0.280  0.1077E-06  0.4632E+01
   0.290  0.1816E-06  0.4632E+01
   0.300  0.3031E-06  0.4632E+01
   0.310  0.5006E-06  0.4632E+01
   0.320  0.8184E-06  0.4632E+01
   0.330  0.1324E-05  0.4632E+01
   0.340  0.2121E-05  0.4632E+01
   0.350  0.3362E-05  0.4632E+01
   0.360  0.5276E-05  0.4632E+01
   0.370  0.8193E-05  0.4632E+01
   0.380  0.1259E-04  0.4632E+01
   0.390  0.1916E-04  0.4632E+01
   0.400  0.2886E-04  0.4632E+01
   0.410  0.4303E-04  0.4632E+01
   0.420  0.6350E-04  0.4632E+01
   0.430  0.9276E-04  0.4632E+01
   0.440  0.1341E-03  0.4632E+01
   0.450  0.1920E-03  0.4632E+01
   0.460  0.2722E-03  0.4632E+01
   0.470  0.3818E-03  0.4632E+01
   0.480  0.5304E-03  0.4632E+01
   0.490  0.7294E-03  0.4632E+01
   0.500  0.9932E-03  0.4633E+01
   0.510  0.1339E-02  0.4633E+01
   0.520  0.1788E-02  0.4633E+01
   0.530  0.2363E-02  0.4633E+01
   0.540  0.3094E-02  0.4633E+01
   0.550  0.4012E-02  0.4633E+01
   0.560  0.5151E-02  0.4633E+01
   0.570  0.6552E-02  0.4633E+01
   0.580  0.8254E-02  0.4633E+01
   0.590  0.1030E-01  0.4633E+01
   0.600  0.1274E-01  0.4633E+01
   0.610  0.1561E-01  0.4633E+01
   0.620  0.1895E-01  0.4633E+01
   0.630  0.2279E-01  0.4634E+01
   0.640  0.2718E-01  0.4634E+01
   0.650  0.3212E-01  0.4634E+01
   0.660  0.3764E-01  0.4635E+01
   0.670  0.4373E-01  0.4635E+01
   0.680  0.5038E-01  0.4636E+01
   0.690  0.5757E-01  0.4636E+01
   0.700  0.6525E-01  0.4637E+01
   0.710  0.7338E-01  0.4638E+01
   0.720  0.8188E-01  0.4638E+01
   0.730  0.9068E-01  0.4639E+01
   0.740  0.9970E-01  0.4640E+01
   0.750  0.1088E+00  0.4641E+01
   0.760  0.1180E+00  0.4642E+01
   0.770  0.1271E+00  0.4644E+01
   0.780  0.1361E+00  0.4645E+01
   0.790  0.1448E+00  0.4647E+01
   0.800  0.1532E+00  0.4648E+01
   0.810  0.1613E+00  0.4650E+01
   0.820  0.1690E+00  0.4651E+01
   0.830  0.1764E+00  0.4653E+01
   0.840  0.1833E+00  0.4655E+01
   0.850  0.1899E+00  0.4657E+01
   0.860  0.1963E+00  0.4659E+01
   0.870  0.2025E+00  0.4661E+01
   0.880  0.2086E+00  0.4663E+01
   0.890  0.2148E+00  0.4665E+01
   0.900  0.2212E+00  0.4667E+01
   0.910  0.2281E+00  0.4670E+01
   0.920  0.2356E+00  0.4672E+01
   0.930  0.2439E+00  0.4674E+01
   0.940  0.2532E+00  0.4677E+01
   0.950  0.2639E+00  0.4680E+01
   0.960  0.2761E+00  0.4682E+01
   0.970  0.2901E+00  0.4685E+01
   0.980  0.3062E+00  0.4688E+01
   0.990  0.3246E+00  0.4692E+01
   1.000  0.3457E+00  0.4695E+01
   1.010  0.3696E+00  0.4699E+01
   1.020  0.3967E+00  0.4703E+01
   1.030  0.4271E+00  0.4707E+01
   1.040  0.4611E+00  0.4712E+01
   1.050  0.4988E+00  0.4717E+01
   1.060  0.5402E+00  0.4722E+01
   1.070  0.5853E+00  0.4728E+01
   1.080  0.6341E+00  0.4734E+01
   1.090  0.6863E+00  0.4741E+01
   1.100  0.7414E+00  0.4748E+01
   1.110  0.7992E+00  0.4756E+01
   1.120  0.8588E+00  0.4765E+01
   1.130  0.9197E+00  0.4774E+01
   1.140  0.9811E+00  0.4784E+01
   1.150  0.1042E+01  0.4794E+01
   1.160  0.1101E+01  0.4805E+01
   1.170  0.1158E+01  0.4817E+01
   1.180  0.1212E+01  0.4829E+01
   1.190  0.1261E+01  0.4842E+01
   1.200  0.1306E+01  0.4855E+01
   1.210  0.1344E+01  0.4868E+01
   1.220  0.1376E+01  0.4882E+01
   1.230  0.1402E+01  0.4896E+01
   1.240  0.1421E+01  0.4910E+01
   1.250  0.1434E+01  0.4925E+01
   1.260  0.1440E+01  0.4939E+01
   1.270  0.1440E+01  0.4953E+01
   1.280  0.1434E+01  0.4968E+01
   1.290  0.1424E+01  0.4982E+01
   1.300  0.1409E+01  0.4996E+01
   1.310  0.1392E+01  0.5010E+01
   1.320  0.1371E+01  0.5024E+01
   1.330  0.1349E+01  0.5037E+01
   1.340  0.1326E+01  0.5050E+01
   1.350  0.1302E+01  0.5063E+01
   1.360  0.1278E+01  0.5076E+01
   1.370  0.1254E+01  0.5089E+01
   1.380  0.1230E+01  0.5101E+01
   1.390  0.1206E+01  0.5113E+01
   1.400  0.1183E+01  0.5125E+01
   1.410  0.1159E+01  0.5137E+01
   1.420  0.1136E+01  0.5148E+01
   1.430  0.1112E+01  0.5159E+01
   1.440  0.1089E+01  0.5170E+01
   1.450  0.1064E+01  0.5181E+01
   1.460  0.1040E+01  0.5191E+01
   1.470  0.1015E+01  0.5201E+01
   1.480  0.9896E+00  0.5211E+01
   1.490  0.9646E+00  0.5221E+01
   1.500  0.9401E+00  0.5230E+01
   1.510  0.9165E+00  0.5239E+01
   1.520  0.8941E+00  0.5248E+01
   1.530  0.8736E+00  0.5257E+01
   1.540  0.8552E+00  0.5265E+01
   1.550  0.8394E+00  0.5274E+01
   1.560  0.8264E+00  0.5282E+01
   1.570  0.8164E+00  0.5290E+01
   1.580  0.8094E+00  0.5298E+01
   1.590  0.8053E+00  0.5306E+01
   1.600  0.8039E+00  0.5314E+01
   1.610  0.8049E+00  0.5322E+01
   1.620  0.8076E+00  0.5331E+01
   1.630  0.8118E+00  0.5339E+01
   1.640  0.8167E+00  0.5347E+01
   1.650  0.8218E+00  0.5355E+01
   1.660  0.8266E+00  0.5363E+01
   1.670  0.8306E+00  0.5372E+01
   1.680  0.8335E+00  0.5380E+01
   1.690  0.8350E+00  0.5388E+01
   1.700  0.8350E+00  0.5397E+01
   1.710  0.8334E+00  0.5405E+01
   1.720  0.8303E+00  0.5413E+01
   1.730  0.8261E+00  0.5422E+01
   1.740  0.8209E+00  0.5430E+01
   1.750  0.8151E+00  0.5438E+01
   1.760  0.8092E+00  0.5446E+01
   1.770  0.8034E+00  0.5454E+01
   1.780  0.7981E+00  0.5462E+01
   1.790  0.7937E+00  0.5470E+01
   1.800  0.7903E+00  0.5478E+01
   1.810  0.7881E+00  0.5486E+01
   1.820  0.7871E+00  0.5494E+01
   1.830  0.7874E+00  0.5502E+01
   1.840  0.7888E+00  0.5509E+01
   1.850  0.7912E+00  0.5517E+01
   1.860  0.7945E+00  0.5525E+01
   1.870  0.7985E+00  0.5533E+01
   1.880  0.8031E+00  0.5541E+01
   1.890  0.8080E+00  0.5549E+01
   1.900  0.8132E+00  0.5557E+01
   1.910  0.8187E+00  0.5566E+01
   1.920  0.8245E+00  0.5574E+01
   1.930  0.8305E+00  0.5582E+01
   1.940  0.8368E+00  0.5591E+01
   1.950  0.8436E+00  0.5599E+01
   1.960  0.8509E+00  0.5608E+01
   1.970  0.8588E+00  0.5616E+01
   1.980  0.8673E+00  0.5625E+01
   1.990  0.8765E+00  0.5634E+01
   2.000  0.8862E+00  0.5642E+01
   2.010  0.8964E+00  0.5651E+01
   2.020  0.9069E+00  0.5660E+01
   2.030  0.9175E+00  0.5670E+01
   2.040  0.9278E+00  0.5679E+01
   2.050  0.9377E+00  0.5688E+01
   2.060  0.9466E+00  0.5698E+01
   2.070  0.9543E+00  0.5707E+01
   2.080  0.9604E+00  0.5717E+01
   2.090  0.9646E+00  0.5727E+01
   2.100  0.9667E+00  0.5736E+01
   2.110  0.9663E+00  0.5746E+01
   2.120  0.9635E+00  0.5756E+01
   2.130  0.9582E+00  0.5765E+01
   2.140  0.9503E+00  0.5775E+01
   2.150  0.9400E+00  0.5784E+01
   2.160  0.9274E+00  0.5793E+01
   2.170  0.9128E+00  0.5802E+01
   2.180  0.8966E+00  0.5811E+01
   2.190  0.8790E+00  0.5820E+01
   2.200  0.8606E+00  0.5829E+01
   2.210  0.8416E+00  0.5837E+01
   2.220  0.8228E+00  0.5845E+01
   2.230  0.8044E+00  0.5853E+01
   2.240  0.7870E+00  0.5861E+01
   2.250  0.7710E+00  0.5869E+01
   2.260  0.7570E+00  0.5877E+01
   2.270  0.7453E+00  0.5884E+01
   2.280  0.7364E+00  0.5891E+01
   2.290  0.7306E+00  0.5899E+01
   2.300  0.7282E+00  0.5906E+01
   2.310  0.7294E+00  0.5913E+01
   2.320  0.7343E+00  0.5921E+01
   2.330  0.7430E+00  0.5928E+01
   2.340  0.7553E+00  0.5936E+01
   2.350  0.7711E+00  0.5943E+01
   2.360  0.7900E+00  0.5951E+01
   2.370  0.8115E+00  0.5959E+01
   2.380  0.8351E+00  0.5968E+01
   2.390  0.8602E+00  0.5976E+01
   2.400  0.8858E+00  0.5985E+01
   2.410  0.9114E+00  0.5994E+01
   2.420  0.9359E+00  0.6004E+01
   2.430  0.9587E+00  0.6013E+01
   2.440  0.9790E+00  0.6023E+01
   2.450  0.9962E+00  0.6033E+01
   2.460  0.1010E+01  0.6043E+01
   2.470  0.1019E+01  0.6053E+01
   2.480  0.1024E+01  0.6063E+01
   2.490  0.1025E+01  0.6074E+01
   2.500  0.1021E+01  0.6084E+01
   2.510  0.1014E+01  0.6094E+01
   2.520  0.1004E+01  0.6104E+01
   2.530  0.9905E+00  0.6114E+01
   2.540  0.9755E+00  0.6124E+01
   2.550  0.9594E+00  0.6133E+01
   2.560  0.9431E+00  0.6143E+01
   2.570  0.9273E+00  0.6152E+01
   2.580  0.9129E+00  0.6161E+01
   2.590  0.9006E+00  0.6170E+01
   2.600  0.8907E+00  0.6179E+01
   2.610  0.8839E+00  0.6188E+01
   2.620  0.8802E+00  0.6197E+01
   2.630  0.8798E+00  0.6206E+01
   2.640  0.8826E+00  0.6214E+01
   2.650  0.8883E+00  0.6223E+01
   2.660  0.8967E+00  0.6232E+01
   2.670  0.9072E+00  0.6241E+01
   2.680  0.9194E+00  0.6251E+01
   2.690  0.9328E+00  0.6260E+01
   2.700  0.9468E+00  0.6269E+01
   2.710  0.9608E+00  0.6279E+01
   2.720  0.9745E+00  0.6289E+01
   2.730  0.9875E+00  0.6299E+01
   2.740  0.9994E+00  0.6309E+01
   2.750  0.1010E+01  0.6319E+01
   2.760  0.1019E+01  0.6329E+01
   2.770  0.1027E+01  0.6339E+01
   2.780  0.1034E+01  0.6349E+01
   2.790  0.1040E+01  0.6360E+01
   2.800  0.1044E+01  0.6370E+01
   2.810  0.1048E+01  0.6381E+01
   2.820  0.1052E+01  0.6391E+01
   2.830  0.1056E+01  0.6402E+01
   2.840  0.1060E+01  0.6412E+01
   2.850  0.1064E+01  0.6423E+01
   2.860  0.1069E+01  0.6434E+01
   2.870  0.1074E+01  0.6445E+01
   2.880  0.1081E+01  0.6455E+01
   2.890  0.1089E+01  0.6466E+01
   2.900  0.1097E+01  0.6477E+01
   2.910  0.1106E+01  0.6488E+01
   2.920  0.1116E+01  0.6499E+01
   2.930  0.1125E+01  0.6511E+01
   2.940  0.1135E+01  0.6522E+01
   2.950  0.1144E+01  0.6533E+01
   2.960  0.1152E+01  0.6545E+01
   2.970  0.1159E+01  0.6557E+01
   2.980  0.1163E+01  0.6568E+01
   2.990  0.1166E+01  0.6580E+01
   3.000  0.1165E+01  0.6591E+01
   3.010  0.1162E+01  0.6603E+01
   3.020  0.1155E+01  0.6615E+01
   3.030  0.1145E+01  0.6626E+01
   3.040  0.1132E+01  0.6637E+01
   3.050  0.1116E+01  0.6649E+01
   3.060  0.1097E+01  0.6660E+01
   3.070  0.1076E+01  0.6670E+01
   3.080  0.1053E+01  0.6681E+01
   3.090  0.1030E+01  0.6691E+01
   3.100  0.1006E+01  0.6701E+01
   3.110  0.9836E+00  0.6711E+01
   3.120  0.9623E+00  0.6721E+01
   3.130  0.9432E+00  0.6730E+01
   3.140  0.9270E+00  0.6739E+01
   3.150  0.9143E+00  0.6749E+01
   3.160  0.9056E+00  0.6758E+01
   3.170  0.9012E+00  0.6767E+01
   3.180  0.9013E+00  0.6776E+01
   3.190  0.9060E+00  0.6785E+01
   3.200  0.9152E+00  0.6794E+01
   3.210  0.9286E+00  0.6803E+01
   3.220  0.9458E+00  0.6813E+01
   3.230  0.9664E+00  0.6822E+01
   3.240  0.9898E+00  0.6832E+01
   3.250  0.1015E+01  0.6842E+01
   3.260  0.1042E+01  0.6853E+01
   3.270  0.1070E+01  0.6863E+01
   3.280  0.1098E+01  0.6874E+01
   3.290  0.1125E+01  0.6886E+01
   3.300  0.1151E+01  0.6897E+01
   3.310  0.1174E+01  0.6909E+01
   3.320  0.1196E+01  0.6921E+01
   3.330  0.1214E+01  0.6933E+01
   3.340  0.1229E+01  0.6945E+01
   3.350  0.1241E+01  0.6958E+01
   3.360  0.1249E+01  0.6970E+01
   3.370  0.1254E+01  0.6983E+01
   3.380  0.1256E+01  0.6995E+01
   3.390  0.1255E+01  0.7008E+01
   3.400  0.1251E+01  0.7020E+01
   3.410  0.1245E+01  0.7033E+01
   3.420  0.1238E+01  0.7045E+01
   3.430  0.1231E+01  0.7057E+01
   3.440  0.1222E+01  0.7070E+01
   3.450  0.1215E+01  0.7082E+01
   3.460  0.1208E+01  0.7094E+01
   3.470  0.1202E+01  0.7106E+01
   3.480  0.1197E+01  0.7118E+01
   3.490  0.1195E+01  0.7130E+01
   3.500  0.1195E+01  0.7142E+01
   3.510  0.1196E+01  0.7154E+01
   3.520  0.1201E+01  0.7166E+01
   3.530  0.1207E+01  0.7178E+01
   3.540  0.1215E+01  0.7190E+01
   3.550  0.1225E+01  0.7202E+01
   3.560  0.1237E+01  0.7215E+01
   3.570  0.1251E+01  0.7227E+01
   3.580  0.1265E+01  0.7240E+01
   3.590  0.1281E+01  0.7253E+01
   3.600  0.1297E+01  0.7266E+01
   3.610  0.1313E+01  0.7279E+01
   3.620  0.1330E+01  0.7292E+01
   3.630  0.1345E+01  0.7305E+01
   3.640  0.1360E+01  0.7319E+01
   3.650  0.1373E+01  0.7333E+01
   3.660  0.1385E+01  0.7347E+01
   3.670  0.1396E+01  0.7361E+01
   3.680  0.1403E+01  0.7375E+01
   3.690  0.1409E+01  0.7389E+01
   3.700  0.1412E+01  0.7403E+01
   3.710  0.1412E+01  0.7417E+01
   3.720  0.1409E+01  0.7431E+01
   3.730  0.1404E+01  0.7445E+01
   3.740  0.1395E+01  0.7459E+01
   3.750  0.1384E+01  0.7473E+01
   3.760  0.1369E+01  0.7487E+01
   3.770  0.1353E+01  0.7500E+01
   3.780  0.1333E+01  0.7513E+01
   3.790  0.1312E+01  0.7527E+01
   3.800  0.1288E+01  0.7539E+01
   3.810  0.1262E+01  0.7552E+01
   3.820  0.1234E+01  0.7564E+01
   3.830  0.1204E+01  0.7576E+01
   3.840  0.1173E+01  0.7588E+01
   3.850  0.1140E+01  0.7600E+01
   3.860  0.1106E+01  0.7611E+01
   3.870  0.1071E+01  0.7621E+01
   3.880  0.1035E+01  0.7632E+01
   3.890  0.9989E+00  0.7642E+01
   3.900  0.9620E+00  0.7651E+01
   3.910  0.9249E+00  0.7661E+01
   3.920  0.8879E+00  0.7669E+01
   3.930  0.8513E+00  0.7678E+01
   3.940  0.8153E+00  0.7686E+01
   3.950  0.7803E+00  0.7694E+01
   3.960  0.7464E+00  0.7701E+01
   3.970  0.7138E+00  0.7708E+01
   3.980  0.6829E+00  0.7715E+01
   3.990  0.6537E+00  0.7722E+01
   4.000  0.6264E+00  0.7728E+01
   4.010  0.6009E+00  0.7734E+01
   4.020  0.5774E+00  0.7740E+01
   4.030  0.5558E+00  0.7745E+01
   4.040  0.5360E+00  0.7751E+01
   4.050  0.5181E+00  0.7756E+01
   4.060  0.5018E+00  0.7761E+01
   4.070  0.4872E+00  0.7766E+01
   4.080  0.4742E+00  0.7771E+01
   4.090  0.4627E+00  0.7775E+01
   4.100  0.4527E+00  0.7780E+01
   4.110  0.4443E+00  0.7784E+01
   4.120  0.4375E+00  0.7789E+01
   4.130  0.4323E+00  0.7793E+01
   4.140  0.4288E+00  0.7797E+01
   4.150  0.4272E+00  0.7801E+01
   4.160  0.4274E+00  0.7806E+01
   4.170  0.4296E+00  0.7810E+01
   4.180  0.4337E+00  0.7814E+01
   4.190  0.4396E+00  0.7819E+01
   4.200  0.4474E+00  0.7823E+01
   4.210  0.4569E+00  0.7828E+01
   4.220  0.4680E+00  0.7832E+01
   4.230  0.4803E+00  0.7837E+01
   4.240  0.4937E+00  0.7842E+01
   4.250  0.5080E+00  0.7847E+01
   4.260  0.5229E+00  0.7853E+01
   4.270  0.5381E+00  0.7858E+01
   4.280  0.5534E+00  0.7863E+01
   4.290  0.5687E+00  0.7869E+01
   4.300  0.5839E+00  0.7875E+01
   4.310  0.5987E+00  0.7881E+01
   4.320  0.6132E+00  0.7887E+01
   4.330  0.6273E+00  0.7893E+01
   4.340  0.6411E+00  0.7900E+01
   4.350  0.6545E+00  0.7906E+01
   4.360  0.6676E+00  0.7913E+01
   4.370  0.6804E+00  0.7920E+01
   4.380  0.6930E+00  0.7927E+01
   4.390  0.7052E+00  0.7934E+01
   4.400  0.7171E+00  0.7941E+01
   4.410  0.7286E+00  0.7948E+01
   4.420  0.7397E+00  0.7956E+01
   4.430  0.7500E+00  0.7963E+01
   4.440  0.7596E+00  0.7971E+01
   4.450  0.7683E+00  0.7978E+01
   4.460  0.7759E+00  0.7986E+01
   4.470  0.7823E+00  0.7994E+01
   4.480  0.7874E+00  0.8002E+01
   4.490  0.7911E+00  0.8010E+01
   4.500  0.7934E+00  0.8018E+01
   4.510  0.7943E+00  0.8026E+01
   4.520  0.7939E+00  0.8034E+01
   4.530  0.7922E+00  0.8042E+01
   4.540  0.7896E+00  0.8049E+01
   4.550  0.7862E+00  0.8057E+01
   4.560  0.7822E+00  0.8065E+01
   4.570  0.7780E+00  0.8073E+01
   4.580  0.7737E+00  0.8081E+01
   4.590  0.7698E+00  0.8088E+01
   4.600  0.7663E+00  0.8096E+01
   4.610  0.7635E+00  0.8104E+01
   4.620  0.7615E+00  0.8111E+01
   4.630  0.7605E+00  0.8119E+01
   4.640  0.7605E+00  0.8126E+01
   4.650  0.7614E+00  0.8134E+01
   4.660  0.7633E+00  0.8142E+01
   4.670  0.7658E+00  0.8149E+01
   4.680  0.7689E+00  0.8157E+01
   4.690  0.7724E+00  0.8165E+01
   4.700  0.7761E+00  0.8173E+01
   4.710  0.7797E+00  0.8180E+01
   4.720  0.7830E+00  0.8188E+01
   4.730  0.7859E+00  0.8196E+01
   4.740  0.7881E+00  0.8204E+01
   4.750  0.7897E+00  0.8212E+01
   4.760  0.7904E+00  0.8220E+01
   4.770  0.7902E+00  0.8228E+01
   4.780  0.7891E+00  0.8235E+01
   4.790  0.7871E+00  0.8243E+01
   4.800  0.7843E+00  0.8251E+01
   4.810  0.7806E+00  0.8259E+01
   4.820  0.7761E+00  0.8267E+01
   4.830  0.7709E+00  0.8274E+01
   4.840  0.7650E+00  0.8282E+01
   4.850  0.7586E+00  0.8290E+01
   4.860  0.7517E+00  0.8297E+01
   4.870  0.7446E+00  0.8305E+01
   4.880  0.7374E+00  0.8312E+01
   4.890  0.7303E+00  0.8319E+01
   4.900  0.7236E+00  0.8327E+01
   4.910  0.7177E+00  0.8334E+01
   4.920  0.7129E+00  0.8341E+01
   4.930  0.7096E+00  0.8348E+01
   4.940  0.7082E+00  0.8355E+01
   4.950  0.7092E+00  0.8362E+01
   4.960  0.7129E+00  0.8369E+01
   4.970  0.7197E+00  0.8376E+01
   4.980  0.7298E+00  0.8384E+01
   4.990  0.7434E+00  0.8391E+01
   5.000  0.7606E+00  0.8399E+01
   5.010  0.7813E+00  0.8407E+01
   5.020  0.8054E+00  0.8415E+01
   5.030  0.8326E+00  0.8423E+01
   5.040  0.8625E+00  0.8432E+01
   5.050  0.8945E+00  0.8441E+01
   5.060  0.9282E+00  0.8450E+01
   5.070  0.9630E+00  0.8460E+01
   5.080  0.9983E+00  0.8469E+01
   5.090  0.1034E+01  0.8480E+01
   5.100  0.1069E+01  0.8491E+01
   5.110  0.1103E+01  0.8502E+01
   5.120  0.1136E+01  0.8513E+01
   5.130  0.1169E+01  0.8525E+01
   5.140  0.1200E+01  0.8537E+01
   5.150  0.1232E+01  0.8549E+01
   5.160  0.1263E+01  0.8562E+01
   5.170  0.1295E+01  0.8574E+01
   5.180  0.1328E+01  0.8588E+01
   5.190  0.1363E+01  0.8601E+01
   5.200  0.1401E+01  0.8615E+01
   5.210  0.1442E+01  0.8630E+01
   5.220  0.1486E+01  0.8645E+01
   5.230  0.1534E+01  0.8660E+01
   5.240  0.1587E+01  0.8676E+01
   5.250  0.1643E+01  0.8692E+01
   5.260  0.1704E+01  0.8709E+01
   5.270  0.1768E+01  0.8727E+01
   5.280  0.1835E+01  0.8745E+01
   5.290  0.1903E+01  0.8764E+01
   5.300  0.1973E+01  0.8784E+01
   5.310  0.2042E+01  0.8805E+01
   5.320  0.2110E+01  0.8826E+01
   5.330  0.2175E+01  0.8847E+01
   5.340  0.2236E+01  0.8870E+01
   5.350  0.2292E+01  0.8893E+01
   5.360  0.2340E+01  0.8916E+01
   5.370  0.2381E+01  0.8940E+01
   5.380  0.2413E+01  0.8964E+01
   5.390  0.2435E+01  0.8988E+01
   5.400  0.2448E+01  0.9013E+01
   5.410  0.2449E+01  0.9037E+01
   5.420  0.2440E+01  0.9062E+01
   5.430  0.2420E+01  0.9086E+01
   5.440  0.2390E+01  0.9110E+01
   5.450  0.2350E+01  0.9133E+01
   5.460  0.2301E+01  0.9156E+01
   5.470  0.2243E+01  0.9179E+01
   5.480  0.2178E+01  0.9201E+01
   5.490  0.2107E+01  0.9222E+01
   5.500  0.2030E+01  0.9242E+01
   5.510  0.1951E+01  0.9261E+01
   5.520  0.1868E+01  0.9280E+01
   5.530  0.1786E+01  0.9298E+01
   5.540  0.1703E+01  0.9315E+01
   5.550  0.1623E+01  0.9331E+01
   5.560  0.1545E+01  0.9347E+01
   5.570  0.1473E+01  0.9361E+01
   5.580  0.1405E+01  0.9376E+01
   5.590  0.1343E+01  0.9389E+01
   5.600  0.1289E+01  0.9402E+01
   5.610  0.1241E+01  0.9414E+01
   5.620  0.1201E+01  0.9426E+01
   5.630  0.1168E+01  0.9438E+01
   5.640  0.1143E+01  0.9449E+01
   5.650  0.1124E+01  0.9461E+01
   5.660  0.1112E+01  0.9472E+01
   5.670  0.1105E+01  0.9483E+01
   5.680  0.1103E+01  0.9494E+01
   5.690  0.1106E+01  0.9505E+01
   5.700  0.1111E+01  0.9516E+01
   5.710  0.1120E+01  0.9527E+01
   5.720  0.1130E+01  0.9538E+01
   5.730  0.1141E+01  0.9550E+01
   5.740  0.1153E+01  0.9561E+01
   5.750  0.1164E+01  0.9573E+01
   5.760  0.1176E+01  0.9585E+01
   5.770  0.1186E+01  0.9597E+01
   5.780  0.1196E+01  0.9609E+01
   5.790  0.1205E+01  0.9621E+01
   5.800  0.1214E+01  0.9633E+01
   5.810  0.1222E+01  0.9645E+01
   5.820  0.1230E+01  0.9657E+01
   5.830  0.1239E+01  0.9670E+01
   5.840  0.1248E+01  0.9682E+01
   5.850  0.1257E+01  0.9695E+01
   5.860  0.1268E+01  0.9707E+01
   5.870  0.1280E+01  0.9720E+01
   5.880  0.1293E+01  0.9733E+01
   5.890  0.1308E+01  0.9746E+01
   5.900  0.1323E+01  0.9760E+01
   5.910  0.1339E+01  0.9773E+01
   5.920  0.1356E+01  0.9786E+01
   5.930  0.1372E+01  0.9800E+01
   5.940  0.1388E+01  0.9814E+01
   5.950  0.1402E+01  0.9828E+01
   5.960  0.1413E+01  0.9842E+01
   5.970  0.1423E+01  0.9856E+01
   5.980  0.1428E+01  0.9871E+01
   5.990  0.1430E+01  0.9885E+01
   6.000  0.1427E+01  0.9899E+01
   6.010  0.1420E+01  0.9913E+01
   6.020  0.1408E+01  0.9928E+01
   6.030  0.1391E+01  0.9941E+01
   6.040  0.1370E+01  0.9955E+01
   6.050  0.1344E+01  0.9969E+01
   6.060  0.1315E+01  0.9982E+01
   6.070  0.1282E+01  0.9995E+01
   6.080  0.1246E+01  0.1001E+02
   6.090  0.1208E+01  0.1002E+02
   6.100  0.1169E+01  0.1003E+02
   6.110  0.1129E+01  0.1004E+02
   6.120  0.1089E+01  0.1005E+02
   6.130  0.1051E+01  0.1006E+02
   6.140  0.1013E+01  0.1007E+02
   6.150  0.9785E+00  0.1008E+02
   6.160  0.9466E+00  0.1009E+02
   6.170  0.9182E+00  0.1010E+02
   6.180  0.8939E+00  0.1011E+02
   6.190  0.8741E+00  0.1012E+02
   6.200  0.8591E+00  0.1013E+02
   6.210  0.8493E+00  0.1014E+02
   6.220  0.8449E+00  0.1015E+02
   6.230  0.8458E+00  0.1015E+02
   6.240  0.8521E+00  0.1016E+02
   6.250  0.8636E+00  0.1017E+02
   6.260  0.8800E+00  0.1018E+02
   6.270  0.9009E+00  0.1019E+02
   6.280  0.9257E+00  0.1020E+02
   6.290  0.9538E+00  0.1021E+02
   6.300  0.9846E+00  0.1022E+02
   6.310  0.1017E+01  0.1023E+02
   6.320  0.1051E+01  0.1024E+02
   6.330  0.1085E+01  0.1025E+02
   6.340  0.1118E+01  0.1026E+02
   6.350  0.1150E+01  0.1027E+02
   6.360  0.1181E+01  0.1028E+02
   6.370  0.1209E+01  0.1030E+02
   6.380  0.1235E+01  0.1031E+02
   6.390  0.1257E+01  0.1032E+02
   6.400  0.1277E+01  0.1033E+02
   6.410  0.1293E+01  0.1035E+02
   6.420  0.1307E+01  0.1036E+02
   6.430  0.1318E+01  0.1037E+02
   6.440  0.1327E+01  0.1039E+02
   6.450  0.1334E+01  0.1040E+02
   6.460  0.1339E+01  0.1041E+02
   6.470  0.1343E+01  0.1043E+02
   6.480  0.1346E+01  0.1044E+02
   6.490  0.1349E+01  0.1045E+02
   6.500  0.1352E+01  0.1047E+02
   6.510  0.1354E+01  0.1048E+02
   6.520  0.1357E+01  0.1049E+02
   6.530  0.1360E+01  0.1051E+02
   6.540  0.1363E+01  0.1052E+02
   6.550  0.1366E+01  0.1053E+02
   6.560  0.1369E+01  0.1055E+02
   6.570  0.1371E+01  0.1056E+02
   6.580  0.1372E+01  0.1058E+02
   6.590  0.1372E+01  0.1059E+02
   6.600  0.1371E+01  0.1060E+02
   6.610  0.1368E+01  0.1062E+02
   6.620  0.1363E+01  0.1063E+02
   6.630  0.1357E+01  0.1064E+02
   6.640  0.1348E+01  0.1066E+02
   6.650  0.1338E+01  0.1067E+02
   6.660  0.1326E+01  0.1068E+02
   6.670  0.1313E+01  0.1070E+02
   6.680  0.1299E+01  0.1071E+02
   6.690  0.1285E+01  0.1072E+02
   6.700  0.1271E+01  0.1074E+02
   6.710  0.1258E+01  0.1075E+02
   6.720  0.1246E+01  0.1076E+02
   6.730  0.1237E+01  0.1077E+02
   6.740  0.1231E+01  0.1079E+02
   6.750  0.1228E+01  0.1080E+02
   6.760  0.1229E+01  0.1081E+02
   6.770  0.1234E+01  0.1082E+02
   6.780  0.1244E+01  0.1083E+02
   6.790  0.1260E+01  0.1085E+02
   6.800  0.1280E+01  0.1086E+02
   6.810  0.1306E+01  0.1087E+02
   6.820  0.1337E+01  0.1089E+02
   6.830  0.1373E+01  0.1090E+02
   6.840  0.1414E+01  0.1091E+02
   6.850  0.1460E+01  0.1093E+02
   6.860  0.1509E+01  0.1094E+02
   6.870  0.1562E+01  0.1096E+02
   6.880  0.1618E+01  0.1098E+02
   6.890  0.1676E+01  0.1099E+02
   6.900  0.1736E+01  0.1101E+02
   6.910  0.1798E+01  0.1103E+02
   6.920  0.1859E+01  0.1105E+02
   6.930  0.1921E+01  0.1107E+02
   6.940  0.1982E+01  0.1109E+02
   6.950  0.2041E+01  0.1111E+02
   6.960  0.2098E+01  0.1113E+02
   6.970  0.2152E+01  0.1115E+02
   6.980  0.2203E+01  0.1117E+02
   6.990  0.2250E+01  0.1119E+02
   7.000  0.2293E+01  0.1122E+02
   7.010  0.2332E+01  0.1124E+02
   7.020  0.2366E+01  0.1126E+02
   7.030  0.2395E+01  0.1129E+02
   7.040  0.2419E+01  0.1131E+02
   7.050  0.2438E+01  0.1134E+02
   7.060  0.2452E+01  0.1136E+02
   7.070  0.2461E+01  0.1138E+02
   7.080  0.2466E+01  0.1141E+02
   7.090  0.2466E+01  0.1143E+02
   7.100  0.2463E+01  0.1146E+02
   7.110  0.2456E+01  0.1148E+02
   7.120  0.2446E+01  0.1151E+02
   7.130  0.2434E+01  0.1153E+02
   7.140  0.2420E+01  0.1156E+02
   7.150  0.2405E+01  0.1158E+02
   7.160  0.2388E+01  0.1160E+02
   7.170  0.2370E+01  0.1163E+02
   7.180  0.2352E+01  0.1165E+02
   7.190  0.2334E+01  0.1167E+02
   7.200  0.2314E+01  0.1170E+02
   7.210  0.2295E+01  0.1172E+02
   7.220  0.2274E+01  0.1174E+02
   7.230  0.2253E+01  0.1177E+02
   7.240  0.2231E+01  0.1179E+02
   7.250  0.2207E+01  0.1181E+02
   7.260  0.2182E+01  0.1183E+02
   7.270  0.2155E+01  0.1185E+02
   7.280  0.2126E+01  0.1187E+02
   7.290  0.2096E+01  0.1190E+02
   7.300  0.2063E+01  0.1192E+02
   7.310  0.2028E+01  0.1194E+02
   7.320  0.1992E+01  0.1196E+02
   7.330  0.1955E+01  0.1198E+02
   7.340  0.1917E+01  0.1200E+02
   7.350  0.1879E+01  0.1201E+02
   7.360  0.1841E+01  0.1203E+02
   7.370  0.1805E+01  0.1205E+02
   7.380  0.1769E+01  0.1207E+02
   7.390  0.1737E+01  0.1209E+02
   7.400  0.1707E+01  0.1210E+02
   7.410  0.1681E+01  0.1212E+02
   7.420  0.1659E+01  0.1214E+02
   7.430  0.1642E+01  0.1215E+02
   7.440  0.1630E+01  0.1217E+02
   7.450  0.1623E+01  0.1219E+02
   7.460  0.1622E+01  0.1220E+02
   7.470  0.1628E+01  0.1222E+02
   7.480  0.1640E+01  0.1223E+02
   7.490  0.1658E+01  0.1225E+02
   7.500  0.1683E+01  0.1227E+02
   7.510  0.1714E+01  0.1228E+02
   7.520  0.1751E+01  0.1230E+02
   7.530  0.1795E+01  0.1232E+02
   7.540  0.1844E+01  0.1234E+02
   7.550  0.1898E+01  0.1236E+02
   7.560  0.1958E+01  0.1238E+02
   7.570  0.2021E+01  0.1240E+02
   7.580  0.2088E+01  0.1242E+02
   7.590  0.2157E+01  0.1244E+02
   7.600  0.2228E+01  0.1246E+02
   7.610  0.2299E+01  0.1248E+02
   7.620  0.2370E+01  0.1251E+02
   7.630  0.2440E+01  0.1253E+02
   7.640  0.2507E+01  0.1256E+02
   7.650  0.2570E+01  0.1258E+02
   7.660  0.2629E+01  0.1261E+02
   7.670  0.2682E+01  0.1264E+02
   7.680  0.2730E+01  0.1266E+02
   7.690  0.2772E+01  0.1269E+02
   7.700  0.2808E+01  0.1272E+02
   7.710  0.2837E+01  0.1275E+02
   7.720  0.2861E+01  0.1278E+02
   7.730  0.2879E+01  0.1281E+02
   7.740  0.2893E+01  0.1283E+02
   7.750  0.2901E+01  0.1286E+02
   7.760  0.2907E+01  0.1289E+02
   7.770  0.2909E+01  0.1292E+02
   7.780  0.2909E+01  0.1295E+02
   7.790  0.2907E+01  0.1298E+02
   7.800  0.2904E+01  0.1301E+02
   7.810  0.2900E+01  0.1304E+02
   7.820  0.2894E+01  0.1307E+02
   7.830  0.2887E+01  0.1310E+02
   7.840  0.2879E+01  0.1312E+02
   7.850  0.2869E+01  0.1315E+02
   7.860  0.2857E+01  0.1318E+02
   7.870  0.2843E+01  0.1321E+02
   7.880  0.2826E+01  0.1324E+02
   7.890  0.2806E+01  0.1327E+02
   7.900  0.2783E+01  0.1329E+02
   7.910  0.2756E+01  0.1332E+02
   7.920  0.2725E+01  0.1335E+02
   7.930  0.2692E+01  0.1338E+02
   7.940  0.2655E+01  0.1340E+02
   7.950  0.2615E+01  0.1343E+02
   7.960  0.2572E+01  0.1345E+02
   7.970  0.2528E+01  0.1348E+02
   7.980  0.2482E+01  0.1350E+02
   7.990  0.2436E+01  0.1353E+02
   8.000  0.2389E+01  0.1355E+02
   8.010  0.2342E+01  0.1358E+02
   8.020  0.2297E+01  0.1360E+02
   8.030  0.2252E+01  0.1362E+02
   8.040  0.2210E+01  0.1364E+02
   8.050  0.2170E+01  0.1367E+02
   8.060  0.2132E+01  0.1369E+02
   8.070  0.2098E+01  0.1371E+02
   8.080  0.2066E+01  0.1373E+02
   8.090  0.2038E+01  0.1375E+02
   8.100  0.2014E+01  0.1377E+02
   8.110  0.1992E+01  0.1379E+02
   8.120  0.1974E+01  0.1381E+02
   8.130  0.1959E+01  0.1383E+02
   8.140  0.1946E+01  0.1385E+02
   8.150  0.1935E+01  0.1387E+02
   8.160  0.1927E+01  0.1389E+02
   8.170  0.1920E+01  0.1391E+02
   8.180  0.1913E+01  0.1392E+02
   8.190  0.1908E+01  0.1394E+02
   8.200  0.1903E+01  0.1396E+02
   8.210  0.1897E+01  0.1398E+02
   8.220  0.1892E+01  0.1400E+02
   8.230  0.1887E+01  0.1402E+02
   8.240  0.1881E+01  0.1404E+02
   8.250  0.1875E+01  0.1406E+02
   8.260  0.1869E+01  0.1408E+02
   8.270  0.1863E+01  0.1409E+02
   8.280  0.1857E+01  0.1411E+02
   8.290  0.1852E+01  0.1413E+02
   8.300  0.1848E+01  0.1415E+02
   8.310  0.1845E+01  0.1417E+02
   8.320  0.1844E+01  0.1419E+02
   8.330  0.1845E+01  0.1421E+02
   8.340  0.1849E+01  0.1422E+02
   8.350  0.1854E+01  0.1424E+02
   8.360  0.1863E+01  0.1426E+02
   8.370  0.1875E+01  0.1428E+02
   8.380  0.1890E+01  0.1430E+02
   8.390  0.1908E+01  0.1432E+02
   8.400  0.1930E+01  0.1434E+02
   8.410  0.1955E+01  0.1436E+02
   8.420  0.1984E+01  0.1438E+02
   8.430  0.2015E+01  0.1440E+02
   8.440  0.2048E+01  0.1442E+02
   8.450  0.2084E+01  0.1444E+02
   8.460  0.2121E+01  0.1446E+02
   8.470  0.2158E+01  0.1448E+02
   8.480  0.2195E+01  0.1450E+02
   8.490  0.2231E+01  0.1453E+02
   8.500  0.2266E+01  0.1455E+02
   8.510  0.2298E+01  0.1457E+02
   8.520  0.2327E+01  0.1459E+02
   8.530  0.2352E+01  0.1462E+02
   8.540  0.2374E+01  0.1464E+02
   8.550  0.2391E+01  0.1467E+02
   8.560  0.2404E+01  0.1469E+02
   8.570  0.2414E+01  0.1471E+02
   8.580  0.2419E+01  0.1474E+02
   8.590  0.2421E+01  0.1476E+02
   8.600  0.2421E+01  0.1479E+02
   8.610  0.2417E+01  0.1481E+02
   8.620  0.2412E+01  0.1483E+02
   8.630  0.2406E+01  0.1486E+02
   8.640  0.2398E+01  0.1488E+02
   8.650  0.2390E+01  0.1491E+02
   8.660  0.2382E+01  0.1493E+02
   8.670  0.2374E+01  0.1495E+02
   8.680  0.2367E+01  0.1498E+02
   8.690  0.2360E+01  0.1500E+02
   8.700  0.2353E+01  0.1502E+02
   8.710  0.2347E+01  0.1505E+02
   8.720  0.2341E+01  0.1507E+02
   8.730  0.2334E+01  0.1509E+02
   8.740  0.2327E+01  0.1512E+02
   8.750  0.2319E+01  0.1514E+02
   8.760  0.2310E+01  0.1516E+02
   8.770  0.2299E+01  0.1519E+02
   8.780  0.2285E+01  0.1521E+02
   8.790  0.2270E+01  0.1523E+02
   8.800  0.2251E+01  0.1526E+02
   8.810  0.2230E+01  0.1528E+02
   8.820  0.2205E+01  0.1530E+02
   8.830  0.2177E+01  0.1532E+02
   8.840  0.2147E+01  0.1534E+02
   8.850  0.2114E+01  0.1536E+02
   8.860  0.2080E+01  0.1538E+02
   8.870  0.2044E+01  0.1541E+02
   8.880  0.2007E+01  0.1543E+02
   8.890  0.1971E+01  0.1545E+02
   8.900  0.1936E+01  0.1546E+02
   8.910  0.1902E+01  0.1548E+02
   8.920  0.1871E+01  0.1550E+02
   8.930  0.1842E+01  0.1552E+02
   8.940  0.1818E+01  0.1554E+02
   8.950  0.1797E+01  0.1556E+02
   8.960  0.1780E+01  0.1557E+02
   8.970  0.1767E+01  0.1559E+02
   8.980  0.1758E+01  0.1561E+02
   8.990  0.1752E+01  0.1563E+02
   9.000  0.1750E+01  0.1564E+02
   9.010  0.1750E+01  0.1566E+02
   9.020  0.1752E+01  0.1568E+02
   9.030  0.1756E+01  0.1570E+02
   9.040  0.1762E+01  0.1572E+02
   9.050  0.1768E+01  0.1573E+02
   9.060  0.1774E+01  0.1575E+02
   9.070  0.1782E+01  0.1577E+02
   9.080  0.1789E+01  0.1579E+02
   9.090  0.1797E+01  0.1580E+02
   9.100  0.1806E+01  0.1582E+02
   9.110  0.1815E+01  0.1584E+02
   9.120  0.1826E+01  0.1586E+02
   9.130  0.1838E+01  0.1588E+02
   9.140  0.1852E+01  0.1590E+02
   9.150  0.1868E+01  0.1591E+02
   9.160  0.1887E+01  0.1593E+02
   9.170  0.1908E+01  0.1595E+02
   9.180  0.1930E+01  0.1597E+02
   9.190  0.1955E+01  0.1599E+02
   9.200  0.1982E+01  0.1601E+02
   9.210  0.2009E+01  0.1603E+02
   9.220  0.2036E+01  0.1605E+02
   9.230  0.2063E+01  0.1607E+02
   9.240  0.2089E+01  0.1609E+02
   9.250  0.2112E+01  0.1611E+02
   9.260  0.2131E+01  0.1614E+02
   9.270  0.2147E+01  0.1616E+02
   9.280  0.2158E+01  0.1618E+02
   9.290  0.2163E+01  0.1620E+02
   9.300  0.2162E+01  0.1622E+02
   9.310  0.2156E+01  0.1624E+02
   9.320  0.2143E+01  0.1626E+02
   9.330  0.2125E+01  0.1629E+02
   9.340  0.2101E+01  0.1631E+02
   9.350  0.2072E+01  0.1633E+02
   9.360  0.2038E+01  0.1635E+02
   9.370  0.2001E+01  0.1637E+02
   9.380  0.1961E+01  0.1639E+02
   9.390  0.1918E+01  0.1641E+02
   9.400  0.1873E+01  0.1643E+02
   9.410  0.1828E+01  0.1644E+02
   9.420  0.1782E+01  0.1646E+02
   9.430  0.1736E+01  0.1648E+02
   9.440  0.1690E+01  0.1650E+02
   9.450  0.1645E+01  0.1651E+02
   9.460  0.1601E+01  0.1653E+02
   9.470  0.1559E+01  0.1654E+02
   9.480  0.1517E+01  0.1656E+02
   9.490  0.1478E+01  0.1657E+02
   9.500  0.1441E+01  0.1659E+02
   9.510  0.1407E+01  0.1660E+02
   9.520  0.1376E+01  0.1662E+02
   9.530  0.1348E+01  0.1663E+02
   9.540  0.1325E+01  0.1664E+02
   9.550  0.1306E+01  0.1666E+02
   9.560  0.1292E+01  0.1667E+02
   9.570  0.1285E+01  0.1668E+02
   9.580  0.1284E+01  0.1669E+02
   9.590  0.1291E+01  0.1671E+02
   9.600  0.1305E+01  0.1672E+02
   9.610  0.1327E+01  0.1673E+02
   9.620  0.1358E+01  0.1675E+02
   9.630  0.1397E+01  0.1676E+02
   9.640  0.1445E+01  0.1678E+02
   9.650  0.1501E+01  0.1679E+02
   9.660  0.1565E+01  0.1681E+02
   9.670  0.1636E+01  0.1682E+02
   9.680  0.1714E+01  0.1684E+02
   9.690  0.1798E+01  0.1686E+02
   9.700  0.1885E+01  0.1688E+02
   9.710  0.1976E+01  0.1690E+02
   9.720  0.2069E+01  0.1692E+02
   9.730  0.2162E+01  0.1694E+02
   9.740  0.2253E+01  0.1696E+02
   9.750  0.2342E+01  0.1698E+02
   9.760  0.2426E+01  0.1701E+02
   9.770  0.2505E+01  0.1703E+02
   9.780  0.2576E+01  0.1706E+02
   9.790  0.2639E+01  0.1709E+02
   9.800  0.2694E+01  0.1711E+02
   9.810  0.2738E+01  0.1714E+02
   9.820  0.2772E+01  0.1717E+02
   9.830  0.2796E+01  0.1720E+02
   9.840  0.2811E+01  0.1722E+02
   9.850  0.2815E+01  0.1725E+02
   9.860  0.2811E+01  0.1728E+02
   9.870  0.2799E+01  0.1731E+02
   9.880  0.2780E+01  0.1734E+02
   9.890  0.2756E+01  0.1736E+02
   9.900  0.2728E+01  0.1739E+02
   9.910  0.2698E+01  0.1742E+02
   9.920  0.2665E+01  0.1744E+02
   9.930  0.2633E+01  0.1747E+02
   9.940  0.2601E+01  0.1750E+02
   9.950  0.2571E+01  0.1752E+02
   9.960  0.2542E+01  0.1755E+02
   9.970  0.2516E+01  0.1757E+02
   9.980  0.2493E+01  0.1760E+02
   9.990  0.2472E+01  0.1762E+02
  10.000  0.2453E+01  0.1765E+02
