#  E (eV)   dos(E)     Int dos(E) EFermi =   -1.145 eV
 -10.000  0.4315E+00  0.4315E-02
  -9.990  0.4273E+00  0.8587E-02
  -9.980  0.4245E+00  0.1283E-01
  -9.970  0.4233E+00  0.1707E-01
  -9.960  0.4239E+00  0.2130E-01
  -9.950  0.4264E+00  0.2557E-01
  -9.940  0.4307E+00  0.2988E-01
  -9.930  0.4367E+00  0.3424E-01
  -9.920  0.4442E+00  0.3869E-01
  -9.910  0.4530E+00  0.4321E-01
  -9.900  0.4626E+00  0.4784E-01
  -9.890  0.4728E+00  0.5257E-01
  -9.880  0.4831E+00  0.5740E-01
  -9.870  0.4931E+00  0.6233E-01
  -9.860  0.5024E+00  0.6736E-01
  -9.850  0.5105E+00  0.7246E-01
  -9.840  0.5171E+00  0.7763E-01
  -9.830  0.5219E+00  0.8285E-01
  -9.820  0.5247E+00  0.8810E-01
  -9.810  0.5254E+00  0.9335E-01
  -9.800  0.5239E+00  0.9859E-01
  -9.790  0.5203E+00  0.1038E+00
  -9.780  0.5147E+00  0.1089E+00
  -9.770  0.5075E+00  0.1140E+00
  -9.760  0.4988E+00  0.1190E+00
  -9.750  0.4891E+00  0.1239E+00
  -9.740  0.4789E+00  0.1287E+00
  -9.730  0.4686E+00  0.1334E+00
  -9.720  0.4586E+00  0.1380E+00
  -9.710  0.4494E+00  0.1424E+00
  -9.700  0.4414E+00  0.1469E+00
  -9.690  0.4349E+00  0.1512E+00
  -9.680  0.4304E+00  0.1555E+00
  -9.670  0.4278E+00  0.1598E+00
  -9.660  0.4274E+00  0.1641E+00
  -9.650  0.4292E+00  0.1684E+00
  -9.640  0.4330E+00  0.1727E+00
  -9.630  0.4388E+00  0.1771E+00
  -9.620  0.4462E+00  0.1815E+00
  -9.610  0.4550E+00  0.1861E+00
  -9.600  0.4647E+00  0.1907E+00
  -9.590  0.4751E+00  0.1955E+00
  -9.580  0.4857E+00  0.2003E+00
  -9.570  0.4961E+00  0.2053E+00
  -9.560  0.5060E+00  0.2104E+00
  -9.550  0.5149E+00  0.2155E+00
  -9.540  0.5227E+00  0.2207E+00
  -9.530  0.5291E+00  0.2260E+00
  -9.520  0.5339E+00  0.2314E+00
  -9.510  0.5370E+00  0.2367E+00
  -9.500  0.5384E+00  0.2421E+00
  -9.490  0.5381E+00  0.2475E+00
  -9.480  0.5363E+00  0.2529E+00
  -9.470  0.5330E+00  0.2582E+00
  -9.460  0.5285E+00  0.2635E+00
  -9.450  0.5230E+00  0.2687E+00
  -9.440  0.5167E+00  0.2739E+00
  -9.430  0.5100E+00  0.2790E+00
  -9.420  0.5032E+00  0.2840E+00
  -9.410  0.4964E+00  0.2890E+00
  -9.400  0.4900E+00  0.2939E+00
  -9.390  0.4842E+00  0.2987E+00
  -9.380  0.4793E+00  0.3035E+00
  -9.370  0.4753E+00  0.3083E+00
  -9.360  0.4724E+00  0.3130E+00
  -9.350  0.4707E+00  0.3177E+00
  -9.340  0.4702E+00  0.3224E+00
  -9.330  0.4709E+00  0.3271E+00
  -9.320  0.4727E+00  0.3318E+00
  -9.310  0.4755E+00  0.3366E+00
  -9.300  0.4792E+00  0.3414E+00
  -9.290  0.4836E+00  0.3462E+00
  -9.280  0.4885E+00  0.3511E+00
  -9.270  0.4938E+00  0.3560E+00
  -9.260  0.4992E+00  0.3610E+00
  -9.250  0.5047E+00  0.3661E+00
  -9.240  0.5099E+00  0.3712E+00
  -9.230  0.5149E+00  0.3763E+00
  -9.220  0.5195E+00  0.3815E+00
  -9.210  0.5236E+00  0.3868E+00
  -9.200  0.5272E+00  0.3920E+00
  -9.190  0.5303E+00  0.3973E+00
  -9.180  0.5328E+00  0.4027E+00
  -9.170  0.5349E+00  0.4080E+00
  -9.160  0.5365E+00  0.4134E+00
  -9.150  0.5377E+00  0.4187E+00
  -9.140  0.5385E+00  0.4241E+00
  -9.130  0.5390E+00  0.4295E+00
  -9.120  0.5393E+00  0.4349E+00
  -9.110  0.5393E+00  0.4403E+00
  -9.100  0.5392E+00  0.4457E+00
  -9.090  0.5389E+00  0.4511E+00
  -9.080  0.5386E+00  0.4565E+00
  -9.070  0.5383E+00  0.4619E+00
  -9.060  0.5380E+00  0.4672E+00
  -9.050  0.5378E+00  0.4726E+00
  -9.040  0.5379E+00  0.4780E+00
  -9.030  0.5382E+00  0.4834E+00
  -9.020  0.5389E+00  0.4888E+00
  -9.010  0.5402E+00  0.4942E+00
  -9.000  0.5421E+00  0.4996E+00
  -8.990  0.5448E+00  0.5050E+00
  -8.980  0.5483E+00  0.5105E+00
  -8.970  0.5529E+00  0.5161E+00
  -8.960  0.5584E+00  0.5216E+00
  -8.950  0.5651E+00  0.5273E+00
  -8.940  0.5728E+00  0.5330E+00
  -8.930  0.5816E+00  0.5388E+00
  -8.920  0.5914E+00  0.5447E+00
  -8.910  0.6021E+00  0.5508E+00
  -8.900  0.6137E+00  0.5569E+00
  -8.890  0.6259E+00  0.5632E+00
  -8.880  0.6387E+00  0.5695E+00
  -8.870  0.6518E+00  0.5761E+00
  -8.860  0.6652E+00  0.5827E+00
  -8.850  0.6787E+00  0.5895E+00
  -8.840  0.6921E+00  0.5964E+00
  -8.830  0.7053E+00  0.6035E+00
  -8.820  0.7182E+00  0.6107E+00
  -8.810  0.7308E+00  0.6180E+00
  -8.800  0.7429E+00  0.6254E+00
  -8.790  0.7545E+00  0.6329E+00
  -8.780  0.7657E+00  0.6406E+00
  -8.770  0.7763E+00  0.6484E+00
  -8.760  0.7863E+00  0.6562E+00
  -8.750  0.7959E+00  0.6642E+00
  -8.740  0.8049E+00  0.6722E+00
  -8.730  0.8135E+00  0.6804E+00
  -8.720  0.8217E+00  0.6886E+00
  -8.710  0.8294E+00  0.6969E+00
  -8.700  0.8367E+00  0.7052E+00
  -8.690  0.8437E+00  0.7137E+00
  -8.680  0.8504E+00  0.7222E+00
  -8.670  0.8567E+00  0.7308E+00
  -8.660  0.8628E+00  0.7394E+00
  -8.650  0.8684E+00  0.7481E+00
  -8.640  0.8737E+00  0.7568E+00
  -8.630  0.8785E+00  0.7656E+00
  -8.620  0.8829E+00  0.7744E+00
  -8.610  0.8867E+00  0.7833E+00
  -8.600  0.8899E+00  0.7922E+00
  -8.590  0.8923E+00  0.8011E+00
  -8.580  0.8940E+00  0.8100E+00
  -8.570  0.8949E+00  0.8190E+00
  -8.560  0.8949E+00  0.8279E+00
  -8.550  0.8941E+00  0.8369E+00
  -8.540  0.8926E+00  0.8458E+00
  -8.530  0.8904E+00  0.8547E+00
  -8.520  0.8876E+00  0.8636E+00
  -8.510  0.8846E+00  0.8724E+00
  -8.500  0.8813E+00  0.8813E+00
  -8.490  0.8781E+00  0.8900E+00
  -8.480  0.8753E+00  0.8988E+00
  -8.470  0.8730E+00  0.9075E+00
  -8.460  0.8716E+00  0.9162E+00
  -8.450  0.8711E+00  0.9249E+00
  -8.440  0.8718E+00  0.9337E+00
  -8.430  0.8739E+00  0.9424E+00
  -8.420  0.8772E+00  0.9512E+00
  -8.410  0.8820E+00  0.9600E+00
  -8.400  0.8881E+00  0.9689E+00
  -8.390  0.8953E+00  0.9778E+00
  -8.380  0.9036E+00  0.9869E+00
  -8.370  0.9127E+00  0.9960E+00
  -8.360  0.9224E+00  0.1005E+01
  -8.350  0.9324E+00  0.1015E+01
  -8.340  0.9424E+00  0.1024E+01
  -8.330  0.9522E+00  0.1033E+01
  -8.320  0.9615E+00  0.1043E+01
  -8.310  0.9700E+00  0.1053E+01
  -8.300  0.9777E+00  0.1063E+01
  -8.290  0.9843E+00  0.1072E+01
  -8.280  0.9897E+00  0.1082E+01
  -8.270  0.9939E+00  0.1092E+01
  -8.260  0.9969E+00  0.1102E+01
  -8.250  0.9986E+00  0.1112E+01
  -8.240  0.9993E+00  0.1122E+01
  -8.230  0.9990E+00  0.1132E+01
  -8.220  0.9979E+00  0.1142E+01
  -8.210  0.9962E+00  0.1152E+01
  -8.200  0.9942E+00  0.1162E+01
  -8.190  0.9920E+00  0.1172E+01
  -8.180  0.9901E+00  0.1182E+01
  -8.170  0.9885E+00  0.1192E+01
  -8.160  0.9876E+00  0.1202E+01
  -8.150  0.9875E+00  0.1212E+01
  -8.140  0.9885E+00  0.1221E+01
  -8.130  0.9905E+00  0.1231E+01
  -8.120  0.9938E+00  0.1241E+01
  -8.110  0.9982E+00  0.1251E+01
  -8.100  0.1004E+01  0.1261E+01
  -8.090  0.1011E+01  0.1271E+01
  -8.080  0.1019E+01  0.1282E+01
  -8.070  0.1027E+01  0.1292E+01
  -8.060  0.1037E+01  0.1302E+01
  -8.050  0.1047E+01  0.1313E+01
  -8.040  0.1058E+01  0.1323E+01
  -8.030  0.1069E+01  0.1334E+01
  -8.020  0.1081E+01  0.1345E+01
  -8.010  0.1093E+01  0.1356E+01
  -8.000  0.1105E+01  0.1367E+01
  -7.990  0.1118E+01  0.1378E+01
  -7.980  0.1131E+01  0.1389E+01
  -7.970  0.1144E+01  0.1401E+01
  -7.960  0.1157E+01  0.1412E+01
  -7.950  0.1171E+01  0.1424E+01
  -7.940  0.1185E+01  0.1436E+01
  -7.930  0.1199E+01  0.1448E+01
  -7.920  0.1214E+01  0.1460E+01
  -7.910  0.1228E+01  0.1472E+01
  -7.900  0.1242E+01  0.1485E+01
  -7.890  0.1256E+01  0.1497E+01
  -7.880  0.1269E+01  0.1510E+01
  -7.870  0.1282E+01  0.1523E+01
  -7.860  0.1293E+01  0.1536E+01
  -7.850  0.1303E+01  0.1549E+01
  -7.840  0.1312E+01  0.1562E+01
  -7.830  0.1320E+01  0.1575E+01
  -7.820  0.1326E+01  0.1588E+01
  -7.810  0.1330E+01  0.1602E+01
  -7.800  0.1333E+01  0.1615E+01
  -7.790  0.1333E+01  0.1628E+01
  -7.780  0.1333E+01  0.1642E+01
  -7.770  0.1330E+01  0.1655E+01
  -7.760  0.1325E+01  0.1668E+01
  -7.750  0.1319E+01  0.1681E+01
  -7.740  0.1312E+01  0.1694E+01
  -7.730  0.1303E+01  0.1707E+01
  -7.720  0.1292E+01  0.1720E+01
  -7.710  0.1280E+01  0.1733E+01
  -7.700  0.1267E+01  0.1746E+01
  -7.690  0.1253E+01  0.1758E+01
  -7.680  0.1238E+01  0.1771E+01
  -7.670  0.1222E+01  0.1783E+01
  -7.660  0.1205E+01  0.1795E+01
  -7.650  0.1188E+01  0.1807E+01
  -7.640  0.1171E+01  0.1819E+01
  -7.630  0.1154E+01  0.1830E+01
  -7.620  0.1137E+01  0.1842E+01
  -7.610  0.1121E+01  0.1853E+01
  -7.600  0.1105E+01  0.1864E+01
  -7.590  0.1091E+01  0.1875E+01
  -7.580  0.1078E+01  0.1885E+01
  -7.570  0.1067E+01  0.1896E+01
  -7.560  0.1058E+01  0.1907E+01
  -7.550  0.1050E+01  0.1917E+01
  -7.540  0.1044E+01  0.1928E+01
  -7.530  0.1040E+01  0.1938E+01
  -7.520  0.1038E+01  0.1948E+01
  -7.510  0.1036E+01  0.1959E+01
  -7.500  0.1036E+01  0.1969E+01
  -7.490  0.1037E+01  0.1980E+01
  -7.480  0.1038E+01  0.1990E+01
  -7.470  0.1039E+01  0.2000E+01
  -7.460  0.1040E+01  0.2011E+01
  -7.450  0.1040E+01  0.2021E+01
  -7.440  0.1039E+01  0.2032E+01
  -7.430  0.1037E+01  0.2042E+01
  -7.420  0.1033E+01  0.2052E+01
  -7.410  0.1027E+01  0.2062E+01
  -7.400  0.1020E+01  0.2073E+01
  -7.390  0.1010E+01  0.2083E+01
  -7.380  0.9995E+00  0.2093E+01
  -7.370  0.9871E+00  0.2103E+01
  -7.360  0.9736E+00  0.2112E+01
  -7.350  0.9592E+00  0.2122E+01
  -7.340  0.9446E+00  0.2131E+01
  -7.330  0.9300E+00  0.2141E+01
  -7.320  0.9159E+00  0.2150E+01
  -7.310  0.9028E+00  0.2159E+01
  -7.300  0.8911E+00  0.2168E+01
  -7.290  0.8811E+00  0.2177E+01
  -7.280  0.8730E+00  0.2185E+01
  -7.270  0.8671E+00  0.2194E+01
  -7.260  0.8634E+00  0.2203E+01
  -7.250  0.8618E+00  0.2211E+01
  -7.240  0.8624E+00  0.2220E+01
  -7.230  0.8648E+00  0.2229E+01
  -7.220  0.8687E+00  0.2237E+01
  -7.210  0.8738E+00  0.2246E+01
  -7.200  0.8797E+00  0.2255E+01
  -7.190  0.8858E+00  0.2264E+01
  -7.180  0.8919E+00  0.2273E+01
  -7.170  0.8973E+00  0.2282E+01
  -7.160  0.9019E+00  0.2291E+01
  -7.150  0.9052E+00  0.2300E+01
  -7.140  0.9071E+00  0.2309E+01
  -7.130  0.9074E+00  0.2318E+01
  -7.120  0.9061E+00  0.2327E+01
  -7.110  0.9032E+00  0.2336E+01
  -7.100  0.8989E+00  0.2345E+01
  -7.090  0.8933E+00  0.2354E+01
  -7.080  0.8867E+00  0.2363E+01
  -7.070  0.8794E+00  0.2371E+01
  -7.060  0.8717E+00  0.2380E+01
  -7.050  0.8639E+00  0.2389E+01
  -7.040  0.8563E+00  0.2397E+01
  -7.030  0.8491E+00  0.2406E+01
  -7.020  0.8426E+00  0.2414E+01
  -7.010  0.8368E+00  0.2423E+01
  -7.000  0.8320E+00  0.2431E+01
  -6.990  0.8281E+00  0.2439E+01
  -6.980  0.8252E+00  0.2447E+01
  -6.970  0.8231E+00  0.2456E+01
  -6.960  0.8218E+00  0.2464E+01
  -6.950  0.8213E+00  0.2472E+01
  -6.940  0.8212E+00  0.2480E+01
  -6.930  0.8216E+00  0.2489E+01
  -6.920  0.8221E+00  0.2497E+01
  -6.910  0.8226E+00  0.2505E+01
  -6.900  0.8231E+00  0.2513E+01
  -6.890  0.8233E+00  0.2521E+01
  -6.880  0.8230E+00  0.2530E+01
  -6.870  0.8223E+00  0.2538E+01
  -6.860  0.8209E+00  0.2546E+01
  -6.850  0.8189E+00  0.2554E+01
  -6.840  0.8162E+00  0.2562E+01
  -6.830  0.8128E+00  0.2571E+01
  -6.820  0.8088E+00  0.2579E+01
  -6.810  0.8042E+00  0.2587E+01
  -6.800  0.7993E+00  0.2595E+01
  -6.790  0.7940E+00  0.2603E+01
  -6.780  0.7887E+00  0.2611E+01
  -6.770  0.7835E+00  0.2618E+01
  -6.760  0.7786E+00  0.2626E+01
  -6.750  0.7743E+00  0.2634E+01
  -6.740  0.7707E+00  0.2642E+01
  -6.730  0.7681E+00  0.2649E+01
  -6.720  0.7667E+00  0.2657E+01
  -6.710  0.7664E+00  0.2665E+01
  -6.700  0.7675E+00  0.2672E+01
  -6.690  0.7698E+00  0.2680E+01
  -6.680  0.7733E+00  0.2688E+01
  -6.670  0.7779E+00  0.2696E+01
  -6.660  0.7832E+00  0.2703E+01
  -6.650  0.7891E+00  0.2711E+01
  -6.640  0.7952E+00  0.2719E+01
  -6.630  0.8010E+00  0.2727E+01
  -6.620  0.8063E+00  0.2735E+01
  -6.610  0.8107E+00  0.2743E+01
  -6.600  0.8137E+00  0.2752E+01
  -6.590  0.8152E+00  0.2760E+01
  -6.580  0.8148E+00  0.2768E+01
  -6.570  0.8125E+00  0.2776E+01
  -6.560  0.8082E+00  0.2784E+01
  -6.550  0.8019E+00  0.2792E+01
  -6.540  0.7938E+00  0.2800E+01
  -6.530  0.7842E+00  0.2808E+01
  -6.520  0.7734E+00  0.2816E+01
  -6.510  0.7618E+00  0.2823E+01
  -6.500  0.7498E+00  0.2831E+01
  -6.490  0.7381E+00  0.2838E+01
  -6.480  0.7270E+00  0.2845E+01
  -6.470  0.7170E+00  0.2853E+01
  -6.460  0.7086E+00  0.2860E+01
  -6.450  0.7022E+00  0.2867E+01
  -6.440  0.6980E+00  0.2874E+01
  -6.430  0.6961E+00  0.2881E+01
  -6.420  0.6968E+00  0.2888E+01
  -6.410  0.6998E+00  0.2895E+01
  -6.400  0.7051E+00  0.2902E+01
  -6.390  0.7124E+00  0.2909E+01
  -6.380  0.7212E+00  0.2916E+01
  -6.370  0.7312E+00  0.2923E+01
  -6.360  0.7419E+00  0.2931E+01
  -6.350  0.7526E+00  0.2938E+01
  -6.340  0.7629E+00  0.2946E+01
  -6.330  0.7722E+00  0.2954E+01
  -6.320  0.7801E+00  0.2961E+01
  -6.310  0.7862E+00  0.2969E+01
  -6.300  0.7902E+00  0.2977E+01
  -6.290  0.7919E+00  0.2985E+01
  -6.280  0.7914E+00  0.2993E+01
  -6.270  0.7885E+00  0.3001E+01
  -6.260  0.7836E+00  0.3009E+01
  -6.250  0.7768E+00  0.3016E+01
  -6.240  0.7685E+00  0.3024E+01
  -6.230  0.7591E+00  0.3032E+01
  -6.220  0.7490E+00  0.3039E+01
  -6.210  0.7387E+00  0.3047E+01
  -6.200  0.7286E+00  0.3054E+01
  -6.190  0.7190E+00  0.3061E+01
  -6.180  0.7103E+00  0.3068E+01
  -6.170  0.7027E+00  0.3075E+01
  -6.160  0.6965E+00  0.3082E+01
  -6.150  0.6918E+00  0.3089E+01
  -6.140  0.6885E+00  0.3096E+01
  -6.130  0.6868E+00  0.3103E+01
  -6.120  0.6864E+00  0.3110E+01
  -6.110  0.6874E+00  0.3117E+01
  -6.100  0.6895E+00  0.3123E+01
  -6.090  0.6926E+00  0.3130E+01
  -6.080  0.6965E+00  0.3137E+01
  -6.070  0.7010E+00  0.3144E+01
  -6.060  0.7059E+00  0.3151E+01
  -6.050  0.7112E+00  0.3159E+01
  -6.040  0.7165E+00  0.3166E+01
  -6.030  0.7218E+00  0.3173E+01
  -6.020  0.7270E+00  0.3180E+01
  -6.010  0.7319E+00  0.3187E+01
  -6.000  0.7363E+00  0.3195E+01
  -5.990  0.7402E+00  0.3202E+01
  -5.980  0.7435E+00  0.3210E+01
  -5.970  0.7461E+00  0.3217E+01
  -5.960  0.7478E+00  0.3225E+01
  -5.950  0.7486E+00  0.3232E+01
  -5.940  0.7483E+00  0.3240E+01
  -5.930  0.7470E+00  0.3247E+01
  -5.920  0.7446E+00  0.3255E+01
  -5.910  0.7412E+00  0.3262E+01
  -5.900  0.7367E+00  0.3269E+01
  -5.890  0.7312E+00  0.3277E+01
  -5.880  0.7250E+00  0.3284E+01
  -5.870  0.7181E+00  0.3291E+01
  -5.860  0.7108E+00  0.3298E+01
  -5.850  0.7033E+00  0.3305E+01
  -5.840  0.6959E+00  0.3312E+01
  -5.830  0.6890E+00  0.3319E+01
  -5.820  0.6827E+00  0.3326E+01
  -5.810  0.6774E+00  0.3333E+01
  -5.800  0.6734E+00  0.3339E+01
  -5.790  0.6708E+00  0.3346E+01
  -5.780  0.6698E+00  0.3353E+01
  -5.770  0.6705E+00  0.3359E+01
  -5.760  0.6729E+00  0.3366E+01
  -5.750  0.6769E+00  0.3373E+01
  -5.740  0.6824E+00  0.3380E+01
  -5.730  0.6892E+00  0.3387E+01
  -5.720  0.6969E+00  0.3394E+01
  -5.710  0.7052E+00  0.3401E+01
  -5.700  0.7137E+00  0.3408E+01
  -5.690  0.7221E+00  0.3415E+01
  -5.680  0.7298E+00  0.3422E+01
  -5.670  0.7366E+00  0.3430E+01
  -5.660  0.7421E+00  0.3437E+01
  -5.650  0.7460E+00  0.3445E+01
  -5.640  0.7482E+00  0.3452E+01
  -5.630  0.7486E+00  0.3460E+01
  -5.620  0.7472E+00  0.3467E+01
  -5.610  0.7440E+00  0.3474E+01
  -5.600  0.7393E+00  0.3482E+01
  -5.590  0.7332E+00  0.3489E+01
  -5.580  0.7262E+00  0.3496E+01
  -5.570  0.7185E+00  0.3504E+01
  -5.560  0.7105E+00  0.3511E+01
  -5.550  0.7026E+00  0.3518E+01
  -5.540  0.6951E+00  0.3525E+01
  -5.530  0.6883E+00  0.3532E+01
  -5.520  0.6825E+00  0.3538E+01
  -5.510  0.6779E+00  0.3545E+01
  -5.500  0.6747E+00  0.3552E+01
  -5.490  0.6730E+00  0.3559E+01
  -5.480  0.6727E+00  0.3565E+01
  -5.470  0.6740E+00  0.3572E+01
  -5.460  0.6766E+00  0.3579E+01
  -5.450  0.6805E+00  0.3586E+01
  -5.440  0.6855E+00  0.3593E+01
  -5.430  0.6914E+00  0.3600E+01
  -5.420  0.6980E+00  0.3606E+01
  -5.410  0.7050E+00  0.3614E+01
  -5.400  0.7121E+00  0.3621E+01
  -5.390  0.7192E+00  0.3628E+01
  -5.380  0.7260E+00  0.3635E+01
  -5.370  0.7322E+00  0.3642E+01
  -5.360  0.7376E+00  0.3650E+01
  -5.350  0.7421E+00  0.3657E+01
  -5.340  0.7455E+00  0.3665E+01
  -5.330  0.7477E+00  0.3672E+01
  -5.320  0.7486E+00  0.3680E+01
  -5.310  0.7483E+00  0.3687E+01
  -5.300  0.7468E+00  0.3695E+01
  -5.290  0.7441E+00  0.3702E+01
  -5.280  0.7404E+00  0.3709E+01
  -5.270  0.7357E+00  0.3717E+01
  -5.260  0.7304E+00  0.3724E+01
  -5.250  0.7246E+00  0.3731E+01
  -5.240  0.7184E+00  0.3739E+01
  -5.230  0.7122E+00  0.3746E+01
  -5.220  0.7060E+00  0.3753E+01
  -5.210  0.7002E+00  0.3760E+01
  -5.200  0.6948E+00  0.3767E+01
  -5.190  0.6900E+00  0.3774E+01
  -5.180  0.6859E+00  0.3780E+01
  -5.170  0.6826E+00  0.3787E+01
  -5.160  0.6801E+00  0.3794E+01
  -5.150  0.6783E+00  0.3801E+01
  -5.140  0.6772E+00  0.3808E+01
  -5.130  0.6767E+00  0.3814E+01
  -5.120  0.6766E+00  0.3821E+01
  -5.110  0.6768E+00  0.3828E+01
  -5.100  0.6770E+00  0.3835E+01
  -5.090  0.6771E+00  0.3841E+01
  -5.080  0.6767E+00  0.3848E+01
  -5.070  0.6758E+00  0.3855E+01
  -5.060  0.6740E+00  0.3862E+01
  -5.050  0.6712E+00  0.3868E+01
  -5.040  0.6674E+00  0.3875E+01
  -5.030  0.6623E+00  0.3882E+01
  -5.020  0.6559E+00  0.3888E+01
  -5.010  0.6482E+00  0.3895E+01
  -5.000  0.6394E+00  0.3901E+01
  -4.990  0.6294E+00  0.3907E+01
  -4.980  0.6186E+00  0.3914E+01
  -4.970  0.6071E+00  0.3920E+01
  -4.960  0.5951E+00  0.3926E+01
  -4.950  0.5830E+00  0.3931E+01
  -4.940  0.5711E+00  0.3937E+01
  -4.930  0.5597E+00  0.3943E+01
  -4.920  0.5491E+00  0.3948E+01
  -4.910  0.5396E+00  0.3954E+01
  -4.900  0.5316E+00  0.3959E+01
  -4.890  0.5253E+00  0.3964E+01
  -4.880  0.5208E+00  0.3969E+01
  -4.870  0.5184E+00  0.3975E+01
  -4.860  0.5182E+00  0.3980E+01
  -4.850  0.5201E+00  0.3985E+01
  -4.840  0.5242E+00  0.3990E+01
  -4.830  0.5304E+00  0.3996E+01
  -4.820  0.5386E+00  0.4001E+01
  -4.810  0.5485E+00  0.4006E+01
  -4.800  0.5599E+00  0.4012E+01
  -4.790  0.5725E+00  0.4018E+01
  -4.780  0.5861E+00  0.4024E+01
  -4.770  0.6002E+00  0.4030E+01
  -4.760  0.6145E+00  0.4036E+01
  -4.750  0.6287E+00  0.4042E+01
  -4.740  0.6426E+00  0.4048E+01
  -4.730  0.6558E+00  0.4055E+01
  -4.720  0.6681E+00  0.4062E+01
  -4.710  0.6794E+00  0.4069E+01
  -4.700  0.6896E+00  0.4075E+01
  -4.690  0.6987E+00  0.4082E+01
  -4.680  0.7067E+00  0.4089E+01
  -4.670  0.7137E+00  0.4097E+01
  -4.660  0.7198E+00  0.4104E+01
  -4.650  0.7252E+00  0.4111E+01
  -4.640  0.7302E+00  0.4118E+01
  -4.630  0.7350E+00  0.4126E+01
  -4.620  0.7398E+00  0.4133E+01
  -4.610  0.7447E+00  0.4141E+01
  -4.600  0.7500E+00  0.4148E+01
  -4.590  0.7557E+00  0.4156E+01
  -4.580  0.7620E+00  0.4163E+01
  -4.570  0.7686E+00  0.4171E+01
  -4.560  0.7756E+00  0.4179E+01
  -4.550  0.7828E+00  0.4187E+01
  -4.540  0.7898E+00  0.4194E+01
  -4.530  0.7963E+00  0.4202E+01
  -4.520  0.8020E+00  0.4210E+01
  -4.510  0.8066E+00  0.4218E+01
  -4.500  0.8095E+00  0.4227E+01
  -4.490  0.8105E+00  0.4235E+01
  -4.480  0.8093E+00  0.4243E+01
  -4.470  0.8055E+00  0.4251E+01
  -4.460  0.7991E+00  0.4259E+01
  -4.450  0.7901E+00  0.4267E+01
  -4.440  0.7784E+00  0.4274E+01
  -4.430  0.7644E+00  0.4282E+01
  -4.420  0.7483E+00  0.4290E+01
  -4.410  0.7305E+00  0.4297E+01
  -4.400  0.7115E+00  0.4304E+01
  -4.390  0.6918E+00  0.4311E+01
  -4.380  0.6719E+00  0.4318E+01
  -4.370  0.6524E+00  0.4324E+01
  -4.360  0.6337E+00  0.4331E+01
  -4.350  0.6163E+00  0.4337E+01
  -4.340  0.6005E+00  0.4343E+01
  -4.330  0.5864E+00  0.4349E+01
  -4.320  0.5743E+00  0.4354E+01
  -4.310  0.5641E+00  0.4360E+01
  -4.300  0.5557E+00  0.4365E+01
  -4.290  0.5488E+00  0.4371E+01
  -4.280  0.5433E+00  0.4376E+01
  -4.270  0.5387E+00  0.4382E+01
  -4.260  0.5348E+00  0.4387E+01
  -4.250  0.5312E+00  0.4392E+01
  -4.240  0.5276E+00  0.4398E+01
  -4.230  0.5236E+00  0.4403E+01
  -4.220  0.5192E+00  0.4408E+01
  -4.210  0.5141E+00  0.4413E+01
  -4.200  0.5083E+00  0.4418E+01
  -4.190  0.5018E+00  0.4423E+01
  -4.180  0.4947E+00  0.4428E+01
  -4.170  0.4871E+00  0.4433E+01
  -4.160  0.4791E+00  0.4438E+01
  -4.150  0.4711E+00  0.4443E+01
  -4.140  0.4631E+00  0.4447E+01
  -4.130  0.4554E+00  0.4452E+01
  -4.120  0.4482E+00  0.4456E+01
  -4.110  0.4415E+00  0.4461E+01
  -4.100  0.4355E+00  0.4465E+01
  -4.090  0.4302E+00  0.4469E+01
  -4.080  0.4256E+00  0.4474E+01
  -4.070  0.4217E+00  0.4478E+01
  -4.060  0.4183E+00  0.4482E+01
  -4.050  0.4153E+00  0.4486E+01
  -4.040  0.4126E+00  0.4490E+01
  -4.030  0.4101E+00  0.4495E+01
  -4.020  0.4076E+00  0.4499E+01
  -4.010  0.4050E+00  0.4503E+01
  -4.000  0.4023E+00  0.4507E+01
  -3.990  0.3994E+00  0.4511E+01
  -3.980  0.3962E+00  0.4515E+01
  -3.970  0.3928E+00  0.4519E+01
  -3.960  0.3892E+00  0.4522E+01
  -3.950  0.3854E+00  0.4526E+01
  -3.940  0.3814E+00  0.4530E+01
  -3.930  0.3774E+00  0.4534E+01
  -3.920  0.3734E+00  0.4538E+01
  -3.910  0.3694E+00  0.4541E+01
  -3.900  0.3655E+00  0.4545E+01
  -3.890  0.3617E+00  0.4549E+01
  -3.880  0.3580E+00  0.4552E+01
  -3.870  0.3544E+00  0.4556E+01
  -3.860  0.3508E+00  0.4559E+01
  -3.850  0.3472E+00  0.4563E+01
  -3.840  0.3435E+00  0.4566E+01
  -3.830  0.3396E+00  0.4570E+01
  -3.820  0.3355E+00  0.4573E+01
  -3.810  0.3310E+00  0.4576E+01
  -3.800  0.3262E+00  0.4579E+01
  -3.790  0.3208E+00  0.4583E+01
  -3.780  0.3150E+00  0.4586E+01
  -3.770  0.3085E+00  0.4589E+01
  -3.760  0.3014E+00  0.4592E+01
  -3.750  0.2936E+00  0.4595E+01
  -3.740  0.2852E+00  0.4598E+01
  -3.730  0.2760E+00  0.4600E+01
  -3.720  0.2661E+00  0.4603E+01
  -3.710  0.2555E+00  0.4606E+01
  -3.700  0.2443E+00  0.4608E+01
  -3.690  0.2325E+00  0.4610E+01
  -3.680  0.2201E+00  0.4613E+01
  -3.670  0.2073E+00  0.4615E+01
  -3.660  0.1942E+00  0.4617E+01
  -3.650  0.1808E+00  0.4618E+01
  -3.640  0.1674E+00  0.4620E+01
  -3.630  0.1539E+00  0.4622E+01
  -3.620  0.1405E+00  0.4623E+01
  -3.610  0.1275E+00  0.4624E+01
  -3.600  0.1148E+00  0.4625E+01
  -3.590  0.1026E+00  0.4627E+01
  -3.580  0.9097E-01  0.4627E+01
  -3.570  0.8005E-01  0.4628E+01
  -3.560  0.6988E-01  0.4629E+01
  -3.550  0.6050E-01  0.4630E+01
  -3.540  0.5194E-01  0.4630E+01
  -3.530  0.4422E-01  0.4630E+01
  -3.520  0.3732E-01  0.4631E+01
  -3.510  0.3122E-01  0.4631E+01
  -3.500  0.2589E-01  0.4631E+01
  -3.490  0.2127E-01  0.4632E+01
  -3.480  0.1732E-01  0.4632E+01
  -3.470  0.1398E-01  0.4632E+01
  -3.460  0.1117E-01  0.4632E+01
  -3.450  0.8847E-02  0.4632E+01
  -3.440  0.6940E-02  0.4632E+01
  -3.430  0.5392E-02  0.4632E+01
  -3.420  0.4150E-02  0.4632E+01
  -3.410  0.3163E-02  0.4632E+01
  -3.400  0.2388E-02  0.4632E+01
  -3.390  0.1785E-02  0.4632E+01
  -3.380  0.1321E-02  0.4632E+01
  -3.370  0.9685E-03  0.4632E+01
  -3.360  0.7028E-03  0.4632E+01
  -3.350  0.5050E-03  0.4632E+01
  -3.340  0.3593E-03  0.4632E+01
  -3.330  0.2530E-03  0.4632E+01
  -3.320  0.1764E-03  0.4632E+01
  -3.310  0.1218E-03  0.4632E+01
  -3.300  0.8321E-04  0.4632E+01
  -3.290  0.5628E-04  0.4632E+01
  -3.280  0.3768E-04  0.4632E+01
  -3.270  0.2497E-04  0.4632E+01
  -3.260  0.1638E-04  0.4632E+01
  -3.250  0.1063E-04  0.4632E+01
  -3.240  0.6832E-05  0.4632E+01
  -3.230  0.4345E-05  0.4632E+01
  -3.220  0.2735E-05  0.4632E+01
  -3.210  0.1703E-05  0.4632E+01
  -3.200  0.1050E-05  0.4632E+01
  -3.190  0.6406E-06  0.4632E+01
  -3.180  0.3868E-06  0.4632E+01
  -3.170  0.2311E-06  0.4632E+01
  -3.160  0.1366E-06  0.4632E+01
  -3.150  0.7995E-07  0.4632E+01
  -3.140  0.4629E-07  0.4632E+01
  -3.130  0.2652E-07  0.4632E+01
  -3.120  0.1504E-07  0.4632E+01
  -3.110  0.8436E-08  0.4632E+01
  -3.100  0.4683E-08  0.4632E+01
  -3.090  0.2572E-08  0.4632E+01
  -3.080  0.1398E-08  0.4632E+01
  -3.070  0.7520E-09  0.4632E+01
  -3.060  0.4002E-09  0.4632E+01
  -3.050  0.2107E-09  0.4632E+01
  -3.040  0.1098E-09  0.4632E+01
  -3.030  0.5659E-10  0.4632E+01
  -3.020  0.2887E-10  0.4632E+01
  -3.010  0.1457E-10  0.4632E+01
  -3.000  0.7274E-11  0.4632E+01
  -2.990  0.3594E-11  0.4632E+01
  -2.980  0.1757E-11  0.4632E+01
  -2.970  0.8496E-12  0.4632E+01
  -2.960  0.4065E-12  0.4632E+01
  -2.950  0.1925E-12  0.4632E+01
  -2.940  0.9015E-13  0.4632E+01
  -2.930  0.4178E-13  0.4632E+01
  -2.920  0.1916E-13  0.4632E+01
  -2.910  0.8691E-14  0.4632E+01
  -2.900  0.3901E-14  0.4632E+01
  -2.890  0.1732E-14  0.4632E+01
  -2.880  0.7609E-15  0.4632E+01
  -2.870  0.3307E-15  0.4632E+01
  -2.860  0.1422E-15  0.4632E+01
  -2.850  0.6051E-16  0.4632E+01
  -2.840  0.2547E-16  0.4632E+01
  -2.830  0.1061E-16  0.4632E+01
  -2.820  0.4370E-17  0.4632E+01
  -2.810  0.1781E-17  0.4632E+01
  -2.800  0.7182E-18  0.4632E+01
  -2.790  0.2865E-18  0.4632E+01
  -2.780  0.1131E-18  0.4632E+01
  -2.770  0.4416E-19  0.4632E+01
  -2.760  0.1706E-19  0.4632E+01
  -2.750  0.6520E-20  0.4632E+01
  -2.740  0.2465E-20  0.4632E+01
  -2.730  0.9222E-21  0.4632E+01
  -2.720  0.3413E-21  0.4632E+01
  -2.710  0.1249E-21  0.4632E+01
  -2.700  0.4526E-22  0.4632E+01
  -2.690  0.1622E-22  0.4632E+01
  -2.680  0.5749E-23  0.4632E+01
  -2.670  0.2016E-23  0.4632E+01
  -2.660  0.6996E-24  0.4632E+01
  -2.650  0.2401E-24  0.4632E+01
  -2.640  0.8154E-25  0.4632E+01
  -2.630  0.2739E-25  0.4632E+01
  -2.620  0.9104E-26  0.4632E+01
  -2.610  0.2993E-26  0.4632E+01
  -2.600  0.9737E-27  0.4632E+01
  -2.590  0.3133E-27  0.4632E+01
  -2.580  0.9975E-28  0.4632E+01
  -2.570  0.3141E-28  0.4632E+01
  -2.560  0.9787E-29  0.4632E+01
  -2.550  0.3017E-29  0.4632E+01
  -2.540  0.9199E-30  0.4632E+01
  -2.530  0.2775E-30  0.4632E+01
  -2.520  0.8282E-31  0.4632E+01
  -2.510  0.2445E-31  0.4632E+01
  -2.500  0.7141E-32  0.4632E+01
  -2.490  0.2063E-32  0.4632E+01
  -2.480  0.5898E-33  0.4632E+01
  -2.470  0.1668E-33  0.4632E+01
  -2.460  0.4666E-34  0.4632E+01
  -2.450  0.1291E-34  0.4632E+01
  -2.440  0.3536E-35  0.4632E+01
  -2.430  0.9576E-36  0.4632E+01
  -2.420  0.2566E-36  0.4632E+01
  -2.410  0.6802E-37  0.4632E+01
  -2.400  0.1784E-37  0.4632E+01
  -2.390  0.4627E-38  0.4632E+01
  -2.380  0.1187E-38  0.4632E+01
  -2.370  0.3015E-39  0.4632E+01
  -2.360  0.7572E-40  0.4632E+01
  -2.350  0.1882E-40  0.4632E+01
  -2.340  0.4625E-41  0.4632E+01
  -2.330  0.1125E-41  0.4632E+01
  -2.320  0.2705E-42  0.4632E+01
  -2.310  0.6438E-43  0.4632E+01
  -2.300  0.1516E-43  0.4632E+01
  -2.290  0.3530E-44  0.4632E+01
  -2.280  0.8134E-45  0.4632E+01
  -2.270  0.1854E-45  0.4632E+01
  -2.260  0.4180E-46  0.4632E+01
  -2.250  0.9325E-47  0.4632E+01
  -2.240  0.2058E-47  0.4632E+01
  -2.230  0.4492E-48  0.4632E+01
  -2.220  0.9701E-49  0.4632E+01
  -2.210  0.2073E-49  0.4632E+01
  -2.200  0.4380E-50  0.4632E+01
  -2.190  0.9159E-51  0.4632E+01
  -2.180  0.1894E-51  0.4632E+01
  -2.170  0.3876E-52  0.4632E+01
  -2.160  0.7846E-53  0.4632E+01
  -2.150  0.1571E-53  0.4632E+01
  -2.140  0.3113E-54  0.4632E+01
  -2.130  0.6100E-55  0.4632E+01
  -2.120  0.1183E-55  0.4632E+01
  -2.110  0.2268E-56  0.4632E+01
  -2.100  0.4303E-57  0.4632E+01
  -2.090  0.8076E-58  0.4632E+01
  -2.080  0.1500E-58  0.4632E+01
  -2.070  0.2755E-59  0.4632E+01
  -2.060  0.5005E-60  0.4632E+01
  -2.050  0.8998E-61  0.4632E+01
  -2.040  0.1600E-61  0.4632E+01
  -2.030  0.2815E-62  0.4632E+01
  -2.020  0.4899E-63  0.4632E+01
  -2.010  0.8434E-64  0.4632E+01
  -2.000  0.1436E-64  0.4632E+01
  -1.990  0.2420E-65  0.4632E+01
  -1.980  0.4034E-66  0.4632E+01
  -1.970  0.6651E-67  0.4632E+01
  -1.960  0.1085E-67  0.4632E+01
  -1.950  0.1751E-68  0.4632E+01
  -1.940  0.2794E-69  0.4632E+01
  -1.930  0.4413E-70  0.4632E+01
  -1.920  0.6894E-71  0.4632E+01
  -1.910  0.1065E-71  0.4632E+01
  -1.900  0.1629E-72  0.4632E+01
  -1.890  0.2463E-73  0.4632E+01
  -1.880  0.3686E-74  0.4632E+01
  -1.870  0.5455E-75  0.4632E+01
  -1.860  0.7987E-76  0.4632E+01
  -1.850  0.1157E-76  0.4632E+01
  -1.840  0.1658E-77  0.4632E+01
  -1.830  0.2350E-78  0.4632E+01
  -1.820  0.3295E-79  0.4632E+01
  -1.810  0.4571E-80  0.4632E+01
  -1.800  0.6274E-81  0.4632E+01
  -1.790  0.8526E-82  0.4632E+01
  -1.780  0.1153E-82  0.4632E+01
  -1.770  0.1611E-83  0.4632E+01
  -1.760  0.2915E-84  0.4632E+01
  -1.750  0.1177E-84  0.4632E+01
  -1.740  0.9510E-85  0.4632E+01
  -1.730  0.9220E-85  0.4632E+01
  -1.720  0.9183E-85  0.4632E+01
  -1.710  0.9182E-85  0.4632E+01
  -1.700  0.9182E-85  0.4632E+01
  -1.690  0.9182E-85  0.4632E+01
  -1.680  0.9182E-85  0.4632E+01
  -1.670  0.9182E-85  0.4632E+01
  -1.660  0.9182E-85  0.4632E+01
  -1.650  0.9182E-85  0.4632E+01
  -1.640  0.9182E-85  0.4632E+01
  -1.630  0.9182E-85  0.4632E+01
  -1.620  0.9182E-85  0.4632E+01
  -1.610  0.9182E-85  0.4632E+01
  -1.600  0.9182E-85  0.4632E+01
  -1.590  0.9182E-85  0.4632E+01
  -1.580  0.9182E-85  0.4632E+01
  -1.570  0.9182E-85  0.4632E+01
  -1.560  0.9182E-85  0.4632E+01
  -1.550  0.9182E-85  0.4632E+01
  -1.540  0.9182E-85  0.4632E+01
  -1.530  0.9182E-85  0.4632E+01
  -1.520  0.9182E-85  0.4632E+01
  -1.510  0.9182E-85  0.4632E+01
  -1.500  0.9182E-85  0.4632E+01
  -1.490  0.9182E-85  0.4632E+01
  -1.480  0.9182E-85  0.4632E+01
  -1.470  0.9182E-85  0.4632E+01
  -1.460  0.9182E-85  0.4632E+01
  -1.450  0.9182E-85  0.4632E+01
  -1.440  0.9182E-85  0.4632E+01
  -1.430  0.9182E-85  0.4632E+01
  -1.420  0.9182E-85  0.4632E+01
  -1.410  0.9182E-85  0.4632E+01
  -1.400  0.9182E-85  0.4632E+01
  -1.390  0.9182E-85  0.4632E+01
  -1.380  0.9182E-85  0.4632E+01
  -1.370  0.9182E-85  0.4632E+01
  -1.360  0.9182E-85  0.4632E+01
  -1.350  0.9182E-85  0.4632E+01
  -1.340  0.9182E-85  0.4632E+01
  -1.330  0.9182E-85  0.4632E+01
  -1.320  0.9182E-85  0.4632E+01
  -1.310  0.9182E-85  0.4632E+01
  -1.300  0.9182E-85  0.4632E+01
  -1.290  0.9182E-85  0.4632E+01
  -1.280  0.9182E-85  0.4632E+01
  -1.270  0.9182E-85  0.4632E+01
  -1.260  0.9182E-85  0.4632E+01
  -1.250  0.9182E-85  0.4632E+01
  -1.240  0.9182E-85  0.4632E+01
  -1.230  0.9182E-85  0.4632E+01
  -1.220  0.9182E-85  0.4632E+01
  -1.210  0.9182E-85  0.4632E+01
  -1.200  0.9182E-85  0.4632E+01
  -1.190  0.9182E-85  0.4632E+01
  -1.180  0.9182E-85  0.4632E+01
  -1.170  0.9182E-85  0.4632E+01
  -1.160  0.9192E-85  0.4632E+01
  -1.150  0.9268E-85  0.4632E+01
  -1.140  0.9886E-85  0.4632E+01
  -1.130  0.1463E-84  0.4632E+01
  -1.120  0.5062E-84  0.4632E+01
  -1.110  0.3209E-83  0.4632E+01
  -1.100  0.2329E-82  0.4632E+01
  -1.090  0.1709E-81  0.4632E+01
  -1.080  0.1244E-80  0.4632E+01
  -1.070  0.8965E-80  0.4632E+01
  -1.060  0.6391E-79  0.4632E+01
  -1.050  0.4507E-78  0.4632E+01
  -1.040  0.3144E-77  0.4632E+01
  -1.030  0.2170E-76  0.4632E+01
  -1.020  0.1482E-75  0.4632E+01
  -1.010  0.1001E-74  0.4632E+01
  -1.000  0.6689E-74  0.4632E+01
  -0.990  0.4422E-73  0.4632E+01
  -0.980  0.2893E-72  0.4632E+01
  -0.970  0.1872E-71  0.4632E+01
  -0.960  0.1198E-70  0.4632E+01
  -0.950  0.7587E-70  0.4632E+01
  -0.940  0.4753E-69  0.4632E+01
  -0.930  0.2946E-68  0.4632E+01
  -0.920  0.1807E-67  0.4632E+01
  -0.910  0.1096E-66  0.4632E+01
  -0.900  0.6577E-66  0.4632E+01
  -0.890  0.3905E-65  0.4632E+01
  -0.880  0.2294E-64  0.4632E+01
  -0.870  0.1333E-63  0.4632E+01
  -0.860  0.7662E-63  0.4632E+01
  -0.850  0.4358E-62  0.4632E+01
  -0.840  0.2452E-61  0.4632E+01
  -0.830  0.1365E-60  0.4632E+01
  -0.820  0.7517E-60  0.4632E+01
  -0.810  0.4095E-59  0.4632E+01
  -0.800  0.2207E-58  0.4632E+01
  -0.790  0.1177E-57  0.4632E+01
  -0.780  0.6210E-57  0.4632E+01
  -0.770  0.3241E-56  0.4632E+01
  -0.760  0.1673E-55  0.4632E+01
  -0.750  0.8549E-55  0.4632E+01
  -0.740  0.4320E-54  0.4632E+01
  -0.730  0.2160E-53  0.4632E+01
  -0.720  0.1068E-52  0.4632E+01
  -0.710  0.5229E-52  0.4632E+01
  -0.700  0.2531E-51  0.4632E+01
  -0.690  0.1213E-50  0.4632E+01
  -0.680  0.5746E-50  0.4632E+01
  -0.670  0.2694E-49  0.4632E+01
  -0.660  0.1249E-48  0.4632E+01
  -0.650  0.5733E-48  0.4632E+01
  -0.640  0.2603E-47  0.4632E+01
  -0.630  0.1169E-46  0.4632E+01
  -0.620  0.5194E-46  0.4632E+01
  -0.610  0.2283E-45  0.4632E+01
  -0.600  0.9931E-45  0.4632E+01
  -0.590  0.4273E-44  0.4632E+01
  -0.580  0.1819E-43  0.4632E+01
  -0.570  0.7661E-43  0.4632E+01
  -0.560  0.3192E-42  0.4632E+01
  -0.550  0.1316E-41  0.4632E+01
  -0.540  0.5367E-41  0.4632E+01
  -0.530  0.2166E-40  0.4632E+01
  -0.520  0.8645E-40  0.4632E+01
  -0.510  0.3414E-39  0.4632E+01
  -0.500  0.1334E-38  0.4632E+01
  -0.490  0.5158E-38  0.4632E+01
  -0.480  0.1973E-37  0.4632E+01
  -0.470  0.7464E-37  0.4632E+01
  -0.460  0.2794E-36  0.4632E+01
  -0.450  0.1035E-35  0.4632E+01
  -0.440  0.3793E-35  0.4632E+01
  -0.430  0.1375E-34  0.4632E+01
  -0.420  0.4932E-34  0.4632E+01
  -0.410  0.1750E-33  0.4632E+01
  -0.400  0.6146E-33  0.4632E+01
  -0.390  0.2135E-32  0.4632E+01
  -0.380  0.7337E-32  0.4632E+01
  -0.370  0.2495E-31  0.4632E+01
  -0.360  0.8393E-31  0.4632E+01
  -0.350  0.2793E-30  0.4632E+01
  -0.340  0.9198E-30  0.4632E+01
  -0.330  0.2997E-29  0.4632E+01
  -0.320  0.9660E-29  0.4632E+01
  -0.310  0.3081E-28  0.4632E+01
  -0.300  0.9720E-28  0.4632E+01
  -0.290  0.3034E-27  0.4632E+01
  -0.280  0.9372E-27  0.4632E+01
  -0.270  0.2864E-26  0.4632E+01
  -0.260  0.8658E-26  0.4632E+01
  -0.250  0.2590E-25  0.4632E+01
  -0.240  0.7665E-25  0.4632E+01
  -0.230  0.2244E-24  0.4632E+01
  -0.220  0.6502E-24  0.4632E+01
  -0.210  0.1864E-23  0.4632E+01
  -0.200  0.5285E-23  0.4632E+01
  -0.190  0.1483E-22  0.4632E+01
  -0.180  0.4116E-22  0.4632E+01
  -0.170  0.1131E-21  0.4632E+01
  -0.160  0.3072E-21  0.4632E+01
  -0.150  0.8261E-21  0.4632E+01
  -0.140  0.2198E-20  0.4632E+01
  -0.130  0.5784E-20  0.4632E+01
  -0.120  0.1506E-19  0.4632E+01
  -0.110  0.3881E-19  0.4632E+01
  -0.100  0.9893E-19  0.4632E+01
  -0.090  0.2495E-18  0.4632E+01
  -0.080  0.6227E-18  0.4632E+01
  -0.070  0.1538E-17  0.4632E+01
  -0.060  0.3756E-17  0.4632E+01
  -0.050  0.9079E-17  0.4632E+01
  -0.040  0.2171E-16  0.4632E+01
  -0.030  0.5138E-16  0.4632E+01
  -0.020  0.1203E-15  0.4632E+01
  -0.010  0.2787E-15  0.4632E+01
   0.000  0.6387E-15  0.4632E+01
   0.010  0.1449E-14  0.4632E+01
   0.020  0.3250E-14  0.4632E+01
   0.030  0.7216E-14  0.4632E+01
   0.040  0.1585E-13  0.4632E+01
   0.050  0.3446E-13  0.4632E+01
   0.060  0.7410E-13  0.4632E+01
   0.070  0.1577E-12  0.4632E+01
   0.080  0.3320E-12  0.4632E+01
   0.090  0.6917E-12  0.4632E+01
   0.100  0.1426E-11  0.4632E+01
   0.110  0.2908E-11  0.4632E+01
   0.120  0.5870E-11  0.4632E+01
   0.130  0.1172E-10  0.4632E+01
   0.140  0.2316E-10  0.4632E+01
   0.150  0.4529E-10  0.4632E+01
   0.160  0.8763E-10  0.4632E+01
   0.170  0.1678E-09  0.4632E+01
   0.180  0.3178E-09  0.4632E+01
   0.190  0.5957E-09  0.4632E+01
   0.200  0.1105E-08  0.4632E+01
   0.210  0.2028E-08  0.4632E+01
   0.220  0.3684E-08  0.4632E+01
   0.230  0.6621E-08  0.4632E+01
   0.240  0.1178E-07  0.4632E+01
   0.250  0.2073E-07  0.4632E+01
   0.260  0.3610E-07  0.4632E+01
   0.270  0.6222E-07  0.4632E+01
   0.280  0.1061E-06  0.4632E+01
   0.290  0.1791E-06  0.4632E+01
   0.300  0.2992E-06  0.4632E+01
   0.310  0.4946E-06  0.4632E+01
   0.320  0.8092E-06  0.4632E+01
   0.330  0.1310E-05  0.4632E+01
   0.340  0.2100E-05  0.4632E+01
   0.350  0.3330E-05  0.4632E+01
   0.360  0.5227E-05  0.4632E+01
   0.370  0.8120E-05  0.4632E+01
   0.380  0.1249E-04  0.4632E+01
   0.390  0.1900E-04  0.4632E+01
   0.400  0.2863E-04  0.4632E+01
   0.410  0.4268E-04  0.4632E+01
   0.420  0.6300E-04  0.4632E+01
   0.430  0.9204E-04  0.4632E+01
   0.440  0.1331E-03  0.4632E+01
   0.450  0.1906E-03  0.4632E+01
   0.460  0.2701E-03  0.4632E+01
   0.470  0.3791E-03  0.4632E+01
   0.480  0.5266E-03  0.4632E+01
   0.490  0.7244E-03  0.4632E+01
   0.500  0.9865E-03  0.4632E+01
   0.510  0.1330E-02  0.4632E+01
   0.520  0.1776E-02  0.4633E+01
   0.530  0.2349E-02  0.4633E+01
   0.540  0.3075E-02  0.4633E+01
   0.550  0.3988E-02  0.4633E+01
   0.560  0.5123E-02  0.4633E+01
   0.570  0.6517E-02  0.4633E+01
   0.580  0.8213E-02  0.4633E+01
   0.590  0.1025E-01  0.4633E+01
   0.600  0.1268E-01  0.4633E+01
   0.610  0.1554E-01  0.4633E+01
   0.620  0.1887E-01  0.4633E+01
   0.630  0.2271E-01  0.4634E+01
   0.640  0.2708E-01  0.4634E+01
   0.650  0.3202E-01  0.4634E+01
   0.660  0.3752E-01  0.4635E+01
   0.670  0.4360E-01  0.4635E+01
   0.680  0.5024E-01  0.4636E+01
   0.690  0.5741E-01  0.4636E+01
   0.700  0.6507E-01  0.4637E+01
   0.710  0.7318E-01  0.4637E+01
   0.720  0.8166E-01  0.4638E+01
   0.730  0.9045E-01  0.4639E+01
   0.740  0.9945E-01  0.4640E+01
   0.750  0.1086E+00  0.4641E+01
   0.760  0.1178E+00  0.4642E+01
   0.770  0.1269E+00  0.4644E+01
   0.780  0.1358E+00  0.4645E+01
   0.790  0.1446E+00  0.4647E+01
   0.800  0.1531E+00  0.4648E+01
   0.810  0.1612E+00  0.4650E+01
   0.820  0.1690E+00  0.4651E+01
   0.830  0.1763E+00  0.4653E+01
   0.840  0.1834E+00  0.4655E+01
   0.850  0.1900E+00  0.4657E+01
   0.860  0.1964E+00  0.4659E+01
   0.870  0.2026E+00  0.4661E+01
   0.880  0.2087E+00  0.4663E+01
   0.890  0.2148E+00  0.4665E+01
   0.900  0.2212E+00  0.4667E+01
   0.910  0.2279E+00  0.4670E+01
   0.920  0.2352E+00  0.4672E+01
   0.930  0.2432E+00  0.4674E+01
   0.940  0.2524E+00  0.4677E+01
   0.950  0.2628E+00  0.4679E+01
   0.960  0.2748E+00  0.4682E+01
   0.970  0.2887E+00  0.4685E+01
   0.980  0.3047E+00  0.4688E+01
   0.990  0.3232E+00  0.4691E+01
   1.000  0.3445E+00  0.4695E+01
   1.010  0.3687E+00  0.4699E+01
   1.020  0.3961E+00  0.4703E+01
   1.030  0.4270E+00  0.4707E+01
   1.040  0.4615E+00  0.4711E+01
   1.050  0.4996E+00  0.4716E+01
   1.060  0.5413E+00  0.4722E+01
   1.070  0.5866E+00  0.4728E+01
   1.080  0.6353E+00  0.4734E+01
   1.090  0.6872E+00  0.4741E+01
   1.100  0.7418E+00  0.4748E+01
   1.110  0.7986E+00  0.4756E+01
   1.120  0.8572E+00  0.4765E+01
   1.130  0.9168E+00  0.4774E+01
   1.140  0.9766E+00  0.4784E+01
   1.150  0.1036E+01  0.4794E+01
   1.160  0.1094E+01  0.4805E+01
   1.170  0.1150E+01  0.4817E+01
   1.180  0.1203E+01  0.4829E+01
   1.190  0.1252E+01  0.4841E+01
   1.200  0.1297E+01  0.4854E+01
   1.210  0.1337E+01  0.4867E+01
   1.220  0.1371E+01  0.4881E+01
   1.230  0.1399E+01  0.4895E+01
   1.240  0.1421E+01  0.4909E+01
   1.250  0.1437E+01  0.4924E+01
   1.260  0.1446E+01  0.4938E+01
   1.270  0.1449E+01  0.4953E+01
   1.280  0.1447E+01  0.4967E+01
   1.290  0.1439E+01  0.4982E+01
   1.300  0.1426E+01  0.4996E+01
   1.310  0.1408E+01  0.5010E+01
   1.320  0.1387E+01  0.5024E+01
   1.330  0.1363E+01  0.5037E+01
   1.340  0.1336E+01  0.5051E+01
   1.350  0.1308E+01  0.5064E+01
   1.360  0.1279E+01  0.5077E+01
   1.370  0.1248E+01  0.5089E+01
   1.380  0.1218E+01  0.5101E+01
   1.390  0.1189E+01  0.5113E+01
   1.400  0.1160E+01  0.5125E+01
   1.410  0.1132E+01  0.5136E+01
   1.420  0.1106E+01  0.5147E+01
   1.430  0.1081E+01  0.5158E+01
   1.440  0.1058E+01  0.5169E+01
   1.450  0.1037E+01  0.5179E+01
   1.460  0.1017E+01  0.5189E+01
   1.470  0.9988E+00  0.5199E+01
   1.480  0.9820E+00  0.5209E+01
   1.490  0.9663E+00  0.5219E+01
   1.500  0.9516E+00  0.5228E+01
   1.510  0.9378E+00  0.5237E+01
   1.520  0.9247E+00  0.5247E+01
   1.530  0.9120E+00  0.5256E+01
   1.540  0.8998E+00  0.5265E+01
   1.550  0.8878E+00  0.5274E+01
   1.560  0.8761E+00  0.5282E+01
   1.570  0.8646E+00  0.5291E+01
   1.580  0.8534E+00  0.5300E+01
   1.590  0.8426E+00  0.5308E+01
   1.600  0.8322E+00  0.5316E+01
   1.610  0.8224E+00  0.5325E+01
   1.620  0.8134E+00  0.5333E+01
   1.630  0.8053E+00  0.5341E+01
   1.640  0.7983E+00  0.5349E+01
   1.650  0.7924E+00  0.5357E+01
   1.660  0.7877E+00  0.5365E+01
   1.670  0.7843E+00  0.5372E+01
   1.680  0.7822E+00  0.5380E+01
   1.690  0.7813E+00  0.5388E+01
   1.700  0.7815E+00  0.5396E+01
   1.710  0.7826E+00  0.5404E+01
   1.720  0.7845E+00  0.5412E+01
   1.730  0.7871E+00  0.5419E+01
   1.740  0.7899E+00  0.5427E+01
   1.750  0.7930E+00  0.5435E+01
   1.760  0.7960E+00  0.5443E+01
   1.770  0.7989E+00  0.5451E+01
   1.780  0.8016E+00  0.5459E+01
   1.790  0.8041E+00  0.5467E+01
   1.800  0.8064E+00  0.5475E+01
   1.810  0.8085E+00  0.5483E+01
   1.820  0.8106E+00  0.5492E+01
   1.830  0.8128E+00  0.5500E+01
   1.840  0.8154E+00  0.5508E+01
   1.850  0.8183E+00  0.5516E+01
   1.860  0.8219E+00  0.5524E+01
   1.870  0.8262E+00  0.5532E+01
   1.880  0.8311E+00  0.5541E+01
   1.890  0.8369E+00  0.5549E+01
   1.900  0.8432E+00  0.5558E+01
   1.910  0.8502E+00  0.5566E+01
   1.920  0.8575E+00  0.5575E+01
   1.930  0.8649E+00  0.5583E+01
   1.940  0.8723E+00  0.5592E+01
   1.950  0.8794E+00  0.5601E+01
   1.960  0.8860E+00  0.5610E+01
   1.970  0.8918E+00  0.5619E+01
   1.980  0.8967E+00  0.5628E+01
   1.990  0.9005E+00  0.5637E+01
   2.000  0.9032E+00  0.5646E+01
   2.010  0.9047E+00  0.5655E+01
   2.020  0.9051E+00  0.5664E+01
   2.030  0.9045E+00  0.5673E+01
   2.040  0.9029E+00  0.5682E+01
   2.050  0.9006E+00  0.5691E+01
   2.060  0.8976E+00  0.5700E+01
   2.070  0.8942E+00  0.5709E+01
   2.080  0.8905E+00  0.5718E+01
   2.090  0.8866E+00  0.5726E+01
   2.100  0.8827E+00  0.5735E+01
   2.110  0.8789E+00  0.5744E+01
   2.120  0.8753E+00  0.5753E+01
   2.130  0.8719E+00  0.5762E+01
   2.140  0.8687E+00  0.5770E+01
   2.150  0.8657E+00  0.5779E+01
   2.160  0.8631E+00  0.5788E+01
   2.170  0.8607E+00  0.5796E+01
   2.180  0.8587E+00  0.5805E+01
   2.190  0.8570E+00  0.5813E+01
   2.200  0.8556E+00  0.5822E+01
   2.210  0.8546E+00  0.5830E+01
   2.220  0.8540E+00  0.5839E+01
   2.230  0.8538E+00  0.5847E+01
   2.240  0.8541E+00  0.5856E+01
   2.250  0.8548E+00  0.5865E+01
   2.260  0.8559E+00  0.5873E+01
   2.270  0.8574E+00  0.5882E+01
   2.280  0.8592E+00  0.5890E+01
   2.290  0.8611E+00  0.5899E+01
   2.300  0.8630E+00  0.5908E+01
   2.310  0.8648E+00  0.5916E+01
   2.320  0.8663E+00  0.5925E+01
   2.330  0.8674E+00  0.5934E+01
   2.340  0.8679E+00  0.5942E+01
   2.350  0.8676E+00  0.5951E+01
   2.360  0.8666E+00  0.5960E+01
   2.370  0.8649E+00  0.5968E+01
   2.380  0.8625E+00  0.5977E+01
   2.390  0.8595E+00  0.5985E+01
   2.400  0.8562E+00  0.5994E+01
   2.410  0.8527E+00  0.6003E+01
   2.420  0.8494E+00  0.6011E+01
   2.430  0.8466E+00  0.6019E+01
   2.440  0.8445E+00  0.6028E+01
   2.450  0.8435E+00  0.6036E+01
   2.460  0.8438E+00  0.6045E+01
   2.470  0.8457E+00  0.6053E+01
   2.480  0.8491E+00  0.6062E+01
   2.490  0.8543E+00  0.6070E+01
   2.500  0.8612E+00  0.6079E+01
   2.510  0.8696E+00  0.6088E+01
   2.520  0.8794E+00  0.6096E+01
   2.530  0.8903E+00  0.6105E+01
   2.540  0.9021E+00  0.6114E+01
   2.550  0.9144E+00  0.6123E+01
   2.560  0.9270E+00  0.6133E+01
   2.570  0.9395E+00  0.6142E+01
   2.580  0.9516E+00  0.6152E+01
   2.590  0.9631E+00  0.6161E+01
   2.600  0.9738E+00  0.6171E+01
   2.610  0.9835E+00  0.6181E+01
   2.620  0.9922E+00  0.6191E+01
   2.630  0.9998E+00  0.6201E+01
   2.640  0.1006E+01  0.6211E+01
   2.650  0.1012E+01  0.6221E+01
   2.660  0.1016E+01  0.6231E+01
   2.670  0.1020E+01  0.6241E+01
   2.680  0.1023E+01  0.6252E+01
   2.690  0.1025E+01  0.6262E+01
   2.700  0.1027E+01  0.6272E+01
   2.710  0.1028E+01  0.6282E+01
   2.720  0.1029E+01  0.6293E+01
   2.730  0.1030E+01  0.6303E+01
   2.740  0.1030E+01  0.6313E+01
   2.750  0.1031E+01  0.6324E+01
   2.760  0.1031E+01  0.6334E+01
   2.770  0.1032E+01  0.6344E+01
   2.780  0.1033E+01  0.6354E+01
   2.790  0.1033E+01  0.6365E+01
   2.800  0.1034E+01  0.6375E+01
   2.810  0.1036E+01  0.6386E+01
   2.820  0.1037E+01  0.6396E+01
   2.830  0.1039E+01  0.6406E+01
   2.840  0.1041E+01  0.6417E+01
   2.850  0.1043E+01  0.6427E+01
   2.860  0.1046E+01  0.6438E+01
   2.870  0.1049E+01  0.6448E+01
   2.880  0.1052E+01  0.6459E+01
   2.890  0.1055E+01  0.6469E+01
   2.900  0.1058E+01  0.6480E+01
   2.910  0.1061E+01  0.6490E+01
   2.920  0.1064E+01  0.6501E+01
   2.930  0.1066E+01  0.6512E+01
   2.940  0.1069E+01  0.6522E+01
   2.950  0.1070E+01  0.6533E+01
   2.960  0.1072E+01  0.6544E+01
   2.970  0.1072E+01  0.6554E+01
   2.980  0.1072E+01  0.6565E+01
   2.990  0.1072E+01  0.6576E+01
   3.000  0.1071E+01  0.6587E+01
   3.010  0.1069E+01  0.6597E+01
   3.020  0.1066E+01  0.6608E+01
   3.030  0.1064E+01  0.6619E+01
   3.040  0.1060E+01  0.6629E+01
   3.050  0.1057E+01  0.6640E+01
   3.060  0.1053E+01  0.6650E+01
   3.070  0.1050E+01  0.6661E+01
   3.080  0.1047E+01  0.6671E+01
   3.090  0.1044E+01  0.6682E+01
   3.100  0.1041E+01  0.6692E+01
   3.110  0.1039E+01  0.6703E+01
   3.120  0.1038E+01  0.6713E+01
   3.130  0.1038E+01  0.6723E+01
   3.140  0.1039E+01  0.6734E+01
   3.150  0.1041E+01  0.6744E+01
   3.160  0.1044E+01  0.6755E+01
   3.170  0.1048E+01  0.6765E+01
   3.180  0.1053E+01  0.6776E+01
   3.190  0.1059E+01  0.6786E+01
   3.200  0.1066E+01  0.6797E+01
   3.210  0.1073E+01  0.6808E+01
   3.220  0.1080E+01  0.6818E+01
   3.230  0.1088E+01  0.6829E+01
   3.240  0.1095E+01  0.6840E+01
   3.250  0.1102E+01  0.6851E+01
   3.260  0.1109E+01  0.6862E+01
   3.270  0.1115E+01  0.6873E+01
   3.280  0.1120E+01  0.6885E+01
   3.290  0.1125E+01  0.6896E+01
   3.300  0.1128E+01  0.6907E+01
   3.310  0.1131E+01  0.6918E+01
   3.320  0.1133E+01  0.6930E+01
   3.330  0.1134E+01  0.6941E+01
   3.340  0.1135E+01  0.6952E+01
   3.350  0.1134E+01  0.6964E+01
   3.360  0.1134E+01  0.6975E+01
   3.370  0.1132E+01  0.6986E+01
   3.380  0.1131E+01  0.6998E+01
   3.390  0.1129E+01  0.7009E+01
   3.400  0.1128E+01  0.7020E+01
   3.410  0.1126E+01  0.7032E+01
   3.420  0.1125E+01  0.7043E+01
   3.430  0.1125E+01  0.7054E+01
   3.440  0.1125E+01  0.7065E+01
   3.450  0.1126E+01  0.7077E+01
   3.460  0.1128E+01  0.7088E+01
   3.470  0.1132E+01  0.7099E+01
   3.480  0.1137E+01  0.7111E+01
   3.490  0.1143E+01  0.7122E+01
   3.500  0.1152E+01  0.7134E+01
   3.510  0.1162E+01  0.7145E+01
   3.520  0.1175E+01  0.7157E+01
   3.530  0.1190E+01  0.7169E+01
   3.540  0.1206E+01  0.7181E+01
   3.550  0.1225E+01  0.7193E+01
   3.560  0.1246E+01  0.7206E+01
   3.570  0.1268E+01  0.7218E+01
   3.580  0.1291E+01  0.7231E+01
   3.590  0.1316E+01  0.7244E+01
   3.600  0.1341E+01  0.7258E+01
   3.610  0.1366E+01  0.7271E+01
   3.620  0.1392E+01  0.7285E+01
   3.630  0.1416E+01  0.7299E+01
   3.640  0.1440E+01  0.7314E+01
   3.650  0.1462E+01  0.7328E+01
   3.660  0.1481E+01  0.7343E+01
   3.670  0.1499E+01  0.7358E+01
   3.680  0.1513E+01  0.7373E+01
   3.690  0.1524E+01  0.7389E+01
   3.700  0.1531E+01  0.7404E+01
   3.710  0.1534E+01  0.7419E+01
   3.720  0.1532E+01  0.7435E+01
   3.730  0.1525E+01  0.7450E+01
   3.740  0.1513E+01  0.7465E+01
   3.750  0.1496E+01  0.7480E+01
   3.760  0.1473E+01  0.7495E+01
   3.770  0.1445E+01  0.7509E+01
   3.780  0.1412E+01  0.7523E+01
   3.790  0.1375E+01  0.7537E+01
   3.800  0.1332E+01  0.7550E+01
   3.810  0.1286E+01  0.7563E+01
   3.820  0.1236E+01  0.7576E+01
   3.830  0.1183E+01  0.7587E+01
   3.840  0.1128E+01  0.7599E+01
   3.850  0.1073E+01  0.7609E+01
   3.860  0.1016E+01  0.7620E+01
   3.870  0.9610E+00  0.7629E+01
   3.880  0.9070E+00  0.7638E+01
   3.890  0.8553E+00  0.7647E+01
   3.900  0.8065E+00  0.7655E+01
   3.910  0.7613E+00  0.7662E+01
   3.920  0.7202E+00  0.7670E+01
   3.930  0.6835E+00  0.7677E+01
   3.940  0.6515E+00  0.7683E+01
   3.950  0.6243E+00  0.7689E+01
   3.960  0.6017E+00  0.7695E+01
   3.970  0.5836E+00  0.7701E+01
   3.980  0.5697E+00  0.7707E+01
   3.990  0.5595E+00  0.7712E+01
   4.000  0.5526E+00  0.7718E+01
   4.010  0.5485E+00  0.7723E+01
   4.020  0.5466E+00  0.7729E+01
   4.030  0.5463E+00  0.7734E+01
   4.040  0.5471E+00  0.7740E+01
   4.050  0.5486E+00  0.7745E+01
   4.060  0.5502E+00  0.7751E+01
   4.070  0.5517E+00  0.7756E+01
   4.080  0.5528E+00  0.7762E+01
   4.090  0.5531E+00  0.7767E+01
   4.100  0.5527E+00  0.7773E+01
   4.110  0.5514E+00  0.7778E+01
   4.120  0.5493E+00  0.7784E+01
   4.130  0.5464E+00  0.7789E+01
   4.140  0.5428E+00  0.7795E+01
   4.150  0.5388E+00  0.7800E+01
   4.160  0.5344E+00  0.7806E+01
   4.170  0.5299E+00  0.7811E+01
   4.180  0.5255E+00  0.7816E+01
   4.190  0.5214E+00  0.7821E+01
   4.200  0.5179E+00  0.7826E+01
   4.210  0.5152E+00  0.7832E+01
   4.220  0.5135E+00  0.7837E+01
   4.230  0.5130E+00  0.7842E+01
   4.240  0.5138E+00  0.7847E+01
   4.250  0.5162E+00  0.7852E+01
   4.260  0.5202E+00  0.7857E+01
   4.270  0.5259E+00  0.7863E+01
   4.280  0.5333E+00  0.7868E+01
   4.290  0.5424E+00  0.7873E+01
   4.300  0.5531E+00  0.7879E+01
   4.310  0.5654E+00  0.7885E+01
   4.320  0.5791E+00  0.7890E+01
   4.330  0.5940E+00  0.7896E+01
   4.340  0.6098E+00  0.7902E+01
   4.350  0.6264E+00  0.7909E+01
   4.360  0.6434E+00  0.7915E+01
   4.370  0.6605E+00  0.7922E+01
   4.380  0.6775E+00  0.7929E+01
   4.390  0.6940E+00  0.7935E+01
   4.400  0.7099E+00  0.7943E+01
   4.410  0.7247E+00  0.7950E+01
   4.420  0.7384E+00  0.7957E+01
   4.430  0.7506E+00  0.7965E+01
   4.440  0.7614E+00  0.7972E+01
   4.450  0.7704E+00  0.7980E+01
   4.460  0.7778E+00  0.7988E+01
   4.470  0.7833E+00  0.7996E+01
   4.480  0.7872E+00  0.8003E+01
   4.490  0.7893E+00  0.8011E+01
   4.500  0.7898E+00  0.8019E+01
   4.510  0.7888E+00  0.8027E+01
   4.520  0.7866E+00  0.8035E+01
   4.530  0.7833E+00  0.8043E+01
   4.540  0.7790E+00  0.8051E+01
   4.550  0.7741E+00  0.8058E+01
   4.560  0.7689E+00  0.8066E+01
   4.570  0.7634E+00  0.8074E+01
   4.580  0.7580E+00  0.8081E+01
   4.590  0.7529E+00  0.8089E+01
   4.600  0.7482E+00  0.8096E+01
   4.610  0.7441E+00  0.8104E+01
   4.620  0.7407E+00  0.8111E+01
   4.630  0.7380E+00  0.8119E+01
   4.640  0.7361E+00  0.8126E+01
   4.650  0.7349E+00  0.8133E+01
   4.660  0.7344E+00  0.8141E+01
   4.670  0.7345E+00  0.8148E+01
   4.680  0.7349E+00  0.8155E+01
   4.690  0.7357E+00  0.8163E+01
   4.700  0.7366E+00  0.8170E+01
   4.710  0.7375E+00  0.8177E+01
   4.720  0.7383E+00  0.8185E+01
   4.730  0.7388E+00  0.8192E+01
   4.740  0.7391E+00  0.8200E+01
   4.750  0.7390E+00  0.8207E+01
   4.760  0.7386E+00  0.8214E+01
   4.770  0.7380E+00  0.8222E+01
   4.780  0.7372E+00  0.8229E+01
   4.790  0.7363E+00  0.8236E+01
   4.800  0.7355E+00  0.8244E+01
   4.810  0.7350E+00  0.8251E+01
   4.820  0.7349E+00  0.8258E+01
   4.830  0.7354E+00  0.8266E+01
   4.840  0.7366E+00  0.8273E+01
   4.850  0.7385E+00  0.8281E+01
   4.860  0.7414E+00  0.8288E+01
   4.870  0.7451E+00  0.8295E+01
   4.880  0.7496E+00  0.8303E+01
   4.890  0.7550E+00  0.8311E+01
   4.900  0.7610E+00  0.8318E+01
   4.910  0.7676E+00  0.8326E+01
   4.920  0.7745E+00  0.8334E+01
   4.930  0.7817E+00  0.8341E+01
   4.940  0.7890E+00  0.8349E+01
   4.950  0.7963E+00  0.8357E+01
   4.960  0.8033E+00  0.8365E+01
   4.970  0.8101E+00  0.8373E+01
   4.980  0.8165E+00  0.8382E+01
   4.990  0.8226E+00  0.8390E+01
   5.000  0.8282E+00  0.8398E+01
   5.010  0.8335E+00  0.8406E+01
   5.020  0.8385E+00  0.8415E+01
   5.030  0.8432E+00  0.8423E+01
   5.040  0.8477E+00  0.8432E+01
   5.050  0.8522E+00  0.8440E+01
   5.060  0.8566E+00  0.8449E+01
   5.070  0.8612E+00  0.8457E+01
   5.080  0.8660E+00  0.8466E+01
   5.090  0.8711E+00  0.8475E+01
   5.100  0.8767E+00  0.8483E+01
   5.110  0.8830E+00  0.8492E+01
   5.120  0.8902E+00  0.8501E+01
   5.130  0.8986E+00  0.8510E+01
   5.140  0.9084E+00  0.8519E+01
   5.150  0.9201E+00  0.8528E+01
   5.160  0.9340E+00  0.8538E+01
   5.170  0.9506E+00  0.8547E+01
   5.180  0.9704E+00  0.8557E+01
   5.190  0.9938E+00  0.8567E+01
   5.200  0.1021E+01  0.8577E+01
   5.210  0.1054E+01  0.8588E+01
   5.220  0.1091E+01  0.8599E+01
   5.230  0.1133E+01  0.8610E+01
   5.240  0.1181E+01  0.8622E+01
   5.250  0.1235E+01  0.8634E+01
   5.260  0.1294E+01  0.8647E+01
   5.270  0.1358E+01  0.8661E+01
   5.280  0.1426E+01  0.8675E+01
   5.290  0.1499E+01  0.8690E+01
   5.300  0.1575E+01  0.8706E+01
   5.310  0.1653E+01  0.8722E+01
   5.320  0.1732E+01  0.8739E+01
   5.330  0.1811E+01  0.8758E+01
   5.340  0.1887E+01  0.8776E+01
   5.350  0.1961E+01  0.8796E+01
   5.360  0.2029E+01  0.8816E+01
   5.370  0.2091E+01  0.8837E+01
   5.380  0.2146E+01  0.8859E+01
   5.390  0.2191E+01  0.8881E+01
   5.400  0.2227E+01  0.8903E+01
   5.410  0.2252E+01  0.8925E+01
   5.420  0.2266E+01  0.8948E+01
   5.430  0.2268E+01  0.8971E+01
   5.440  0.2258E+01  0.8993E+01
   5.450  0.2237E+01  0.9016E+01
   5.460  0.2205E+01  0.9038E+01
   5.470  0.2163E+01  0.9059E+01
   5.480  0.2112E+01  0.9081E+01
   5.490  0.2053E+01  0.9101E+01
   5.500  0.1988E+01  0.9121E+01
   5.510  0.1917E+01  0.9140E+01
   5.520  0.1843E+01  0.9159E+01
   5.530  0.1767E+01  0.9176E+01
   5.540  0.1690E+01  0.9193E+01
   5.550  0.1613E+01  0.9209E+01
   5.560  0.1537E+01  0.9225E+01
   5.570  0.1463E+01  0.9239E+01
   5.580  0.1393E+01  0.9253E+01
   5.590  0.1325E+01  0.9266E+01
   5.600  0.1262E+01  0.9279E+01
   5.610  0.1202E+01  0.9291E+01
   5.620  0.1147E+01  0.9303E+01
   5.630  0.1096E+01  0.9313E+01
   5.640  0.1049E+01  0.9324E+01
   5.650  0.1006E+01  0.9334E+01
   5.660  0.9664E+00  0.9344E+01
   5.670  0.9309E+00  0.9353E+01
   5.680  0.8990E+00  0.9362E+01
   5.690  0.8707E+00  0.9371E+01
   5.700  0.8457E+00  0.9379E+01
   5.710  0.8242E+00  0.9387E+01
   5.720  0.8059E+00  0.9395E+01
   5.730  0.7910E+00  0.9403E+01
   5.740  0.7793E+00  0.9411E+01
   5.750  0.7709E+00  0.9419E+01
   5.760  0.7657E+00  0.9427E+01
   5.770  0.7638E+00  0.9434E+01
   5.780  0.7650E+00  0.9442E+01
   5.790  0.7693E+00  0.9449E+01
   5.800  0.7765E+00  0.9457E+01
   5.810  0.7865E+00  0.9465E+01
   5.820  0.7990E+00  0.9473E+01
   5.830  0.8138E+00  0.9481E+01
   5.840  0.8305E+00  0.9490E+01
   5.850  0.8488E+00  0.9498E+01
   5.860  0.8683E+00  0.9507E+01
   5.870  0.8885E+00  0.9516E+01
   5.880  0.9089E+00  0.9525E+01
   5.890  0.9293E+00  0.9534E+01
   5.900  0.9490E+00  0.9543E+01
   5.910  0.9678E+00  0.9553E+01
   5.920  0.9853E+00  0.9563E+01
   5.930  0.1001E+01  0.9573E+01
   5.940  0.1015E+01  0.9583E+01
   5.950  0.1027E+01  0.9593E+01
   5.960  0.1038E+01  0.9604E+01
   5.970  0.1046E+01  0.9614E+01
   5.980  0.1052E+01  0.9625E+01
   5.990  0.1056E+01  0.9635E+01
   6.000  0.1059E+01  0.9646E+01
   6.010  0.1060E+01  0.9657E+01
   6.020  0.1060E+01  0.9667E+01
   6.030  0.1059E+01  0.9678E+01
   6.040  0.1057E+01  0.9688E+01
   6.050  0.1054E+01  0.9699E+01
   6.060  0.1050E+01  0.9709E+01
   6.070  0.1046E+01  0.9720E+01
   6.080  0.1041E+01  0.9730E+01
   6.090  0.1035E+01  0.9741E+01
   6.100  0.1028E+01  0.9751E+01
   6.110  0.1021E+01  0.9761E+01
   6.120  0.1013E+01  0.9771E+01
   6.130  0.1004E+01  0.9781E+01
   6.140  0.9937E+00  0.9791E+01
   6.150  0.9828E+00  0.9801E+01
   6.160  0.9710E+00  0.9811E+01
   6.170  0.9585E+00  0.9820E+01
   6.180  0.9453E+00  0.9830E+01
   6.190  0.9317E+00  0.9839E+01
   6.200  0.9178E+00  0.9848E+01
   6.210  0.9038E+00  0.9857E+01
   6.220  0.8901E+00  0.9866E+01
   6.230  0.8767E+00  0.9875E+01
   6.240  0.8641E+00  0.9884E+01
   6.250  0.8523E+00  0.9892E+01
   6.260  0.8416E+00  0.9901E+01
   6.270  0.8322E+00  0.9909E+01
   6.280  0.8242E+00  0.9917E+01
   6.290  0.8178E+00  0.9925E+01
   6.300  0.8130E+00  0.9933E+01
   6.310  0.8099E+00  0.9941E+01
   6.320  0.8085E+00  0.9950E+01
   6.330  0.8088E+00  0.9958E+01
   6.340  0.8107E+00  0.9966E+01
   6.350  0.8143E+00  0.9974E+01
   6.360  0.8194E+00  0.9982E+01
   6.370  0.8258E+00  0.9990E+01
   6.380  0.8335E+00  0.9999E+01
   6.390  0.8421E+00  0.1001E+02
   6.400  0.8516E+00  0.1002E+02
   6.410  0.8617E+00  0.1002E+02
   6.420  0.8720E+00  0.1003E+02
   6.430  0.8825E+00  0.1004E+02
   6.440  0.8926E+00  0.1005E+02
   6.450  0.9023E+00  0.1006E+02
   6.460  0.9112E+00  0.1007E+02
   6.470  0.9190E+00  0.1008E+02
   6.480  0.9255E+00  0.1009E+02
   6.490  0.9306E+00  0.1010E+02
   6.500  0.9340E+00  0.1011E+02
   6.510  0.9356E+00  0.1012E+02
   6.520  0.9354E+00  0.1012E+02
   6.530  0.9334E+00  0.1013E+02
   6.540  0.9295E+00  0.1014E+02
   6.550  0.9240E+00  0.1015E+02
   6.560  0.9169E+00  0.1016E+02
   6.570  0.9084E+00  0.1017E+02
   6.580  0.8987E+00  0.1018E+02
   6.590  0.8882E+00  0.1019E+02
   6.600  0.8770E+00  0.1020E+02
   6.610  0.8655E+00  0.1021E+02
   6.620  0.8540E+00  0.1021E+02
   6.630  0.8426E+00  0.1022E+02
   6.640  0.8318E+00  0.1023E+02
   6.650  0.8216E+00  0.1024E+02
   6.660  0.8123E+00  0.1025E+02
   6.670  0.8040E+00  0.1026E+02
   6.680  0.7968E+00  0.1026E+02
   6.690  0.7908E+00  0.1027E+02
   6.700  0.7859E+00  0.1028E+02
   6.710  0.7821E+00  0.1029E+02
   6.720  0.7792E+00  0.1030E+02
   6.730  0.7772E+00  0.1030E+02
   6.740  0.7759E+00  0.1031E+02
   6.750  0.7752E+00  0.1032E+02
   6.760  0.7747E+00  0.1033E+02
   6.770  0.7744E+00  0.1033E+02
   6.780  0.7740E+00  0.1034E+02
   6.790  0.7735E+00  0.1035E+02
   6.800  0.7727E+00  0.1036E+02
   6.810  0.7715E+00  0.1036E+02
   6.820  0.7700E+00  0.1037E+02
   6.830  0.7682E+00  0.1038E+02
   6.840  0.7663E+00  0.1039E+02
   6.850  0.7642E+00  0.1040E+02
   6.860  0.7624E+00  0.1040E+02
   6.870  0.7611E+00  0.1041E+02
   6.880  0.7604E+00  0.1042E+02
   6.890  0.7608E+00  0.1043E+02
   6.900  0.7625E+00  0.1043E+02
   6.910  0.7658E+00  0.1044E+02
   6.920  0.7709E+00  0.1045E+02
   6.930  0.7780E+00  0.1046E+02
   6.940  0.7872E+00  0.1046E+02
   6.950  0.7985E+00  0.1047E+02
   6.960  0.8118E+00  0.1048E+02
   6.970  0.8270E+00  0.1049E+02
   6.980  0.8438E+00  0.1050E+02
   6.990  0.8619E+00  0.1051E+02
   7.000  0.8808E+00  0.1051E+02
   7.010  0.9000E+00  0.1052E+02
   7.020  0.9191E+00  0.1053E+02
   7.030  0.9373E+00  0.1054E+02
   7.040  0.9542E+00  0.1055E+02
   7.050  0.9692E+00  0.1056E+02
   7.060  0.9818E+00  0.1057E+02
   7.070  0.9915E+00  0.1058E+02
   7.080  0.9980E+00  0.1059E+02
   7.090  0.1001E+01  0.1060E+02
   7.100  0.1000E+01  0.1061E+02
   7.110  0.9958E+00  0.1062E+02
   7.120  0.9876E+00  0.1063E+02
   7.130  0.9759E+00  0.1064E+02
   7.140  0.9609E+00  0.1065E+02
   7.150  0.9431E+00  0.1066E+02
   7.160  0.9229E+00  0.1067E+02
   7.170  0.9009E+00  0.1068E+02
   7.180  0.8776E+00  0.1069E+02
   7.190  0.8537E+00  0.1070E+02
   7.200  0.8298E+00  0.1070E+02
   7.210  0.8065E+00  0.1071E+02
   7.220  0.7843E+00  0.1072E+02
   7.230  0.7638E+00  0.1073E+02
   7.240  0.7453E+00  0.1073E+02
   7.250  0.7291E+00  0.1074E+02
   7.260  0.7155E+00  0.1075E+02
   7.270  0.7045E+00  0.1076E+02
   7.280  0.6962E+00  0.1076E+02
   7.290  0.6905E+00  0.1077E+02
   7.300  0.6871E+00  0.1078E+02
   7.310  0.6858E+00  0.1078E+02
   7.320  0.6863E+00  0.1079E+02
   7.330  0.6883E+00  0.1080E+02
   7.340  0.6915E+00  0.1080E+02
   7.350  0.6955E+00  0.1081E+02
   7.360  0.7000E+00  0.1082E+02
   7.370  0.7050E+00  0.1083E+02
   7.380  0.7102E+00  0.1083E+02
   7.390  0.7155E+00  0.1084E+02
   7.400  0.7210E+00  0.1085E+02
   7.410  0.7268E+00  0.1085E+02
   7.420  0.7330E+00  0.1086E+02
   7.430  0.7397E+00  0.1087E+02
   7.440  0.7473E+00  0.1088E+02
   7.450  0.7559E+00  0.1088E+02
   7.460  0.7657E+00  0.1089E+02
   7.470  0.7769E+00  0.1090E+02
   7.480  0.7895E+00  0.1091E+02
   7.490  0.8036E+00  0.1092E+02
   7.500  0.8191E+00  0.1092E+02
   7.510  0.8358E+00  0.1093E+02
   7.520  0.8533E+00  0.1094E+02
   7.530  0.8713E+00  0.1095E+02
   7.540  0.8892E+00  0.1096E+02
   7.550  0.9065E+00  0.1097E+02
   7.560  0.9225E+00  0.1098E+02
   7.570  0.9367E+00  0.1099E+02
   7.580  0.9484E+00  0.1100E+02
   7.590  0.9570E+00  0.1100E+02
   7.600  0.9621E+00  0.1101E+02
   7.610  0.9633E+00  0.1102E+02
   7.620  0.9602E+00  0.1103E+02
   7.630  0.9528E+00  0.1104E+02
   7.640  0.9412E+00  0.1105E+02
   7.650  0.9254E+00  0.1106E+02
   7.660  0.9059E+00  0.1107E+02
   7.670  0.8830E+00  0.1108E+02
   7.680  0.8575E+00  0.1109E+02
   7.690  0.8299E+00  0.1110E+02
   7.700  0.8010E+00  0.1110E+02
   7.710  0.7716E+00  0.1111E+02
   7.720  0.7425E+00  0.1112E+02
   7.730  0.7144E+00  0.1113E+02
   7.740  0.6881E+00  0.1113E+02
   7.750  0.6643E+00  0.1114E+02
   7.760  0.6434E+00  0.1115E+02
   7.770  0.6260E+00  0.1115E+02
   7.780  0.6125E+00  0.1116E+02
   7.790  0.6029E+00  0.1117E+02
   7.800  0.5976E+00  0.1117E+02
   7.810  0.5963E+00  0.1118E+02
   7.820  0.5991E+00  0.1118E+02
   7.830  0.6057E+00  0.1119E+02
   7.840  0.6156E+00  0.1120E+02
   7.850  0.6286E+00  0.1120E+02
   7.860  0.6441E+00  0.1121E+02
   7.870  0.6615E+00  0.1121E+02
   7.880  0.6804E+00  0.1122E+02
   7.890  0.7001E+00  0.1123E+02
   7.900  0.7200E+00  0.1124E+02
   7.910  0.7398E+00  0.1124E+02
   7.920  0.7588E+00  0.1125E+02
   7.930  0.7766E+00  0.1126E+02
   7.940  0.7930E+00  0.1127E+02
   7.950  0.8076E+00  0.1127E+02
   7.960  0.8204E+00  0.1128E+02
   7.970  0.8313E+00  0.1129E+02
   7.980  0.8402E+00  0.1130E+02
   7.990  0.8473E+00  0.1131E+02
   8.000  0.8528E+00  0.1132E+02
   8.010  0.8567E+00  0.1133E+02
   8.020  0.8594E+00  0.1133E+02
   8.030  0.8609E+00  0.1134E+02
   8.040  0.8616E+00  0.1135E+02
   8.050  0.8616E+00  0.1136E+02
   8.060  0.8609E+00  0.1137E+02
   8.070  0.8596E+00  0.1138E+02
   8.080  0.8578E+00  0.1139E+02
   8.090  0.8553E+00  0.1139E+02
   8.100  0.8521E+00  0.1140E+02
   8.110  0.8481E+00  0.1141E+02
   8.120  0.8430E+00  0.1142E+02
   8.130  0.8369E+00  0.1143E+02
   8.140  0.8295E+00  0.1144E+02
   8.150  0.8210E+00  0.1144E+02
   8.160  0.8111E+00  0.1145E+02
   8.170  0.8002E+00  0.1146E+02
   8.180  0.7882E+00  0.1147E+02
   8.190  0.7756E+00  0.1148E+02
   8.200  0.7625E+00  0.1148E+02
   8.210  0.7494E+00  0.1149E+02
   8.220  0.7366E+00  0.1150E+02
   8.230  0.7247E+00  0.1151E+02
   8.240  0.7140E+00  0.1151E+02
   8.250  0.7049E+00  0.1152E+02
   8.260  0.6977E+00  0.1153E+02
   8.270  0.6928E+00  0.1153E+02
   8.280  0.6902E+00  0.1154E+02
   8.290  0.6902E+00  0.1155E+02
   8.300  0.6927E+00  0.1155E+02
   8.310  0.6977E+00  0.1156E+02
   8.320  0.7050E+00  0.1157E+02
   8.330  0.7145E+00  0.1158E+02
   8.340  0.7259E+00  0.1158E+02
   8.350  0.7390E+00  0.1159E+02
   8.360  0.7535E+00  0.1160E+02
   8.370  0.7693E+00  0.1161E+02
   8.380  0.7860E+00  0.1161E+02
   8.390  0.8037E+00  0.1162E+02
   8.400  0.8221E+00  0.1163E+02
   8.410  0.8410E+00  0.1164E+02
   8.420  0.8605E+00  0.1165E+02
   8.430  0.8804E+00  0.1166E+02
   8.440  0.9007E+00  0.1166E+02
   8.450  0.9211E+00  0.1167E+02
   8.460  0.9417E+00  0.1168E+02
   8.470  0.9623E+00  0.1169E+02
   8.480  0.9826E+00  0.1170E+02
   8.490  0.1003E+01  0.1171E+02
   8.500  0.1022E+01  0.1172E+02
   8.510  0.1041E+01  0.1173E+02
   8.520  0.1058E+01  0.1174E+02
   8.530  0.1075E+01  0.1175E+02
   8.540  0.1090E+01  0.1177E+02
   8.550  0.1103E+01  0.1178E+02
   8.560  0.1115E+01  0.1179E+02
   8.570  0.1125E+01  0.1180E+02
   8.580  0.1133E+01  0.1181E+02
   8.590  0.1139E+01  0.1182E+02
   8.600  0.1144E+01  0.1183E+02
   8.610  0.1147E+01  0.1184E+02
   8.620  0.1148E+01  0.1186E+02
   8.630  0.1147E+01  0.1187E+02
   8.640  0.1144E+01  0.1188E+02
   8.650  0.1140E+01  0.1189E+02
   8.660  0.1134E+01  0.1190E+02
   8.670  0.1126E+01  0.1191E+02
   8.680  0.1117E+01  0.1192E+02
   8.690  0.1106E+01  0.1194E+02
   8.700  0.1093E+01  0.1195E+02
   8.710  0.1079E+01  0.1196E+02
   8.720  0.1063E+01  0.1197E+02
   8.730  0.1045E+01  0.1198E+02
   8.740  0.1027E+01  0.1199E+02
   8.750  0.1007E+01  0.1200E+02
   8.760  0.9856E+00  0.1201E+02
   8.770  0.9637E+00  0.1202E+02
   8.780  0.9412E+00  0.1203E+02
   8.790  0.9183E+00  0.1204E+02
   8.800  0.8953E+00  0.1205E+02
   8.810  0.8726E+00  0.1205E+02
   8.820  0.8505E+00  0.1206E+02
   8.830  0.8292E+00  0.1207E+02
   8.840  0.8092E+00  0.1208E+02
   8.850  0.7906E+00  0.1209E+02
   8.860  0.7738E+00  0.1209E+02
   8.870  0.7590E+00  0.1210E+02
   8.880  0.7462E+00  0.1211E+02
   8.890  0.7358E+00  0.1212E+02
   8.900  0.7278E+00  0.1212E+02
   8.910  0.7221E+00  0.1213E+02
   8.920  0.7188E+00  0.1214E+02
   8.930  0.7178E+00  0.1215E+02
   8.940  0.7189E+00  0.1215E+02
   8.950  0.7221E+00  0.1216E+02
   8.960  0.7270E+00  0.1217E+02
   8.970  0.7335E+00  0.1217E+02
   8.980  0.7413E+00  0.1218E+02
   8.990  0.7500E+00  0.1219E+02
   9.000  0.7592E+00  0.1220E+02
   9.010  0.7687E+00  0.1220E+02
   9.020  0.7780E+00  0.1221E+02
   9.030  0.7867E+00  0.1222E+02
   9.040  0.7944E+00  0.1223E+02
   9.050  0.8007E+00  0.1224E+02
   9.060  0.8052E+00  0.1224E+02
   9.070  0.8075E+00  0.1225E+02
   9.080  0.8073E+00  0.1226E+02
   9.090  0.8044E+00  0.1227E+02
   9.100  0.7986E+00  0.1228E+02
   9.110  0.7897E+00  0.1228E+02
   9.120  0.7778E+00  0.1229E+02
   9.130  0.7629E+00  0.1230E+02
   9.140  0.7453E+00  0.1231E+02
   9.150  0.7251E+00  0.1231E+02
   9.160  0.7028E+00  0.1232E+02
   9.170  0.6786E+00  0.1233E+02
   9.180  0.6532E+00  0.1234E+02
   9.190  0.6268E+00  0.1234E+02
   9.200  0.6000E+00  0.1235E+02
   9.210  0.5733E+00  0.1235E+02
   9.220  0.5471E+00  0.1236E+02
   9.230  0.5216E+00  0.1236E+02
   9.240  0.4973E+00  0.1237E+02
   9.250  0.4743E+00  0.1237E+02
   9.260  0.4527E+00  0.1238E+02
   9.270  0.4326E+00  0.1238E+02
   9.280  0.4140E+00  0.1239E+02
   9.290  0.3967E+00  0.1239E+02
   9.300  0.3806E+00  0.1239E+02
   9.310  0.3656E+00  0.1240E+02
   9.320  0.3514E+00  0.1240E+02
   9.330  0.3378E+00  0.1240E+02
   9.340  0.3247E+00  0.1241E+02
   9.350  0.3118E+00  0.1241E+02
   9.360  0.2991E+00  0.1241E+02
   9.370  0.2866E+00  0.1242E+02
   9.380  0.2741E+00  0.1242E+02
   9.390  0.2618E+00  0.1242E+02
   9.400  0.2498E+00  0.1242E+02
   9.410  0.2381E+00  0.1243E+02
   9.420  0.2270E+00  0.1243E+02
   9.430  0.2167E+00  0.1243E+02
   9.440  0.2073E+00  0.1243E+02
   9.450  0.1992E+00  0.1244E+02
   9.460  0.1924E+00  0.1244E+02
   9.470  0.1871E+00  0.1244E+02
   9.480  0.1835E+00  0.1244E+02
   9.490  0.1817E+00  0.1244E+02
   9.500  0.1817E+00  0.1245E+02
   9.510  0.1834E+00  0.1245E+02
   9.520  0.1869E+00  0.1245E+02
   9.530  0.1918E+00  0.1245E+02
   9.540  0.1981E+00  0.1245E+02
   9.550  0.2055E+00  0.1245E+02
   9.560  0.2137E+00  0.1246E+02
   9.570  0.2223E+00  0.1246E+02
   9.580  0.2310E+00  0.1246E+02
   9.590  0.2395E+00  0.1246E+02
   9.600  0.2474E+00  0.1247E+02
   9.610  0.2543E+00  0.1247E+02
   9.620  0.2601E+00  0.1247E+02
   9.630  0.2643E+00  0.1247E+02
   9.640  0.2669E+00  0.1248E+02
   9.650  0.2677E+00  0.1248E+02
   9.660  0.2666E+00  0.1248E+02
   9.670  0.2636E+00  0.1248E+02
   9.680  0.2589E+00  0.1249E+02
   9.690  0.2524E+00  0.1249E+02
   9.700  0.2444E+00  0.1249E+02
   9.710  0.2352E+00  0.1249E+02
   9.720  0.2249E+00  0.1250E+02
   9.730  0.2139E+00  0.1250E+02
   9.740  0.2025E+00  0.1250E+02
   9.750  0.1910E+00  0.1250E+02
   9.760  0.1797E+00  0.1250E+02
   9.770  0.1687E+00  0.1251E+02
   9.780  0.1585E+00  0.1251E+02
   9.790  0.1492E+00  0.1251E+02
   9.800  0.1409E+00  0.1251E+02
   9.810  0.1338E+00  0.1251E+02
   9.820  0.1279E+00  0.1251E+02
   9.830  0.1233E+00  0.1251E+02
   9.840  0.1200E+00  0.1252E+02
   9.850  0.1179E+00  0.1252E+02
   9.860  0.1169E+00  0.1252E+02
   9.870  0.1170E+00  0.1252E+02
   9.880  0.1181E+00  0.1252E+02
   9.890  0.1199E+00  0.1252E+02
   9.900  0.1224E+00  0.1252E+02
   9.910  0.1254E+00  0.1252E+02
   9.920  0.1287E+00  0.1253E+02
   9.930  0.1322E+00  0.1253E+02
   9.940  0.1359E+00  0.1253E+02
   9.950  0.1395E+00  0.1253E+02
   9.960  0.1430E+00  0.1253E+02
   9.970  0.1463E+00  0.1253E+02
   9.980  0.1495E+00  0.1253E+02
   9.990  0.1524E+00  0.1254E+02
  10.000  0.1551E+00  0.1254E+02
