#  E (eV)   dos(E)     Int dos(E) EFermi =   -2.630 eV
 -10.000  0.4635E+00  0.4635E-02
  -9.990  0.4649E+00  0.9284E-02
  -9.980  0.4663E+00  0.1395E-01
  -9.970  0.4675E+00  0.1862E-01
  -9.960  0.4685E+00  0.2331E-01
  -9.950  0.4693E+00  0.2800E-01
  -9.940  0.4698E+00  0.3270E-01
  -9.930  0.4701E+00  0.3740E-01
  -9.920  0.4702E+00  0.4210E-01
  -9.910  0.4701E+00  0.4680E-01
  -9.900  0.4698E+00  0.5150E-01
  -9.890  0.4695E+00  0.5620E-01
  -9.880  0.4692E+00  0.6089E-01
  -9.870  0.4689E+00  0.6558E-01
  -9.860  0.4688E+00  0.7026E-01
  -9.850  0.4688E+00  0.7495E-01
  -9.840  0.4690E+00  0.7964E-01
  -9.830  0.4694E+00  0.8434E-01
  -9.820  0.4700E+00  0.8904E-01
  -9.810  0.4708E+00  0.9374E-01
  -9.800  0.4718E+00  0.9846E-01
  -9.790  0.4729E+00  0.1032E+00
  -9.780  0.4741E+00  0.1079E+00
  -9.770  0.4753E+00  0.1127E+00
  -9.760  0.4766E+00  0.1174E+00
  -9.750  0.4779E+00  0.1222E+00
  -9.740  0.4790E+00  0.1270E+00
  -9.730  0.4801E+00  0.1318E+00
  -9.720  0.4811E+00  0.1366E+00
  -9.710  0.4819E+00  0.1414E+00
  -9.700  0.4825E+00  0.1463E+00
  -9.690  0.4829E+00  0.1511E+00
  -9.680  0.4831E+00  0.1559E+00
  -9.670  0.4832E+00  0.1608E+00
  -9.660  0.4831E+00  0.1656E+00
  -9.650  0.4829E+00  0.1704E+00
  -9.640  0.4827E+00  0.1753E+00
  -9.630  0.4825E+00  0.1801E+00
  -9.620  0.4824E+00  0.1849E+00
  -9.610  0.4824E+00  0.1897E+00
  -9.600  0.4825E+00  0.1945E+00
  -9.590  0.4829E+00  0.1994E+00
  -9.580  0.4835E+00  0.2042E+00
  -9.570  0.4844E+00  0.2091E+00
  -9.560  0.4855E+00  0.2139E+00
  -9.550  0.4868E+00  0.2188E+00
  -9.540  0.4882E+00  0.2237E+00
  -9.530  0.4898E+00  0.2286E+00
  -9.520  0.4913E+00  0.2335E+00
  -9.510  0.4928E+00  0.2384E+00
  -9.500  0.4942E+00  0.2433E+00
  -9.490  0.4954E+00  0.2483E+00
  -9.480  0.4964E+00  0.2533E+00
  -9.470  0.4971E+00  0.2582E+00
  -9.460  0.4977E+00  0.2632E+00
  -9.450  0.4980E+00  0.2682E+00
  -9.440  0.4981E+00  0.2732E+00
  -9.430  0.4981E+00  0.2782E+00
  -9.420  0.4981E+00  0.2831E+00
  -9.410  0.4981E+00  0.2881E+00
  -9.400  0.4981E+00  0.2931E+00
  -9.390  0.4983E+00  0.2981E+00
  -9.380  0.4987E+00  0.3031E+00
  -9.370  0.4993E+00  0.3081E+00
  -9.360  0.5000E+00  0.3131E+00
  -9.350  0.5009E+00  0.3181E+00
  -9.340  0.5020E+00  0.3231E+00
  -9.330  0.5032E+00  0.3281E+00
  -9.320  0.5044E+00  0.3332E+00
  -9.310  0.5056E+00  0.3382E+00
  -9.300  0.5067E+00  0.3433E+00
  -9.290  0.5078E+00  0.3484E+00
  -9.280  0.5088E+00  0.3535E+00
  -9.270  0.5096E+00  0.3585E+00
  -9.260  0.5104E+00  0.3637E+00
  -9.250  0.5111E+00  0.3688E+00
  -9.240  0.5118E+00  0.3739E+00
  -9.230  0.5125E+00  0.3790E+00
  -9.220  0.5133E+00  0.3841E+00
  -9.210  0.5142E+00  0.3893E+00
  -9.200  0.5152E+00  0.3944E+00
  -9.190  0.5163E+00  0.3996E+00
  -9.180  0.5175E+00  0.4048E+00
  -9.170  0.5189E+00  0.4100E+00
  -9.160  0.5202E+00  0.4152E+00
  -9.150  0.5216E+00  0.4204E+00
  -9.140  0.5229E+00  0.4256E+00
  -9.130  0.5241E+00  0.4308E+00
  -9.120  0.5252E+00  0.4361E+00
  -9.110  0.5261E+00  0.4414E+00
  -9.100  0.5269E+00  0.4466E+00
  -9.090  0.5276E+00  0.4519E+00
  -9.080  0.5283E+00  0.4572E+00
  -9.070  0.5290E+00  0.4625E+00
  -9.060  0.5299E+00  0.4678E+00
  -9.050  0.5310E+00  0.4731E+00
  -9.040  0.5325E+00  0.4784E+00
  -9.030  0.5346E+00  0.4838E+00
  -9.020  0.5372E+00  0.4891E+00
  -9.010  0.5406E+00  0.4945E+00
  -9.000  0.5448E+00  0.5000E+00
  -8.990  0.5498E+00  0.5055E+00
  -8.980  0.5557E+00  0.5110E+00
  -8.970  0.5625E+00  0.5167E+00
  -8.960  0.5700E+00  0.5224E+00
  -8.950  0.5782E+00  0.5281E+00
  -8.940  0.5872E+00  0.5340E+00
  -8.930  0.5967E+00  0.5400E+00
  -8.920  0.6066E+00  0.5461E+00
  -8.910  0.6170E+00  0.5522E+00
  -8.900  0.6276E+00  0.5585E+00
  -8.890  0.6385E+00  0.5649E+00
  -8.880  0.6496E+00  0.5714E+00
  -8.870  0.6609E+00  0.5780E+00
  -8.860  0.6722E+00  0.5847E+00
  -8.850  0.6836E+00  0.5915E+00
  -8.840  0.6951E+00  0.5985E+00
  -8.830  0.7067E+00  0.6056E+00
  -8.820  0.7183E+00  0.6127E+00
  -8.810  0.7298E+00  0.6200E+00
  -8.800  0.7414E+00  0.6275E+00
  -8.790  0.7528E+00  0.6350E+00
  -8.780  0.7640E+00  0.6426E+00
  -8.770  0.7751E+00  0.6504E+00
  -8.760  0.7857E+00  0.6582E+00
  -8.750  0.7960E+00  0.6662E+00
  -8.740  0.8057E+00  0.6743E+00
  -8.730  0.8149E+00  0.6824E+00
  -8.720  0.8234E+00  0.6906E+00
  -8.710  0.8312E+00  0.6989E+00
  -8.700  0.8383E+00  0.7073E+00
  -8.690  0.8445E+00  0.7158E+00
  -8.680  0.8500E+00  0.7243E+00
  -8.670  0.8548E+00  0.7328E+00
  -8.660  0.8588E+00  0.7414E+00
  -8.650  0.8622E+00  0.7500E+00
  -8.640  0.8651E+00  0.7587E+00
  -8.630  0.8674E+00  0.7674E+00
  -8.620  0.8694E+00  0.7761E+00
  -8.610  0.8710E+00  0.7848E+00
  -8.600  0.8724E+00  0.7935E+00
  -8.590  0.8737E+00  0.8022E+00
  -8.580  0.8750E+00  0.8110E+00
  -8.570  0.8762E+00  0.8197E+00
  -8.560  0.8775E+00  0.8285E+00
  -8.550  0.8790E+00  0.8373E+00
  -8.540  0.8806E+00  0.8461E+00
  -8.530  0.8824E+00  0.8549E+00
  -8.520  0.8844E+00  0.8638E+00
  -8.510  0.8866E+00  0.8726E+00
  -8.500  0.8891E+00  0.8815E+00
  -8.490  0.8918E+00  0.8905E+00
  -8.480  0.8946E+00  0.8994E+00
  -8.470  0.8977E+00  0.9084E+00
  -8.460  0.9009E+00  0.9174E+00
  -8.450  0.9043E+00  0.9264E+00
  -8.440  0.9077E+00  0.9355E+00
  -8.430  0.9112E+00  0.9446E+00
  -8.420  0.9146E+00  0.9538E+00
  -8.410  0.9180E+00  0.9629E+00
  -8.400  0.9213E+00  0.9722E+00
  -8.390  0.9245E+00  0.9814E+00
  -8.380  0.9274E+00  0.9907E+00
  -8.370  0.9302E+00  0.1000E+01
  -8.360  0.9327E+00  0.1009E+01
  -8.350  0.9350E+00  0.1019E+01
  -8.340  0.9372E+00  0.1028E+01
  -8.330  0.9392E+00  0.1037E+01
  -8.320  0.9411E+00  0.1047E+01
  -8.310  0.9430E+00  0.1056E+01
  -8.300  0.9450E+00  0.1066E+01
  -8.290  0.9471E+00  0.1075E+01
  -8.280  0.9494E+00  0.1085E+01
  -8.270  0.9519E+00  0.1094E+01
  -8.260  0.9548E+00  0.1104E+01
  -8.250  0.9581E+00  0.1113E+01
  -8.240  0.9618E+00  0.1123E+01
  -8.230  0.9659E+00  0.1133E+01
  -8.220  0.9703E+00  0.1142E+01
  -8.210  0.9752E+00  0.1152E+01
  -8.200  0.9804E+00  0.1162E+01
  -8.190  0.9858E+00  0.1172E+01
  -8.180  0.9914E+00  0.1182E+01
  -8.170  0.9972E+00  0.1192E+01
  -8.160  0.1003E+01  0.1202E+01
  -8.150  0.1009E+01  0.1212E+01
  -8.140  0.1015E+01  0.1222E+01
  -8.130  0.1020E+01  0.1232E+01
  -8.120  0.1026E+01  0.1242E+01
  -8.110  0.1032E+01  0.1253E+01
  -8.100  0.1037E+01  0.1263E+01
  -8.090  0.1043E+01  0.1273E+01
  -8.080  0.1048E+01  0.1284E+01
  -8.070  0.1054E+01  0.1294E+01
  -8.060  0.1060E+01  0.1305E+01
  -8.050  0.1067E+01  0.1316E+01
  -8.040  0.1073E+01  0.1326E+01
  -8.030  0.1080E+01  0.1337E+01
  -8.020  0.1088E+01  0.1348E+01
  -8.010  0.1097E+01  0.1359E+01
  -8.000  0.1106E+01  0.1370E+01
  -7.990  0.1115E+01  0.1381E+01
  -7.980  0.1126E+01  0.1393E+01
  -7.970  0.1137E+01  0.1404E+01
  -7.960  0.1149E+01  0.1415E+01
  -7.950  0.1162E+01  0.1427E+01
  -7.940  0.1175E+01  0.1439E+01
  -7.930  0.1189E+01  0.1451E+01
  -7.920  0.1203E+01  0.1463E+01
  -7.910  0.1218E+01  0.1475E+01
  -7.900  0.1232E+01  0.1487E+01
  -7.890  0.1246E+01  0.1500E+01
  -7.880  0.1260E+01  0.1512E+01
  -7.870  0.1273E+01  0.1525E+01
  -7.860  0.1286E+01  0.1538E+01
  -7.850  0.1297E+01  0.1551E+01
  -7.840  0.1307E+01  0.1564E+01
  -7.830  0.1315E+01  0.1577E+01
  -7.820  0.1321E+01  0.1590E+01
  -7.810  0.1326E+01  0.1604E+01
  -7.800  0.1329E+01  0.1617E+01
  -7.790  0.1330E+01  0.1630E+01
  -7.780  0.1328E+01  0.1643E+01
  -7.770  0.1325E+01  0.1657E+01
  -7.760  0.1320E+01  0.1670E+01
  -7.750  0.1313E+01  0.1683E+01
  -7.740  0.1305E+01  0.1696E+01
  -7.730  0.1295E+01  0.1709E+01
  -7.720  0.1284E+01  0.1722E+01
  -7.710  0.1273E+01  0.1735E+01
  -7.700  0.1260E+01  0.1747E+01
  -7.690  0.1247E+01  0.1760E+01
  -7.680  0.1233E+01  0.1772E+01
  -7.670  0.1220E+01  0.1784E+01
  -7.660  0.1206E+01  0.1796E+01
  -7.650  0.1193E+01  0.1808E+01
  -7.640  0.1180E+01  0.1820E+01
  -7.630  0.1167E+01  0.1832E+01
  -7.620  0.1155E+01  0.1843E+01
  -7.610  0.1143E+01  0.1855E+01
  -7.600  0.1132E+01  0.1866E+01
  -7.590  0.1121E+01  0.1877E+01
  -7.580  0.1110E+01  0.1888E+01
  -7.570  0.1100E+01  0.1899E+01
  -7.560  0.1090E+01  0.1910E+01
  -7.550  0.1081E+01  0.1921E+01
  -7.540  0.1071E+01  0.1932E+01
  -7.530  0.1062E+01  0.1942E+01
  -7.520  0.1052E+01  0.1953E+01
  -7.510  0.1043E+01  0.1963E+01
  -7.500  0.1035E+01  0.1974E+01
  -7.490  0.1026E+01  0.1984E+01
  -7.480  0.1018E+01  0.1994E+01
  -7.470  0.1010E+01  0.2004E+01
  -7.460  0.1002E+01  0.2014E+01
  -7.450  0.9951E+00  0.2024E+01
  -7.440  0.9885E+00  0.2034E+01
  -7.430  0.9825E+00  0.2044E+01
  -7.420  0.9770E+00  0.2054E+01
  -7.410  0.9721E+00  0.2063E+01
  -7.400  0.9678E+00  0.2073E+01
  -7.390  0.9638E+00  0.2083E+01
  -7.380  0.9603E+00  0.2092E+01
  -7.370  0.9570E+00  0.2102E+01
  -7.360  0.9539E+00  0.2111E+01
  -7.350  0.9509E+00  0.2121E+01
  -7.340  0.9478E+00  0.2130E+01
  -7.330  0.9447E+00  0.2140E+01
  -7.320  0.9413E+00  0.2149E+01
  -7.310  0.9377E+00  0.2159E+01
  -7.300  0.9340E+00  0.2168E+01
  -7.290  0.9299E+00  0.2177E+01
  -7.280  0.9257E+00  0.2186E+01
  -7.270  0.9214E+00  0.2196E+01
  -7.260  0.9169E+00  0.2205E+01
  -7.250  0.9125E+00  0.2214E+01
  -7.240  0.9080E+00  0.2223E+01
  -7.230  0.9037E+00  0.2232E+01
  -7.220  0.8996E+00  0.2241E+01
  -7.210  0.8956E+00  0.2250E+01
  -7.200  0.8918E+00  0.2259E+01
  -7.190  0.8883E+00  0.2268E+01
  -7.180  0.8850E+00  0.2277E+01
  -7.170  0.8819E+00  0.2286E+01
  -7.160  0.8790E+00  0.2294E+01
  -7.150  0.8762E+00  0.2303E+01
  -7.140  0.8736E+00  0.2312E+01
  -7.130  0.8712E+00  0.2321E+01
  -7.120  0.8688E+00  0.2329E+01
  -7.110  0.8666E+00  0.2338E+01
  -7.100  0.8645E+00  0.2347E+01
  -7.090  0.8626E+00  0.2355E+01
  -7.080  0.8607E+00  0.2364E+01
  -7.070  0.8589E+00  0.2372E+01
  -7.060  0.8572E+00  0.2381E+01
  -7.050  0.8555E+00  0.2389E+01
  -7.040  0.8538E+00  0.2398E+01
  -7.030  0.8520E+00  0.2407E+01
  -7.020  0.8502E+00  0.2415E+01
  -7.010  0.8482E+00  0.2424E+01
  -7.000  0.8461E+00  0.2432E+01
  -6.990  0.8437E+00  0.2440E+01
  -6.980  0.8411E+00  0.2449E+01
  -6.970  0.8382E+00  0.2457E+01
  -6.960  0.8352E+00  0.2466E+01
  -6.950  0.8320E+00  0.2474E+01
  -6.940  0.8287E+00  0.2482E+01
  -6.930  0.8255E+00  0.2490E+01
  -6.920  0.8223E+00  0.2499E+01
  -6.910  0.8192E+00  0.2507E+01
  -6.900  0.8164E+00  0.2515E+01
  -6.890  0.8140E+00  0.2523E+01
  -6.880  0.8119E+00  0.2531E+01
  -6.870  0.8102E+00  0.2539E+01
  -6.860  0.8089E+00  0.2547E+01
  -6.850  0.8079E+00  0.2556E+01
  -6.840  0.8073E+00  0.2564E+01
  -6.830  0.8068E+00  0.2572E+01
  -6.820  0.8065E+00  0.2580E+01
  -6.810  0.8061E+00  0.2588E+01
  -6.800  0.8057E+00  0.2596E+01
  -6.790  0.8051E+00  0.2604E+01
  -6.780  0.8042E+00  0.2612E+01
  -6.770  0.8029E+00  0.2620E+01
  -6.760  0.8014E+00  0.2628E+01
  -6.750  0.7994E+00  0.2636E+01
  -6.740  0.7972E+00  0.2644E+01
  -6.730  0.7946E+00  0.2652E+01
  -6.720  0.7919E+00  0.2660E+01
  -6.710  0.7891E+00  0.2668E+01
  -6.700  0.7863E+00  0.2676E+01
  -6.690  0.7837E+00  0.2683E+01
  -6.680  0.7812E+00  0.2691E+01
  -6.670  0.7789E+00  0.2699E+01
  -6.660  0.7770E+00  0.2707E+01
  -6.650  0.7754E+00  0.2715E+01
  -6.640  0.7741E+00  0.2722E+01
  -6.630  0.7731E+00  0.2730E+01
  -6.620  0.7724E+00  0.2738E+01
  -6.610  0.7718E+00  0.2745E+01
  -6.600  0.7714E+00  0.2753E+01
  -6.590  0.7710E+00  0.2761E+01
  -6.580  0.7705E+00  0.2769E+01
  -6.570  0.7700E+00  0.2776E+01
  -6.560  0.7693E+00  0.2784E+01
  -6.550  0.7684E+00  0.2792E+01
  -6.540  0.7673E+00  0.2799E+01
  -6.530  0.7661E+00  0.2807E+01
  -6.520  0.7647E+00  0.2815E+01
  -6.510  0.7631E+00  0.2822E+01
  -6.500  0.7616E+00  0.2830E+01
  -6.490  0.7600E+00  0.2837E+01
  -6.480  0.7584E+00  0.2845E+01
  -6.470  0.7569E+00  0.2853E+01
  -6.460  0.7555E+00  0.2860E+01
  -6.450  0.7541E+00  0.2868E+01
  -6.440  0.7529E+00  0.2875E+01
  -6.430  0.7517E+00  0.2883E+01
  -6.420  0.7506E+00  0.2890E+01
  -6.410  0.7495E+00  0.2898E+01
  -6.400  0.7485E+00  0.2905E+01
  -6.390  0.7474E+00  0.2913E+01
  -6.380  0.7463E+00  0.2920E+01
  -6.370  0.7452E+00  0.2928E+01
  -6.360  0.7442E+00  0.2935E+01
  -6.350  0.7431E+00  0.2943E+01
  -6.340  0.7421E+00  0.2950E+01
  -6.330  0.7411E+00  0.2957E+01
  -6.320  0.7403E+00  0.2965E+01
  -6.310  0.7395E+00  0.2972E+01
  -6.300  0.7389E+00  0.2980E+01
  -6.290  0.7384E+00  0.2987E+01
  -6.280  0.7379E+00  0.2994E+01
  -6.270  0.7375E+00  0.3002E+01
  -6.260  0.7371E+00  0.3009E+01
  -6.250  0.7367E+00  0.3016E+01
  -6.240  0.7362E+00  0.3024E+01
  -6.230  0.7356E+00  0.3031E+01
  -6.220  0.7349E+00  0.3038E+01
  -6.210  0.7340E+00  0.3046E+01
  -6.200  0.7330E+00  0.3053E+01
  -6.190  0.7318E+00  0.3060E+01
  -6.180  0.7305E+00  0.3068E+01
  -6.170  0.7292E+00  0.3075E+01
  -6.160  0.7278E+00  0.3082E+01
  -6.150  0.7264E+00  0.3090E+01
  -6.140  0.7252E+00  0.3097E+01
  -6.130  0.7240E+00  0.3104E+01
  -6.120  0.7230E+00  0.3111E+01
  -6.110  0.7222E+00  0.3119E+01
  -6.100  0.7215E+00  0.3126E+01
  -6.090  0.7211E+00  0.3133E+01
  -6.080  0.7208E+00  0.3140E+01
  -6.070  0.7207E+00  0.3147E+01
  -6.060  0.7207E+00  0.3155E+01
  -6.050  0.7207E+00  0.3162E+01
  -6.040  0.7208E+00  0.3169E+01
  -6.030  0.7209E+00  0.3176E+01
  -6.020  0.7209E+00  0.3183E+01
  -6.010  0.7208E+00  0.3191E+01
  -6.000  0.7205E+00  0.3198E+01
  -5.990  0.7201E+00  0.3205E+01
  -5.980  0.7195E+00  0.3212E+01
  -5.970  0.7187E+00  0.3219E+01
  -5.960  0.7178E+00  0.3227E+01
  -5.950  0.7167E+00  0.3234E+01
  -5.940  0.7155E+00  0.3241E+01
  -5.930  0.7143E+00  0.3248E+01
  -5.920  0.7132E+00  0.3255E+01
  -5.910  0.7121E+00  0.3262E+01
  -5.900  0.7111E+00  0.3269E+01
  -5.890  0.7103E+00  0.3277E+01
  -5.880  0.7098E+00  0.3284E+01
  -5.870  0.7094E+00  0.3291E+01
  -5.860  0.7093E+00  0.3298E+01
  -5.850  0.7094E+00  0.3305E+01
  -5.840  0.7097E+00  0.3312E+01
  -5.830  0.7101E+00  0.3319E+01
  -5.820  0.7106E+00  0.3326E+01
  -5.810  0.7111E+00  0.3333E+01
  -5.800  0.7115E+00  0.3340E+01
  -5.790  0.7119E+00  0.3348E+01
  -5.780  0.7120E+00  0.3355E+01
  -5.770  0.7120E+00  0.3362E+01
  -5.760  0.7117E+00  0.3369E+01
  -5.750  0.7113E+00  0.3376E+01
  -5.740  0.7106E+00  0.3383E+01
  -5.730  0.7098E+00  0.3390E+01
  -5.720  0.7089E+00  0.3397E+01
  -5.710  0.7080E+00  0.3404E+01
  -5.700  0.7071E+00  0.3412E+01
  -5.690  0.7064E+00  0.3419E+01
  -5.680  0.7057E+00  0.3426E+01
  -5.670  0.7053E+00  0.3433E+01
  -5.660  0.7050E+00  0.3440E+01
  -5.650  0.7051E+00  0.3447E+01
  -5.640  0.7053E+00  0.3454E+01
  -5.630  0.7057E+00  0.3461E+01
  -5.620  0.7063E+00  0.3468E+01
  -5.610  0.7071E+00  0.3475E+01
  -5.600  0.7078E+00  0.3482E+01
  -5.590  0.7086E+00  0.3489E+01
  -5.580  0.7093E+00  0.3496E+01
  -5.570  0.7099E+00  0.3503E+01
  -5.560  0.7104E+00  0.3510E+01
  -5.550  0.7106E+00  0.3518E+01
  -5.540  0.7107E+00  0.3525E+01
  -5.530  0.7105E+00  0.3532E+01
  -5.520  0.7102E+00  0.3539E+01
  -5.510  0.7098E+00  0.3546E+01
  -5.500  0.7093E+00  0.3553E+01
  -5.490  0.7088E+00  0.3560E+01
  -5.480  0.7083E+00  0.3567E+01
  -5.470  0.7079E+00  0.3574E+01
  -5.460  0.7077E+00  0.3581E+01
  -5.450  0.7077E+00  0.3588E+01
  -5.440  0.7079E+00  0.3596E+01
  -5.430  0.7083E+00  0.3603E+01
  -5.420  0.7090E+00  0.3610E+01
  -5.410  0.7098E+00  0.3617E+01
  -5.400  0.7109E+00  0.3624E+01
  -5.390  0.7121E+00  0.3631E+01
  -5.380  0.7133E+00  0.3638E+01
  -5.370  0.7145E+00  0.3645E+01
  -5.360  0.7156E+00  0.3653E+01
  -5.350  0.7166E+00  0.3660E+01
  -5.340  0.7174E+00  0.3667E+01
  -5.330  0.7180E+00  0.3674E+01
  -5.320  0.7183E+00  0.3681E+01
  -5.310  0.7185E+00  0.3688E+01
  -5.300  0.7185E+00  0.3696E+01
  -5.290  0.7183E+00  0.3703E+01
  -5.280  0.7180E+00  0.3710E+01
  -5.270  0.7177E+00  0.3717E+01
  -5.260  0.7173E+00  0.3724E+01
  -5.250  0.7170E+00  0.3731E+01
  -5.240  0.7168E+00  0.3739E+01
  -5.230  0.7166E+00  0.3746E+01
  -5.220  0.7165E+00  0.3753E+01
  -5.210  0.7164E+00  0.3760E+01
  -5.200  0.7162E+00  0.3767E+01
  -5.190  0.7158E+00  0.3774E+01
  -5.180  0.7153E+00  0.3782E+01
  -5.170  0.7143E+00  0.3789E+01
  -5.160  0.7128E+00  0.3796E+01
  -5.150  0.7108E+00  0.3803E+01
  -5.140  0.7080E+00  0.3810E+01
  -5.130  0.7044E+00  0.3817E+01
  -5.120  0.7000E+00  0.3824E+01
  -5.110  0.6947E+00  0.3831E+01
  -5.100  0.6886E+00  0.3838E+01
  -5.090  0.6816E+00  0.3845E+01
  -5.080  0.6740E+00  0.3851E+01
  -5.070  0.6657E+00  0.3858E+01
  -5.060  0.6570E+00  0.3865E+01
  -5.050  0.6479E+00  0.3871E+01
  -5.040  0.6387E+00  0.3878E+01
  -5.030  0.6295E+00  0.3884E+01
  -5.020  0.6204E+00  0.3890E+01
  -5.010  0.6116E+00  0.3896E+01
  -5.000  0.6033E+00  0.3902E+01
  -4.990  0.5954E+00  0.3908E+01
  -4.980  0.5880E+00  0.3914E+01
  -4.970  0.5813E+00  0.3920E+01
  -4.960  0.5753E+00  0.3926E+01
  -4.950  0.5699E+00  0.3931E+01
  -4.940  0.5651E+00  0.3937E+01
  -4.930  0.5611E+00  0.3943E+01
  -4.920  0.5576E+00  0.3948E+01
  -4.910  0.5548E+00  0.3954E+01
  -4.900  0.5527E+00  0.3959E+01
  -4.890  0.5513E+00  0.3965E+01
  -4.880  0.5505E+00  0.3970E+01
  -4.870  0.5505E+00  0.3976E+01
  -4.860  0.5512E+00  0.3981E+01
  -4.850  0.5527E+00  0.3987E+01
  -4.840  0.5550E+00  0.3992E+01
  -4.830  0.5581E+00  0.3998E+01
  -4.820  0.5621E+00  0.4004E+01
  -4.810  0.5668E+00  0.4009E+01
  -4.800  0.5724E+00  0.4015E+01
  -4.790  0.5787E+00  0.4021E+01
  -4.780  0.5858E+00  0.4027E+01
  -4.770  0.5935E+00  0.4033E+01
  -4.760  0.6018E+00  0.4039E+01
  -4.750  0.6106E+00  0.4045E+01
  -4.740  0.6198E+00  0.4051E+01
  -4.730  0.6295E+00  0.4057E+01
  -4.720  0.6396E+00  0.4064E+01
  -4.710  0.6499E+00  0.4070E+01
  -4.700  0.6606E+00  0.4077E+01
  -4.690  0.6717E+00  0.4083E+01
  -4.680  0.6829E+00  0.4090E+01
  -4.670  0.6945E+00  0.4097E+01
  -4.660  0.7062E+00  0.4104E+01
  -4.650  0.7181E+00  0.4111E+01
  -4.640  0.7301E+00  0.4119E+01
  -4.630  0.7420E+00  0.4126E+01
  -4.620  0.7537E+00  0.4134E+01
  -4.610  0.7651E+00  0.4141E+01
  -4.600  0.7758E+00  0.4149E+01
  -4.590  0.7857E+00  0.4157E+01
  -4.580  0.7946E+00  0.4165E+01
  -4.570  0.8021E+00  0.4173E+01
  -4.560  0.8082E+00  0.4181E+01
  -4.550  0.8126E+00  0.4189E+01
  -4.540  0.8153E+00  0.4197E+01
  -4.530  0.8160E+00  0.4205E+01
  -4.520  0.8148E+00  0.4214E+01
  -4.510  0.8117E+00  0.4222E+01
  -4.500  0.8068E+00  0.4230E+01
  -4.490  0.8001E+00  0.4238E+01
  -4.480  0.7919E+00  0.4246E+01
  -4.470  0.7823E+00  0.4253E+01
  -4.460  0.7716E+00  0.4261E+01
  -4.450  0.7599E+00  0.4269E+01
  -4.440  0.7475E+00  0.4276E+01
  -4.430  0.7346E+00  0.4284E+01
  -4.420  0.7213E+00  0.4291E+01
  -4.410  0.7078E+00  0.4298E+01
  -4.400  0.6943E+00  0.4305E+01
  -4.390  0.6808E+00  0.4312E+01
  -4.380  0.6674E+00  0.4318E+01
  -4.370  0.6543E+00  0.4325E+01
  -4.360  0.6414E+00  0.4331E+01
  -4.350  0.6289E+00  0.4338E+01
  -4.340  0.6167E+00  0.4344E+01
  -4.330  0.6050E+00  0.4350E+01
  -4.320  0.5937E+00  0.4356E+01
  -4.310  0.5829E+00  0.4362E+01
  -4.300  0.5726E+00  0.4367E+01
  -4.290  0.5628E+00  0.4373E+01
  -4.280  0.5535E+00  0.4378E+01
  -4.270  0.5447E+00  0.4384E+01
  -4.260  0.5364E+00  0.4389E+01
  -4.250  0.5285E+00  0.4395E+01
  -4.240  0.5211E+00  0.4400E+01
  -4.230  0.5139E+00  0.4405E+01
  -4.220  0.5072E+00  0.4410E+01
  -4.210  0.5006E+00  0.4415E+01
  -4.200  0.4944E+00  0.4420E+01
  -4.190  0.4883E+00  0.4425E+01
  -4.180  0.4824E+00  0.4430E+01
  -4.170  0.4767E+00  0.4434E+01
  -4.160  0.4711E+00  0.4439E+01
  -4.150  0.4657E+00  0.4444E+01
  -4.140  0.4605E+00  0.4448E+01
  -4.130  0.4553E+00  0.4453E+01
  -4.120  0.4504E+00  0.4457E+01
  -4.110  0.4456E+00  0.4462E+01
  -4.100  0.4409E+00  0.4466E+01
  -4.090  0.4363E+00  0.4471E+01
  -4.080  0.4319E+00  0.4475E+01
  -4.070  0.4276E+00  0.4479E+01
  -4.060  0.4234E+00  0.4483E+01
  -4.050  0.4193E+00  0.4488E+01
  -4.040  0.4153E+00  0.4492E+01
  -4.030  0.4113E+00  0.4496E+01
  -4.020  0.4075E+00  0.4500E+01
  -4.010  0.4037E+00  0.4504E+01
  -4.000  0.3999E+00  0.4508E+01
  -3.990  0.3963E+00  0.4512E+01
  -3.980  0.3927E+00  0.4516E+01
  -3.970  0.3891E+00  0.4520E+01
  -3.960  0.3856E+00  0.4524E+01
  -3.950  0.3822E+00  0.4527E+01
  -3.940  0.3788E+00  0.4531E+01
  -3.930  0.3754E+00  0.4535E+01
  -3.920  0.3721E+00  0.4539E+01
  -3.910  0.3687E+00  0.4542E+01
  -3.900  0.3654E+00  0.4546E+01
  -3.890  0.3620E+00  0.4550E+01
  -3.880  0.3586E+00  0.4553E+01
  -3.870  0.3551E+00  0.4557E+01
  -3.860  0.3515E+00  0.4560E+01
  -3.850  0.3478E+00  0.4564E+01
  -3.840  0.3439E+00  0.4567E+01
  -3.830  0.3397E+00  0.4571E+01
  -3.820  0.3353E+00  0.4574E+01
  -3.810  0.3305E+00  0.4577E+01
  -3.800  0.3253E+00  0.4581E+01
  -3.790  0.3197E+00  0.4584E+01
  -3.780  0.3136E+00  0.4587E+01
  -3.770  0.3070E+00  0.4590E+01
  -3.760  0.2997E+00  0.4593E+01
  -3.750  0.2918E+00  0.4596E+01
  -3.740  0.2832E+00  0.4599E+01
  -3.730  0.2739E+00  0.4601E+01
  -3.720  0.2640E+00  0.4604E+01
  -3.710  0.2533E+00  0.4607E+01
  -3.700  0.2421E+00  0.4609E+01
  -3.690  0.2302E+00  0.4611E+01
  -3.680  0.2178E+00  0.4614E+01
  -3.670  0.2049E+00  0.4616E+01
  -3.660  0.1917E+00  0.4618E+01
  -3.650  0.1783E+00  0.4619E+01
  -3.640  0.1648E+00  0.4621E+01
  -3.630  0.1513E+00  0.4622E+01
  -3.620  0.1380E+00  0.4624E+01
  -3.610  0.1250E+00  0.4625E+01
  -3.600  0.1123E+00  0.4626E+01
  -3.590  0.1002E+00  0.4627E+01
  -3.580  0.8875E-01  0.4628E+01
  -3.570  0.7796E-01  0.4629E+01
  -3.560  0.6794E-01  0.4630E+01
  -3.550  0.5871E-01  0.4630E+01
  -3.540  0.5032E-01  0.4631E+01
  -3.530  0.4276E-01  0.4631E+01
  -3.520  0.3602E-01  0.4631E+01
  -3.510  0.3008E-01  0.4632E+01
  -3.500  0.2489E-01  0.4632E+01
  -3.490  0.2042E-01  0.4632E+01
  -3.480  0.1659E-01  0.4632E+01
  -3.470  0.1336E-01  0.4633E+01
  -3.460  0.1066E-01  0.4633E+01
  -3.450  0.8425E-02  0.4633E+01
  -3.440  0.6596E-02  0.4633E+01
  -3.430  0.5115E-02  0.4633E+01
  -3.420  0.3928E-02  0.4633E+01
  -3.410  0.2988E-02  0.4633E+01
  -3.400  0.2251E-02  0.4633E+01
  -3.390  0.1679E-02  0.4633E+01
  -3.380  0.1240E-02  0.4633E+01
  -3.370  0.9070E-03  0.4633E+01
  -3.360  0.6568E-03  0.4633E+01
  -3.350  0.4709E-03  0.4633E+01
  -3.340  0.3343E-03  0.4633E+01
  -3.330  0.2349E-03  0.4633E+01
  -3.320  0.1634E-03  0.4633E+01
  -3.310  0.1125E-03  0.4633E+01
  -3.300  0.7672E-04  0.4633E+01
  -3.290  0.5177E-04  0.4633E+01
  -3.280  0.3458E-04  0.4633E+01
  -3.270  0.2286E-04  0.4633E+01
  -3.260  0.1496E-04  0.4633E+01
  -3.250  0.9693E-05  0.4633E+01
  -3.240  0.6214E-05  0.4633E+01
  -3.230  0.3943E-05  0.4633E+01
  -3.220  0.2476E-05  0.4633E+01
  -3.210  0.1539E-05  0.4633E+01
  -3.200  0.9468E-06  0.4633E+01
  -3.190  0.5764E-06  0.4633E+01
  -3.180  0.3473E-06  0.4633E+01
  -3.170  0.2070E-06  0.4633E+01
  -3.160  0.1222E-06  0.4633E+01
  -3.150  0.7134E-07  0.4633E+01
  -3.140  0.4122E-07  0.4633E+01
  -3.130  0.2357E-07  0.4633E+01
  -3.120  0.1334E-07  0.4633E+01
  -3.110  0.7469E-08  0.4633E+01
  -3.100  0.4139E-08  0.4633E+01
  -3.090  0.2270E-08  0.4633E+01
  -3.080  0.1231E-08  0.4633E+01
  -3.070  0.6612E-09  0.4633E+01
  -3.060  0.3513E-09  0.4633E+01
  -3.050  0.1847E-09  0.4633E+01
  -3.040  0.9606E-10  0.4633E+01
  -3.030  0.4945E-10  0.4633E+01
  -3.020  0.2518E-10  0.4633E+01
  -3.010  0.1269E-10  0.4633E+01
  -3.000  0.6329E-11  0.4633E+01
  -2.990  0.3123E-11  0.4633E+01
  -2.980  0.1524E-11  0.4633E+01
  -2.970  0.7364E-12  0.4633E+01
  -2.960  0.3520E-12  0.4633E+01
  -2.950  0.1665E-12  0.4633E+01
  -2.940  0.7789E-13  0.4633E+01
  -2.930  0.3606E-13  0.4633E+01
  -2.920  0.1652E-13  0.4633E+01
  -2.910  0.7487E-14  0.4633E+01
  -2.900  0.3358E-14  0.4633E+01
  -2.890  0.1490E-14  0.4633E+01
  -2.880  0.6540E-15  0.4633E+01
  -2.870  0.2841E-15  0.4633E+01
  -2.860  0.1221E-15  0.4633E+01
  -2.850  0.5191E-16  0.4633E+01
  -2.840  0.2184E-16  0.4633E+01
  -2.830  0.9090E-17  0.4633E+01
  -2.820  0.3743E-17  0.4633E+01
  -2.810  0.1525E-17  0.4633E+01
  -2.800  0.6148E-18  0.4633E+01
  -2.790  0.2452E-18  0.4633E+01
  -2.780  0.9676E-19  0.4633E+01
  -2.770  0.3778E-19  0.4633E+01
  -2.760  0.1459E-19  0.4633E+01
  -2.750  0.5577E-20  0.4633E+01
  -2.740  0.2109E-20  0.4633E+01
  -2.730  0.7888E-21  0.4633E+01
  -2.720  0.2919E-21  0.4633E+01
  -2.710  0.1069E-21  0.4633E+01
  -2.700  0.3872E-22  0.4633E+01
  -2.690  0.1388E-22  0.4633E+01
  -2.680  0.4922E-23  0.4633E+01
  -2.670  0.1727E-23  0.4633E+01
  -2.660  0.5993E-24  0.4633E+01
  -2.650  0.2058E-24  0.4633E+01
  -2.640  0.6992E-25  0.4633E+01
  -2.630  0.2350E-25  0.4633E+01
  -2.620  0.7815E-26  0.4633E+01
  -2.610  0.2571E-26  0.4633E+01
  -2.600  0.8368E-27  0.4633E+01
  -2.590  0.2695E-27  0.4633E+01
  -2.580  0.8585E-28  0.4633E+01
  -2.570  0.2706E-28  0.4633E+01
  -2.560  0.8438E-29  0.4633E+01
  -2.550  0.2603E-29  0.4633E+01
  -2.540  0.7946E-30  0.4633E+01
  -2.530  0.2399E-30  0.4633E+01
  -2.520  0.7168E-31  0.4633E+01
  -2.510  0.2118E-31  0.4633E+01
  -2.500  0.6194E-32  0.4633E+01
  -2.490  0.1792E-32  0.4633E+01
  -2.480  0.5128E-33  0.4633E+01
  -2.470  0.1452E-33  0.4633E+01
  -2.460  0.4068E-34  0.4633E+01
  -2.450  0.1127E-34  0.4633E+01
  -2.440  0.3091E-35  0.4633E+01
  -2.430  0.8383E-36  0.4633E+01
  -2.420  0.2250E-36  0.4633E+01
  -2.410  0.5973E-37  0.4633E+01
  -2.400  0.1569E-37  0.4633E+01
  -2.390  0.4076E-38  0.4633E+01
  -2.380  0.1048E-38  0.4633E+01
  -2.370  0.2665E-39  0.4633E+01
  -2.360  0.6706E-40  0.4633E+01
  -2.350  0.1669E-40  0.4633E+01
  -2.340  0.4111E-41  0.4633E+01
  -2.330  0.1002E-41  0.4633E+01
  -2.320  0.2414E-42  0.4633E+01
  -2.310  0.5756E-43  0.4633E+01
  -2.300  0.1358E-43  0.4633E+01
  -2.290  0.3169E-44  0.4633E+01
  -2.280  0.7318E-45  0.4633E+01
  -2.270  0.1672E-45  0.4633E+01
  -2.260  0.3778E-46  0.4633E+01
  -2.250  0.8446E-47  0.4633E+01
  -2.240  0.1868E-47  0.4633E+01
  -2.230  0.4088E-48  0.4633E+01
  -2.220  0.8850E-49  0.4633E+01
  -2.210  0.1895E-49  0.4633E+01
  -2.200  0.4016E-50  0.4633E+01
  -2.190  0.8418E-51  0.4633E+01
  -2.180  0.1746E-51  0.4633E+01
  -2.170  0.3581E-52  0.4633E+01
  -2.160  0.7269E-53  0.4633E+01
  -2.150  0.1460E-53  0.4633E+01
  -2.140  0.2899E-54  0.4633E+01
  -2.130  0.5698E-55  0.4633E+01
  -2.120  0.1108E-55  0.4633E+01
  -2.110  0.2131E-56  0.4633E+01
  -2.100  0.4055E-57  0.4633E+01
  -2.090  0.7633E-58  0.4633E+01
  -2.080  0.1422E-58  0.4633E+01
  -2.070  0.2619E-59  0.4633E+01
  -2.060  0.4774E-60  0.4633E+01
  -2.050  0.8610E-61  0.4633E+01
  -2.040  0.1536E-61  0.4633E+01
  -2.030  0.2711E-62  0.4633E+01
  -2.020  0.4733E-63  0.4633E+01
  -2.010  0.8176E-64  0.4633E+01
  -2.000  0.1397E-64  0.4633E+01
  -1.990  0.2362E-65  0.4633E+01
  -1.980  0.3951E-66  0.4633E+01
  -1.970  0.6538E-67  0.4633E+01
  -1.960  0.1070E-67  0.4633E+01
  -1.950  0.1733E-68  0.4633E+01
  -1.940  0.2777E-69  0.4633E+01
  -1.930  0.4401E-70  0.4633E+01
  -1.920  0.6901E-71  0.4633E+01
  -1.910  0.1070E-71  0.4633E+01
  -1.900  0.1643E-72  0.4633E+01
  -1.890  0.2494E-73  0.4633E+01
  -1.880  0.3746E-74  0.4633E+01
  -1.870  0.5567E-75  0.4633E+01
  -1.860  0.8183E-76  0.4633E+01
  -1.850  0.1190E-76  0.4633E+01
  -1.840  0.1712E-77  0.4633E+01
  -1.830  0.2437E-78  0.4633E+01
  -1.820  0.3432E-79  0.4633E+01
  -1.810  0.4780E-80  0.4633E+01
  -1.800  0.6590E-81  0.4633E+01
  -1.790  0.9000E-82  0.4633E+01
  -1.780  0.1230E-82  0.4633E+01
  -1.770  0.1800E-83  0.4633E+01
  -1.760  0.3969E-84  0.4633E+01
  -1.750  0.2114E-84  0.4633E+01
  -1.740  0.1872E-84  0.4633E+01
  -1.730  0.1841E-84  0.4633E+01
  -1.720  0.1837E-84  0.4633E+01
  -1.710  0.1836E-84  0.4633E+01
  -1.700  0.1836E-84  0.4633E+01
  -1.690  0.1836E-84  0.4633E+01
  -1.680  0.1836E-84  0.4633E+01
  -1.670  0.1836E-84  0.4633E+01
  -1.660  0.1836E-84  0.4633E+01
  -1.650  0.1836E-84  0.4633E+01
  -1.640  0.1836E-84  0.4633E+01
  -1.630  0.1836E-84  0.4633E+01
  -1.620  0.1836E-84  0.4633E+01
  -1.610  0.1836E-84  0.4633E+01
  -1.600  0.1836E-84  0.4633E+01
  -1.590  0.1836E-84  0.4633E+01
  -1.580  0.1836E-84  0.4633E+01
  -1.570  0.1836E-84  0.4633E+01
  -1.560  0.1836E-84  0.4633E+01
  -1.550  0.1836E-84  0.4633E+01
  -1.540  0.1836E-84  0.4633E+01
  -1.530  0.1836E-84  0.4633E+01
  -1.520  0.1836E-84  0.4633E+01
  -1.510  0.1836E-84  0.4633E+01
  -1.500  0.1836E-84  0.4633E+01
  -1.490  0.1836E-84  0.4633E+01
  -1.480  0.1836E-84  0.4633E+01
  -1.470  0.1836E-84  0.4633E+01
  -1.460  0.1836E-84  0.4633E+01
  -1.450  0.1836E-84  0.4633E+01
  -1.440  0.1836E-84  0.4633E+01
  -1.430  0.1836E-84  0.4633E+01
  -1.420  0.1836E-84  0.4633E+01
  -1.410  0.1836E-84  0.4633E+01
  -1.400  0.1836E-84  0.4633E+01
  -1.390  0.1836E-84  0.4633E+01
  -1.380  0.1836E-84  0.4633E+01
  -1.370  0.1836E-84  0.4633E+01
  -1.360  0.1836E-84  0.4633E+01
  -1.350  0.1836E-84  0.4633E+01
  -1.340  0.1836E-84  0.4633E+01
  -1.330  0.1836E-84  0.4633E+01
  -1.320  0.1836E-84  0.4633E+01
  -1.310  0.1836E-84  0.4633E+01
  -1.300  0.1836E-84  0.4633E+01
  -1.290  0.1836E-84  0.4633E+01
  -1.280  0.1836E-84  0.4633E+01
  -1.270  0.1836E-84  0.4633E+01
  -1.260  0.1836E-84  0.4633E+01
  -1.250  0.1836E-84  0.4633E+01
  -1.240  0.1836E-84  0.4633E+01
  -1.230  0.1836E-84  0.4633E+01
  -1.220  0.1836E-84  0.4633E+01
  -1.210  0.1836E-84  0.4633E+01
  -1.200  0.1836E-84  0.4633E+01
  -1.190  0.1836E-84  0.4633E+01
  -1.180  0.1836E-84  0.4633E+01
  -1.170  0.1836E-84  0.4633E+01
  -1.160  0.1837E-84  0.4633E+01
  -1.150  0.1844E-84  0.4633E+01
  -1.140  0.1894E-84  0.4633E+01
  -1.130  0.2288E-84  0.4633E+01
  -1.120  0.5283E-84  0.4633E+01
  -1.110  0.2785E-83  0.4633E+01
  -1.100  0.1960E-82  0.4633E+01
  -1.090  0.1436E-81  0.4633E+01
  -1.080  0.1048E-80  0.4633E+01
  -1.070  0.7573E-80  0.4633E+01
  -1.060  0.5415E-79  0.4633E+01
  -1.050  0.3830E-78  0.4633E+01
  -1.040  0.2680E-77  0.4633E+01
  -1.030  0.1856E-76  0.4633E+01
  -1.020  0.1271E-75  0.4633E+01
  -1.010  0.8611E-75  0.4633E+01
  -1.000  0.5772E-74  0.4633E+01
  -0.990  0.3827E-73  0.4633E+01
  -0.980  0.2511E-72  0.4633E+01
  -0.970  0.1629E-71  0.4633E+01
  -0.960  0.1046E-70  0.4633E+01
  -0.950  0.6644E-70  0.4633E+01
  -0.940  0.4175E-69  0.4633E+01
  -0.930  0.2595E-68  0.4633E+01
  -0.920  0.1596E-67  0.4633E+01
  -0.910  0.9710E-67  0.4633E+01
  -0.900  0.5844E-66  0.4633E+01
  -0.890  0.3480E-65  0.4633E+01
  -0.880  0.2050E-64  0.4633E+01
  -0.870  0.1195E-63  0.4633E+01
  -0.860  0.6886E-63  0.4633E+01
  -0.850  0.3928E-62  0.4633E+01
  -0.840  0.2216E-61  0.4633E+01
  -0.830  0.1237E-60  0.4633E+01
  -0.820  0.6831E-60  0.4633E+01
  -0.810  0.3732E-59  0.4633E+01
  -0.800  0.2017E-58  0.4633E+01
  -0.790  0.1078E-57  0.4633E+01
  -0.780  0.5704E-57  0.4633E+01
  -0.770  0.2985E-56  0.4633E+01
  -0.760  0.1545E-55  0.4633E+01
  -0.750  0.7914E-55  0.4633E+01
  -0.740  0.4010E-54  0.4633E+01
  -0.730  0.2010E-53  0.4633E+01
  -0.720  0.9966E-53  0.4633E+01
  -0.710  0.4889E-52  0.4633E+01
  -0.700  0.2373E-51  0.4633E+01
  -0.690  0.1139E-50  0.4633E+01
  -0.680  0.5412E-50  0.4633E+01
  -0.670  0.2543E-49  0.4633E+01
  -0.660  0.1182E-48  0.4633E+01
  -0.650  0.5437E-48  0.4633E+01
  -0.640  0.2474E-47  0.4633E+01
  -0.630  0.1114E-46  0.4633E+01
  -0.620  0.4959E-46  0.4633E+01
  -0.610  0.2185E-45  0.4633E+01
  -0.600  0.9523E-45  0.4633E+01
  -0.590  0.4106E-44  0.4633E+01
  -0.580  0.1752E-43  0.4633E+01
  -0.570  0.7392E-43  0.4633E+01
  -0.560  0.3086E-42  0.4633E+01
  -0.550  0.1275E-41  0.4633E+01
  -0.540  0.5209E-41  0.4633E+01
  -0.530  0.2106E-40  0.4633E+01
  -0.520  0.8422E-40  0.4633E+01
  -0.510  0.3332E-39  0.4633E+01
  -0.500  0.1304E-38  0.4633E+01
  -0.490  0.5052E-38  0.4633E+01
  -0.480  0.1935E-37  0.4633E+01
  -0.470  0.7336E-37  0.4633E+01
  -0.460  0.2751E-36  0.4633E+01
  -0.450  0.1020E-35  0.4633E+01
  -0.440  0.3745E-35  0.4633E+01
  -0.430  0.1360E-34  0.4633E+01
  -0.420  0.4885E-34  0.4633E+01
  -0.410  0.1736E-33  0.4633E+01
  -0.400  0.6104E-33  0.4633E+01
  -0.390  0.2123E-32  0.4633E+01
  -0.380  0.7306E-32  0.4633E+01
  -0.370  0.2487E-31  0.4633E+01
  -0.360  0.8378E-31  0.4633E+01
  -0.350  0.2792E-30  0.4633E+01
  -0.340  0.9204E-30  0.4633E+01
  -0.330  0.3002E-29  0.4633E+01
  -0.320  0.9686E-29  0.4633E+01
  -0.310  0.3092E-28  0.4633E+01
  -0.300  0.9766E-28  0.4633E+01
  -0.290  0.3052E-27  0.4633E+01
  -0.280  0.9434E-27  0.4633E+01
  -0.270  0.2885E-26  0.4633E+01
  -0.260  0.8730E-26  0.4633E+01
  -0.250  0.2613E-25  0.4633E+01
  -0.240  0.7740E-25  0.4633E+01
  -0.230  0.2268E-24  0.4633E+01
  -0.220  0.6575E-24  0.4633E+01
  -0.210  0.1886E-23  0.4633E+01
  -0.200  0.5351E-23  0.4633E+01
  -0.190  0.1502E-22  0.4633E+01
  -0.180  0.4172E-22  0.4633E+01
  -0.170  0.1147E-21  0.4633E+01
  -0.160  0.3117E-21  0.4633E+01
  -0.150  0.8384E-21  0.4633E+01
  -0.140  0.2231E-20  0.4633E+01
  -0.130  0.5875E-20  0.4633E+01
  -0.120  0.1530E-19  0.4633E+01
  -0.110  0.3944E-19  0.4633E+01
  -0.100  0.1006E-18  0.4633E+01
  -0.090  0.2537E-18  0.4633E+01
  -0.080  0.6333E-18  0.4633E+01
  -0.070  0.1564E-17  0.4633E+01
  -0.060  0.3821E-17  0.4633E+01
  -0.050  0.9238E-17  0.4633E+01
  -0.040  0.2209E-16  0.4633E+01
  -0.030  0.5229E-16  0.4633E+01
  -0.020  0.1224E-15  0.4633E+01
  -0.010  0.2836E-15  0.4633E+01
   0.000  0.6500E-15  0.4633E+01
   0.010  0.1474E-14  0.4633E+01
   0.020  0.3307E-14  0.4633E+01
   0.030  0.7343E-14  0.4633E+01
   0.040  0.1613E-13  0.4633E+01
   0.050  0.3505E-13  0.4633E+01
   0.060  0.7538E-13  0.4633E+01
   0.070  0.1604E-12  0.4633E+01
   0.080  0.3376E-12  0.4633E+01
   0.090  0.7033E-12  0.4633E+01
   0.100  0.1450E-11  0.4633E+01
   0.110  0.2956E-11  0.4633E+01
   0.120  0.5965E-11  0.4633E+01
   0.130  0.1191E-10  0.4633E+01
   0.140  0.2353E-10  0.4633E+01
   0.150  0.4600E-10  0.4633E+01
   0.160  0.8898E-10  0.4633E+01
   0.170  0.1703E-09  0.4633E+01
   0.180  0.3225E-09  0.4633E+01
   0.190  0.6045E-09  0.4633E+01
   0.200  0.1121E-08  0.4633E+01
   0.210  0.2057E-08  0.4633E+01
   0.220  0.3735E-08  0.4633E+01
   0.230  0.6712E-08  0.4633E+01
   0.240  0.1193E-07  0.4633E+01
   0.250  0.2100E-07  0.4633E+01
   0.260  0.3656E-07  0.4633E+01
   0.270  0.6300E-07  0.4633E+01
   0.280  0.1074E-06  0.4633E+01
   0.290  0.1813E-06  0.4633E+01
   0.300  0.3028E-06  0.4633E+01
   0.310  0.5004E-06  0.4633E+01
   0.320  0.8184E-06  0.4633E+01
   0.330  0.1325E-05  0.4633E+01
   0.340  0.2122E-05  0.4633E+01
   0.350  0.3365E-05  0.4633E+01
   0.360  0.5281E-05  0.4633E+01
   0.370  0.8202E-05  0.4633E+01
   0.380  0.1261E-04  0.4633E+01
   0.390  0.1919E-04  0.4633E+01
   0.400  0.2889E-04  0.4633E+01
   0.410  0.4307E-04  0.4633E+01
   0.420  0.6356E-04  0.4633E+01
   0.430  0.9284E-04  0.4633E+01
   0.440  0.1342E-03  0.4633E+01
   0.450  0.1922E-03  0.4633E+01
   0.460  0.2723E-03  0.4633E+01
   0.470  0.3820E-03  0.4633E+01
   0.480  0.5306E-03  0.4633E+01
   0.490  0.7296E-03  0.4633E+01
   0.500  0.9934E-03  0.4633E+01
   0.510  0.1339E-02  0.4633E+01
   0.520  0.1788E-02  0.4633E+01
   0.530  0.2363E-02  0.4633E+01
   0.540  0.3094E-02  0.4633E+01
   0.550  0.4012E-02  0.4633E+01
   0.560  0.5152E-02  0.4633E+01
   0.570  0.6552E-02  0.4633E+01
   0.580  0.8256E-02  0.4633E+01
   0.590  0.1030E-01  0.4633E+01
   0.600  0.1274E-01  0.4634E+01
   0.610  0.1561E-01  0.4634E+01
   0.620  0.1895E-01  0.4634E+01
   0.630  0.2280E-01  0.4634E+01
   0.640  0.2719E-01  0.4634E+01
   0.650  0.3214E-01  0.4635E+01
   0.660  0.3765E-01  0.4635E+01
   0.670  0.4374E-01  0.4636E+01
   0.680  0.5039E-01  0.4636E+01
   0.690  0.5758E-01  0.4637E+01
   0.700  0.6525E-01  0.4637E+01
   0.710  0.7337E-01  0.4638E+01
   0.720  0.8186E-01  0.4639E+01
   0.730  0.9065E-01  0.4640E+01
   0.740  0.9966E-01  0.4641E+01
   0.750  0.1088E+00  0.4642E+01
   0.760  0.1180E+00  0.4643E+01
   0.770  0.1271E+00  0.4644E+01
   0.780  0.1360E+00  0.4646E+01
   0.790  0.1448E+00  0.4647E+01
   0.800  0.1532E+00  0.4649E+01
   0.810  0.1614E+00  0.4650E+01
   0.820  0.1691E+00  0.4652E+01
   0.830  0.1765E+00  0.4654E+01
   0.840  0.1835E+00  0.4656E+01
   0.850  0.1902E+00  0.4657E+01
   0.860  0.1966E+00  0.4659E+01
   0.870  0.2028E+00  0.4661E+01
   0.880  0.2089E+00  0.4663E+01
   0.890  0.2150E+00  0.4666E+01
   0.900  0.2213E+00  0.4668E+01
   0.910  0.2280E+00  0.4670E+01
   0.920  0.2353E+00  0.4672E+01
   0.930  0.2434E+00  0.4675E+01
   0.940  0.2526E+00  0.4677E+01
   0.950  0.2631E+00  0.4680E+01
   0.960  0.2752E+00  0.4683E+01
   0.970  0.2891E+00  0.4686E+01
   0.980  0.3053E+00  0.4689E+01
   0.990  0.3238E+00  0.4692E+01
   1.000  0.3452E+00  0.4695E+01
   1.010  0.3695E+00  0.4699E+01
   1.020  0.3971E+00  0.4703E+01
   1.030  0.4281E+00  0.4707E+01
   1.040  0.4626E+00  0.4712E+01
   1.050  0.5008E+00  0.4717E+01
   1.060  0.5426E+00  0.4722E+01
   1.070  0.5880E+00  0.4728E+01
   1.080  0.6368E+00  0.4735E+01
   1.090  0.6887E+00  0.4742E+01
   1.100  0.7434E+00  0.4749E+01
   1.110  0.8003E+00  0.4757E+01
   1.120  0.8590E+00  0.4766E+01
   1.130  0.9187E+00  0.4775E+01
   1.140  0.9787E+00  0.4785E+01
   1.150  0.1038E+01  0.4795E+01
   1.160  0.1096E+01  0.4806E+01
   1.170  0.1152E+01  0.4817E+01
   1.180  0.1205E+01  0.4830E+01
   1.190  0.1255E+01  0.4842E+01
   1.200  0.1299E+01  0.4855E+01
   1.210  0.1339E+01  0.4868E+01
   1.220  0.1373E+01  0.4882E+01
   1.230  0.1401E+01  0.4896E+01
   1.240  0.1422E+01  0.4910E+01
   1.250  0.1437E+01  0.4925E+01
   1.260  0.1446E+01  0.4939E+01
   1.270  0.1449E+01  0.4954E+01
   1.280  0.1446E+01  0.4968E+01
   1.290  0.1437E+01  0.4983E+01
   1.300  0.1424E+01  0.4997E+01
   1.310  0.1406E+01  0.5011E+01
   1.320  0.1385E+01  0.5025E+01
   1.330  0.1361E+01  0.5038E+01
   1.340  0.1335E+01  0.5052E+01
   1.350  0.1307E+01  0.5065E+01
   1.360  0.1278E+01  0.5078E+01
   1.370  0.1249E+01  0.5090E+01
   1.380  0.1219E+01  0.5102E+01
   1.390  0.1190E+01  0.5114E+01
   1.400  0.1162E+01  0.5126E+01
   1.410  0.1135E+01  0.5137E+01
   1.420  0.1109E+01  0.5148E+01
   1.430  0.1084E+01  0.5159E+01
   1.440  0.1060E+01  0.5170E+01
   1.450  0.1038E+01  0.5180E+01
   1.460  0.1017E+01  0.5190E+01
   1.470  0.9977E+00  0.5200E+01
   1.480  0.9796E+00  0.5210E+01
   1.490  0.9627E+00  0.5220E+01
   1.500  0.9469E+00  0.5229E+01
   1.510  0.9323E+00  0.5238E+01
   1.520  0.9186E+00  0.5248E+01
   1.530  0.9057E+00  0.5257E+01
   1.540  0.8937E+00  0.5266E+01
   1.550  0.8825E+00  0.5274E+01
   1.560  0.8719E+00  0.5283E+01
   1.570  0.8620E+00  0.5292E+01
   1.580  0.8526E+00  0.5300E+01
   1.590  0.8438E+00  0.5309E+01
   1.600  0.8356E+00  0.5317E+01
   1.610  0.8279E+00  0.5325E+01
   1.620  0.8207E+00  0.5333E+01
   1.630  0.8140E+00  0.5342E+01
   1.640  0.8078E+00  0.5350E+01
   1.650  0.8023E+00  0.5358E+01
   1.660  0.7972E+00  0.5366E+01
   1.670  0.7927E+00  0.5374E+01
   1.680  0.7889E+00  0.5382E+01
   1.690  0.7856E+00  0.5389E+01
   1.700  0.7829E+00  0.5397E+01
   1.710  0.7810E+00  0.5405E+01
   1.720  0.7797E+00  0.5413E+01
   1.730  0.7791E+00  0.5421E+01
   1.740  0.7792E+00  0.5428E+01
   1.750  0.7801E+00  0.5436E+01
   1.760  0.7819E+00  0.5444E+01
   1.770  0.7843E+00  0.5452E+01
   1.780  0.7876E+00  0.5460E+01
   1.790  0.7917E+00  0.5468E+01
   1.800  0.7964E+00  0.5476E+01
   1.810  0.8018E+00  0.5484E+01
   1.820  0.8077E+00  0.5492E+01
   1.830  0.8141E+00  0.5500E+01
   1.840  0.8208E+00  0.5508E+01
   1.850  0.8277E+00  0.5516E+01
   1.860  0.8346E+00  0.5525E+01
   1.870  0.8414E+00  0.5533E+01
   1.880  0.8480E+00  0.5542E+01
   1.890  0.8543E+00  0.5550E+01
   1.900  0.8601E+00  0.5559E+01
   1.910  0.8654E+00  0.5567E+01
   1.920  0.8701E+00  0.5576E+01
   1.930  0.8743E+00  0.5585E+01
   1.940  0.8779E+00  0.5594E+01
   1.950  0.8810E+00  0.5602E+01
   1.960  0.8836E+00  0.5611E+01
   1.970  0.8857E+00  0.5620E+01
   1.980  0.8874E+00  0.5629E+01
   1.990  0.8887E+00  0.5638E+01
   2.000  0.8897E+00  0.5647E+01
   2.010  0.8904E+00  0.5656E+01
   2.020  0.8908E+00  0.5665E+01
   2.030  0.8908E+00  0.5673E+01
   2.040  0.8906E+00  0.5682E+01
   2.050  0.8901E+00  0.5691E+01
   2.060  0.8893E+00  0.5700E+01
   2.070  0.8882E+00  0.5709E+01
   2.080  0.8869E+00  0.5718E+01
   2.090  0.8853E+00  0.5727E+01
   2.100  0.8835E+00  0.5736E+01
   2.110  0.8815E+00  0.5744E+01
   2.120  0.8795E+00  0.5753E+01
   2.130  0.8774E+00  0.5762E+01
   2.140  0.8753E+00  0.5771E+01
   2.150  0.8733E+00  0.5779E+01
   2.160  0.8714E+00  0.5788E+01
   2.170  0.8697E+00  0.5797E+01
   2.180  0.8683E+00  0.5806E+01
   2.190  0.8670E+00  0.5814E+01
   2.200  0.8659E+00  0.5823E+01
   2.210  0.8650E+00  0.5832E+01
   2.220  0.8641E+00  0.5840E+01
   2.230  0.8634E+00  0.5849E+01
   2.240  0.8627E+00  0.5857E+01
   2.250  0.8619E+00  0.5866E+01
   2.260  0.8610E+00  0.5875E+01
   2.270  0.8600E+00  0.5883E+01
   2.280  0.8588E+00  0.5892E+01
   2.290  0.8575E+00  0.5900E+01
   2.300  0.8560E+00  0.5909E+01
   2.310  0.8544E+00  0.5918E+01
   2.320  0.8527E+00  0.5926E+01
   2.330  0.8511E+00  0.5935E+01
   2.340  0.8496E+00  0.5943E+01
   2.350  0.8484E+00  0.5952E+01
   2.360  0.8474E+00  0.5960E+01
   2.370  0.8468E+00  0.5969E+01
   2.380  0.8467E+00  0.5977E+01
   2.390  0.8470E+00  0.5985E+01
   2.400  0.8478E+00  0.5994E+01
   2.410  0.8492E+00  0.6002E+01
   2.420  0.8511E+00  0.6011E+01
   2.430  0.8536E+00  0.6019E+01
   2.440  0.8564E+00  0.6028E+01
   2.450  0.8597E+00  0.6037E+01
   2.460  0.8635E+00  0.6045E+01
   2.470  0.8676E+00  0.6054E+01
   2.480  0.8720E+00  0.6063E+01
   2.490  0.8768E+00  0.6071E+01
   2.500  0.8820E+00  0.6080E+01
   2.510  0.8875E+00  0.6089E+01
   2.520  0.8934E+00  0.6098E+01
   2.530  0.8998E+00  0.6107E+01
   2.540  0.9065E+00  0.6116E+01
   2.550  0.9138E+00  0.6125E+01
   2.560  0.9214E+00  0.6134E+01
   2.570  0.9295E+00  0.6144E+01
   2.580  0.9379E+00  0.6153E+01
   2.590  0.9466E+00  0.6163E+01
   2.600  0.9555E+00  0.6172E+01
   2.610  0.9645E+00  0.6182E+01
   2.620  0.9735E+00  0.6192E+01
   2.630  0.9824E+00  0.6201E+01
   2.640  0.9910E+00  0.6211E+01
   2.650  0.9991E+00  0.6221E+01
   2.660  0.1007E+01  0.6231E+01
   2.670  0.1014E+01  0.6241E+01
   2.680  0.1020E+01  0.6252E+01
   2.690  0.1025E+01  0.6262E+01
   2.700  0.1030E+01  0.6272E+01
   2.710  0.1034E+01  0.6283E+01
   2.720  0.1037E+01  0.6293E+01
   2.730  0.1039E+01  0.6303E+01
   2.740  0.1041E+01  0.6314E+01
   2.750  0.1042E+01  0.6324E+01
   2.760  0.1043E+01  0.6335E+01
   2.770  0.1043E+01  0.6345E+01
   2.780  0.1043E+01  0.6355E+01
   2.790  0.1044E+01  0.6366E+01
   2.800  0.1044E+01  0.6376E+01
   2.810  0.1044E+01  0.6387E+01
   2.820  0.1045E+01  0.6397E+01
   2.830  0.1046E+01  0.6408E+01
   2.840  0.1047E+01  0.6418E+01
   2.850  0.1048E+01  0.6429E+01
   2.860  0.1050E+01  0.6439E+01
   2.870  0.1051E+01  0.6450E+01
   2.880  0.1053E+01  0.6460E+01
   2.890  0.1054E+01  0.6471E+01
   2.900  0.1055E+01  0.6481E+01
   2.910  0.1056E+01  0.6492E+01
   2.920  0.1056E+01  0.6502E+01
   2.930  0.1057E+01  0.6513E+01
   2.940  0.1057E+01  0.6524E+01
   2.950  0.1056E+01  0.6534E+01
   2.960  0.1056E+01  0.6545E+01
   2.970  0.1055E+01  0.6555E+01
   2.980  0.1054E+01  0.6566E+01
   2.990  0.1053E+01  0.6576E+01
   3.000  0.1052E+01  0.6587E+01
   3.010  0.1052E+01  0.6597E+01
   3.020  0.1052E+01  0.6608E+01
   3.030  0.1052E+01  0.6618E+01
   3.040  0.1052E+01  0.6629E+01
   3.050  0.1053E+01  0.6639E+01
   3.060  0.1055E+01  0.6650E+01
   3.070  0.1057E+01  0.6660E+01
   3.080  0.1059E+01  0.6671E+01
   3.090  0.1061E+01  0.6682E+01
   3.100  0.1063E+01  0.6692E+01
   3.110  0.1066E+01  0.6703E+01
   3.120  0.1068E+01  0.6714E+01
   3.130  0.1071E+01  0.6724E+01
   3.140  0.1073E+01  0.6735E+01
   3.150  0.1074E+01  0.6746E+01
   3.160  0.1076E+01  0.6757E+01
   3.170  0.1077E+01  0.6767E+01
   3.180  0.1077E+01  0.6778E+01
   3.190  0.1077E+01  0.6789E+01
   3.200  0.1077E+01  0.6800E+01
   3.210  0.1077E+01  0.6810E+01
   3.220  0.1077E+01  0.6821E+01
   3.230  0.1077E+01  0.6832E+01
   3.240  0.1077E+01  0.6843E+01
   3.250  0.1078E+01  0.6854E+01
   3.260  0.1079E+01  0.6864E+01
   3.270  0.1081E+01  0.6875E+01
   3.280  0.1083E+01  0.6886E+01
   3.290  0.1086E+01  0.6897E+01
   3.300  0.1090E+01  0.6908E+01
   3.310  0.1094E+01  0.6919E+01
   3.320  0.1098E+01  0.6930E+01
   3.330  0.1103E+01  0.6941E+01
   3.340  0.1108E+01  0.6952E+01
   3.350  0.1114E+01  0.6963E+01
   3.360  0.1119E+01  0.6974E+01
   3.370  0.1124E+01  0.6985E+01
   3.380  0.1129E+01  0.6997E+01
   3.390  0.1133E+01  0.7008E+01
   3.400  0.1137E+01  0.7019E+01
   3.410  0.1141E+01  0.7031E+01
   3.420  0.1145E+01  0.7042E+01
   3.430  0.1149E+01  0.7054E+01
   3.440  0.1153E+01  0.7065E+01
   3.450  0.1157E+01  0.7077E+01
   3.460  0.1162E+01  0.7088E+01
   3.470  0.1167E+01  0.7100E+01
   3.480  0.1172E+01  0.7112E+01
   3.490  0.1179E+01  0.7124E+01
   3.500  0.1187E+01  0.7135E+01
   3.510  0.1196E+01  0.7147E+01
   3.520  0.1206E+01  0.7159E+01
   3.530  0.1217E+01  0.7172E+01
   3.540  0.1230E+01  0.7184E+01
   3.550  0.1244E+01  0.7196E+01
   3.560  0.1260E+01  0.7209E+01
   3.570  0.1277E+01  0.7222E+01
   3.580  0.1295E+01  0.7235E+01
   3.590  0.1313E+01  0.7248E+01
   3.600  0.1333E+01  0.7261E+01
   3.610  0.1353E+01  0.7275E+01
   3.620  0.1373E+01  0.7288E+01
   3.630  0.1393E+01  0.7302E+01
   3.640  0.1413E+01  0.7316E+01
   3.650  0.1432E+01  0.7331E+01
   3.660  0.1449E+01  0.7345E+01
   3.670  0.1465E+01  0.7360E+01
   3.680  0.1478E+01  0.7375E+01
   3.690  0.1488E+01  0.7390E+01
   3.700  0.1496E+01  0.7405E+01
   3.710  0.1499E+01  0.7420E+01
   3.720  0.1499E+01  0.7435E+01
   3.730  0.1494E+01  0.7449E+01
   3.740  0.1484E+01  0.7464E+01
   3.750  0.1470E+01  0.7479E+01
   3.760  0.1451E+01  0.7494E+01
   3.770  0.1427E+01  0.7508E+01
   3.780  0.1398E+01  0.7522E+01
   3.790  0.1365E+01  0.7535E+01
   3.800  0.1328E+01  0.7549E+01
   3.810  0.1288E+01  0.7562E+01
   3.820  0.1244E+01  0.7574E+01
   3.830  0.1198E+01  0.7586E+01
   3.840  0.1150E+01  0.7597E+01
   3.850  0.1101E+01  0.7609E+01
   3.860  0.1052E+01  0.7619E+01
   3.870  0.1003E+01  0.7629E+01
   3.880  0.9541E+00  0.7639E+01
   3.890  0.9066E+00  0.7648E+01
   3.900  0.8608E+00  0.7656E+01
   3.910  0.8171E+00  0.7664E+01
   3.920  0.7757E+00  0.7672E+01
   3.930  0.7369E+00  0.7680E+01
   3.940  0.7010E+00  0.7687E+01
   3.950  0.6680E+00  0.7693E+01
   3.960  0.6379E+00  0.7700E+01
   3.970  0.6108E+00  0.7706E+01
   3.980  0.5867E+00  0.7712E+01
   3.990  0.5655E+00  0.7717E+01
   4.000  0.5470E+00  0.7723E+01
   4.010  0.5311E+00  0.7728E+01
   4.020  0.5178E+00  0.7733E+01
   4.030  0.5067E+00  0.7738E+01
   4.040  0.4978E+00  0.7743E+01
   4.050  0.4910E+00  0.7748E+01
   4.060  0.4859E+00  0.7753E+01
   4.070  0.4825E+00  0.7758E+01
   4.080  0.4806E+00  0.7763E+01
   4.090  0.4801E+00  0.7767E+01
   4.100  0.4808E+00  0.7772E+01
   4.110  0.4826E+00  0.7777E+01
   4.120  0.4855E+00  0.7782E+01
   4.130  0.4892E+00  0.7787E+01
   4.140  0.4938E+00  0.7792E+01
   4.150  0.4990E+00  0.7797E+01
   4.160  0.5050E+00  0.7802E+01
   4.170  0.5115E+00  0.7807E+01
   4.180  0.5185E+00  0.7812E+01
   4.190  0.5260E+00  0.7817E+01
   4.200  0.5339E+00  0.7823E+01
   4.210  0.5421E+00  0.7828E+01
   4.220  0.5505E+00  0.7834E+01
   4.230  0.5590E+00  0.7839E+01
   4.240  0.5677E+00  0.7845E+01
   4.250  0.5764E+00  0.7851E+01
   4.260  0.5850E+00  0.7857E+01
   4.270  0.5935E+00  0.7862E+01
   4.280  0.6019E+00  0.7868E+01
   4.290  0.6101E+00  0.7875E+01
   4.300  0.6181E+00  0.7881E+01
   4.310  0.6259E+00  0.7887E+01
   4.320  0.6335E+00  0.7893E+01
   4.330  0.6410E+00  0.7900E+01
   4.340  0.6484E+00  0.7906E+01
   4.350  0.6558E+00  0.7913E+01
   4.360  0.6631E+00  0.7919E+01
   4.370  0.6705E+00  0.7926E+01
   4.380  0.6779E+00  0.7933E+01
   4.390  0.6855E+00  0.7940E+01
   4.400  0.6930E+00  0.7947E+01
   4.410  0.7006E+00  0.7954E+01
   4.420  0.7081E+00  0.7961E+01
   4.430  0.7155E+00  0.7968E+01
   4.440  0.7227E+00  0.7975E+01
   4.450  0.7295E+00  0.7982E+01
   4.460  0.7358E+00  0.7990E+01
   4.470  0.7416E+00  0.7997E+01
   4.480  0.7465E+00  0.8005E+01
   4.490  0.7507E+00  0.8012E+01
   4.500  0.7539E+00  0.8020E+01
   4.510  0.7561E+00  0.8027E+01
   4.520  0.7574E+00  0.8035E+01
   4.530  0.7576E+00  0.8042E+01
   4.540  0.7570E+00  0.8050E+01
   4.550  0.7556E+00  0.8058E+01
   4.560  0.7534E+00  0.8065E+01
   4.570  0.7508E+00  0.8073E+01
   4.580  0.7478E+00  0.8080E+01
   4.590  0.7446E+00  0.8088E+01
   4.600  0.7416E+00  0.8095E+01
   4.610  0.7387E+00  0.8102E+01
   4.620  0.7362E+00  0.8110E+01
   4.630  0.7343E+00  0.8117E+01
   4.640  0.7331E+00  0.8124E+01
   4.650  0.7327E+00  0.8132E+01
   4.660  0.7331E+00  0.8139E+01
   4.670  0.7343E+00  0.8146E+01
   4.680  0.7363E+00  0.8154E+01
   4.690  0.7391E+00  0.8161E+01
   4.700  0.7424E+00  0.8169E+01
   4.710  0.7463E+00  0.8176E+01
   4.720  0.7506E+00  0.8184E+01
   4.730  0.7550E+00  0.8191E+01
   4.740  0.7595E+00  0.8199E+01
   4.750  0.7639E+00  0.8206E+01
   4.760  0.7681E+00  0.8214E+01
   4.770  0.7719E+00  0.8222E+01
   4.780  0.7754E+00  0.8229E+01
   4.790  0.7784E+00  0.8237E+01
   4.800  0.7809E+00  0.8245E+01
   4.810  0.7830E+00  0.8253E+01
   4.820  0.7848E+00  0.8261E+01
   4.830  0.7862E+00  0.8269E+01
   4.840  0.7876E+00  0.8277E+01
   4.850  0.7889E+00  0.8284E+01
   4.860  0.7903E+00  0.8292E+01
   4.870  0.7920E+00  0.8300E+01
   4.880  0.7941E+00  0.8308E+01
   4.890  0.7969E+00  0.8316E+01
   4.900  0.8002E+00  0.8324E+01
   4.910  0.8044E+00  0.8332E+01
   4.920  0.8095E+00  0.8340E+01
   4.930  0.8154E+00  0.8348E+01
   4.940  0.8223E+00  0.8357E+01
   4.950  0.8301E+00  0.8365E+01
   4.960  0.8389E+00  0.8373E+01
   4.970  0.8485E+00  0.8382E+01
   4.980  0.8589E+00  0.8390E+01
   4.990  0.8700E+00  0.8399E+01
   5.000  0.8818E+00  0.8408E+01
   5.010  0.8942E+00  0.8417E+01
   5.020  0.9070E+00  0.8426E+01
   5.030  0.9203E+00  0.8435E+01
   5.040  0.9339E+00  0.8444E+01
   5.050  0.9479E+00  0.8454E+01
   5.060  0.9622E+00  0.8464E+01
   5.070  0.9768E+00  0.8473E+01
   5.080  0.9918E+00  0.8483E+01
   5.090  0.1007E+01  0.8493E+01
   5.100  0.1023E+01  0.8504E+01
   5.110  0.1040E+01  0.8514E+01
   5.120  0.1058E+01  0.8525E+01
   5.130  0.1077E+01  0.8535E+01
   5.140  0.1098E+01  0.8546E+01
   5.150  0.1120E+01  0.8558E+01
   5.160  0.1145E+01  0.8569E+01
   5.170  0.1173E+01  0.8581E+01
   5.180  0.1203E+01  0.8593E+01
   5.190  0.1237E+01  0.8605E+01
   5.200  0.1275E+01  0.8618E+01
   5.210  0.1317E+01  0.8631E+01
   5.220  0.1363E+01  0.8645E+01
   5.230  0.1413E+01  0.8659E+01
   5.240  0.1468E+01  0.8673E+01
   5.250  0.1527E+01  0.8689E+01
   5.260  0.1590E+01  0.8705E+01
   5.270  0.1657E+01  0.8721E+01
   5.280  0.1727E+01  0.8738E+01
   5.290  0.1800E+01  0.8756E+01
   5.300  0.1875E+01  0.8775E+01
   5.310  0.1950E+01  0.8795E+01
   5.320  0.2024E+01  0.8815E+01
   5.330  0.2097E+01  0.8836E+01
   5.340  0.2168E+01  0.8858E+01
   5.350  0.2233E+01  0.8880E+01
   5.360  0.2294E+01  0.8903E+01
   5.370  0.2348E+01  0.8926E+01
   5.380  0.2393E+01  0.8950E+01
   5.390  0.2430E+01  0.8975E+01
   5.400  0.2457E+01  0.8999E+01
   5.410  0.2473E+01  0.9024E+01
   5.420  0.2478E+01  0.9049E+01
   5.430  0.2472E+01  0.9073E+01
   5.440  0.2455E+01  0.9098E+01
   5.450  0.2427E+01  0.9122E+01
   5.460  0.2389E+01  0.9146E+01
   5.470  0.2342E+01  0.9170E+01
   5.480  0.2286E+01  0.9192E+01
   5.490  0.2223E+01  0.9215E+01
   5.500  0.2153E+01  0.9236E+01
   5.510  0.2079E+01  0.9257E+01
   5.520  0.2002E+01  0.9277E+01
   5.530  0.1923E+01  0.9296E+01
   5.540  0.1844E+01  0.9315E+01
   5.550  0.1766E+01  0.9332E+01
   5.560  0.1689E+01  0.9349E+01
   5.570  0.1616E+01  0.9365E+01
   5.580  0.1547E+01  0.9381E+01
   5.590  0.1483E+01  0.9396E+01
   5.600  0.1424E+01  0.9410E+01
   5.610  0.1371E+01  0.9424E+01
   5.620  0.1323E+01  0.9437E+01
   5.630  0.1282E+01  0.9450E+01
   5.640  0.1247E+01  0.9462E+01
   5.650  0.1217E+01  0.9474E+01
   5.660  0.1193E+01  0.9486E+01
   5.670  0.1174E+01  0.9498E+01
   5.680  0.1159E+01  0.9510E+01
   5.690  0.1148E+01  0.9521E+01
   5.700  0.1141E+01  0.9532E+01
   5.710  0.1137E+01  0.9544E+01
   5.720  0.1135E+01  0.9555E+01
   5.730  0.1135E+01  0.9566E+01
   5.740  0.1136E+01  0.9578E+01
   5.750  0.1139E+01  0.9589E+01
   5.760  0.1142E+01  0.9601E+01
   5.770  0.1145E+01  0.9612E+01
   5.780  0.1149E+01  0.9624E+01
   5.790  0.1152E+01  0.9635E+01
   5.800  0.1154E+01  0.9647E+01
   5.810  0.1156E+01  0.9658E+01
   5.820  0.1157E+01  0.9670E+01
   5.830  0.1158E+01  0.9681E+01
   5.840  0.1157E+01  0.9693E+01
   5.850  0.1157E+01  0.9704E+01
   5.860  0.1155E+01  0.9716E+01
   5.870  0.1153E+01  0.9728E+01
   5.880  0.1152E+01  0.9739E+01
   5.890  0.1150E+01  0.9751E+01
   5.900  0.1148E+01  0.9762E+01
   5.910  0.1147E+01  0.9774E+01
   5.920  0.1147E+01  0.9785E+01
   5.930  0.1147E+01  0.9796E+01
   5.940  0.1149E+01  0.9808E+01
   5.950  0.1151E+01  0.9819E+01
   5.960  0.1155E+01  0.9831E+01
   5.970  0.1160E+01  0.9843E+01
   5.980  0.1166E+01  0.9854E+01
   5.990  0.1173E+01  0.9866E+01
   6.000  0.1182E+01  0.9878E+01
   6.010  0.1191E+01  0.9890E+01
   6.020  0.1201E+01  0.9902E+01
   6.030  0.1212E+01  0.9914E+01
   6.040  0.1222E+01  0.9926E+01
   6.050  0.1233E+01  0.9938E+01
   6.060  0.1243E+01  0.9951E+01
   6.070  0.1252E+01  0.9963E+01
   6.080  0.1261E+01  0.9976E+01
   6.090  0.1268E+01  0.9989E+01
   6.100  0.1274E+01  0.1000E+02
   6.110  0.1278E+01  0.1001E+02
   6.120  0.1281E+01  0.1003E+02
   6.130  0.1282E+01  0.1004E+02
   6.140  0.1281E+01  0.1005E+02
   6.150  0.1278E+01  0.1007E+02
   6.160  0.1274E+01  0.1008E+02
   6.170  0.1268E+01  0.1009E+02
   6.180  0.1261E+01  0.1010E+02
   6.190  0.1253E+01  0.1012E+02
   6.200  0.1244E+01  0.1013E+02
   6.210  0.1235E+01  0.1014E+02
   6.220  0.1225E+01  0.1015E+02
   6.230  0.1214E+01  0.1017E+02
   6.240  0.1204E+01  0.1018E+02
   6.250  0.1194E+01  0.1019E+02
   6.260  0.1184E+01  0.1020E+02
   6.270  0.1174E+01  0.1021E+02
   6.280  0.1166E+01  0.1022E+02
   6.290  0.1157E+01  0.1024E+02
   6.300  0.1150E+01  0.1025E+02
   6.310  0.1143E+01  0.1026E+02
   6.320  0.1137E+01  0.1027E+02
   6.330  0.1132E+01  0.1028E+02
   6.340  0.1127E+01  0.1029E+02
   6.350  0.1124E+01  0.1030E+02
   6.360  0.1122E+01  0.1032E+02
   6.370  0.1120E+01  0.1033E+02
   6.380  0.1119E+01  0.1034E+02
   6.390  0.1119E+01  0.1035E+02
   6.400  0.1120E+01  0.1036E+02
   6.410  0.1121E+01  0.1037E+02
   6.420  0.1123E+01  0.1038E+02
   6.430  0.1125E+01  0.1039E+02
   6.440  0.1127E+01  0.1041E+02
   6.450  0.1130E+01  0.1042E+02
   6.460  0.1132E+01  0.1043E+02
   6.470  0.1134E+01  0.1044E+02
   6.480  0.1136E+01  0.1045E+02
   6.490  0.1138E+01  0.1046E+02
   6.500  0.1139E+01  0.1047E+02
   6.510  0.1140E+01  0.1048E+02
   6.520  0.1140E+01  0.1050E+02
   6.530  0.1140E+01  0.1051E+02
   6.540  0.1140E+01  0.1052E+02
   6.550  0.1140E+01  0.1053E+02
   6.560  0.1139E+01  0.1054E+02
   6.570  0.1139E+01  0.1055E+02
   6.580  0.1139E+01  0.1056E+02
   6.590  0.1139E+01  0.1058E+02
   6.600  0.1139E+01  0.1059E+02
   6.610  0.1140E+01  0.1060E+02
   6.620  0.1141E+01  0.1061E+02
   6.630  0.1143E+01  0.1062E+02
   6.640  0.1146E+01  0.1063E+02
   6.650  0.1150E+01  0.1064E+02
   6.660  0.1156E+01  0.1066E+02
   6.670  0.1162E+01  0.1067E+02
   6.680  0.1171E+01  0.1068E+02
   6.690  0.1182E+01  0.1069E+02
   6.700  0.1195E+01  0.1070E+02
   6.710  0.1210E+01  0.1072E+02
   6.720  0.1229E+01  0.1073E+02
   6.730  0.1251E+01  0.1074E+02
   6.740  0.1278E+01  0.1075E+02
   6.750  0.1308E+01  0.1077E+02
   6.760  0.1342E+01  0.1078E+02
   6.770  0.1382E+01  0.1079E+02
   6.780  0.1425E+01  0.1081E+02
   6.790  0.1473E+01  0.1082E+02
   6.800  0.1526E+01  0.1084E+02
   6.810  0.1582E+01  0.1085E+02
   6.820  0.1641E+01  0.1087E+02
   6.830  0.1703E+01  0.1089E+02
   6.840  0.1767E+01  0.1090E+02
   6.850  0.1832E+01  0.1092E+02
   6.860  0.1897E+01  0.1094E+02
   6.870  0.1962E+01  0.1096E+02
   6.880  0.2024E+01  0.1098E+02
   6.890  0.2084E+01  0.1100E+02
   6.900  0.2140E+01  0.1102E+02
   6.910  0.2191E+01  0.1105E+02
   6.920  0.2237E+01  0.1107E+02
   6.930  0.2278E+01  0.1109E+02
   6.940  0.2312E+01  0.1111E+02
   6.950  0.2340E+01  0.1114E+02
   6.960  0.2362E+01  0.1116E+02
   6.970  0.2377E+01  0.1118E+02
   6.980  0.2385E+01  0.1121E+02
   6.990  0.2387E+01  0.1123E+02
   7.000  0.2384E+01  0.1126E+02
   7.010  0.2375E+01  0.1128E+02
   7.020  0.2361E+01  0.1130E+02
   7.030  0.2344E+01  0.1133E+02
   7.040  0.2323E+01  0.1135E+02
   7.050  0.2299E+01  0.1137E+02
   7.060  0.2273E+01  0.1140E+02
   7.070  0.2246E+01  0.1142E+02
   7.080  0.2218E+01  0.1144E+02
   7.090  0.2190E+01  0.1146E+02
   7.100  0.2162E+01  0.1148E+02
   7.110  0.2136E+01  0.1151E+02
   7.120  0.2112E+01  0.1153E+02
   7.130  0.2089E+01  0.1155E+02
   7.140  0.2069E+01  0.1157E+02
   7.150  0.2052E+01  0.1159E+02
   7.160  0.2037E+01  0.1161E+02
   7.170  0.2024E+01  0.1163E+02
   7.180  0.2015E+01  0.1165E+02
   7.190  0.2007E+01  0.1167E+02
   7.200  0.2001E+01  0.1169E+02
   7.210  0.1997E+01  0.1171E+02
   7.220  0.1994E+01  0.1173E+02
   7.230  0.1992E+01  0.1175E+02
   7.240  0.1990E+01  0.1177E+02
   7.250  0.1987E+01  0.1179E+02
   7.260  0.1984E+01  0.1181E+02
   7.270  0.1980E+01  0.1183E+02
   7.280  0.1975E+01  0.1185E+02
   7.290  0.1969E+01  0.1187E+02
   7.300  0.1961E+01  0.1189E+02
   7.310  0.1951E+01  0.1191E+02
   7.320  0.1940E+01  0.1193E+02
   7.330  0.1928E+01  0.1195E+02
   7.340  0.1916E+01  0.1197E+02
   7.350  0.1902E+01  0.1198E+02
   7.360  0.1889E+01  0.1200E+02
   7.370  0.1877E+01  0.1202E+02
   7.380  0.1865E+01  0.1204E+02
   7.390  0.1855E+01  0.1206E+02
   7.400  0.1846E+01  0.1208E+02
   7.410  0.1840E+01  0.1210E+02
   7.420  0.1837E+01  0.1211E+02
   7.430  0.1837E+01  0.1213E+02
   7.440  0.1840E+01  0.1215E+02
   7.450  0.1847E+01  0.1217E+02
   7.460  0.1858E+01  0.1219E+02
   7.470  0.1873E+01  0.1221E+02
   7.480  0.1892E+01  0.1223E+02
   7.490  0.1915E+01  0.1224E+02
   7.500  0.1943E+01  0.1226E+02
   7.510  0.1975E+01  0.1228E+02
   7.520  0.2011E+01  0.1230E+02
   7.530  0.2051E+01  0.1232E+02
   7.540  0.2094E+01  0.1235E+02
   7.550  0.2140E+01  0.1237E+02
   7.560  0.2189E+01  0.1239E+02
   7.570  0.2240E+01  0.1241E+02
   7.580  0.2293E+01  0.1243E+02
   7.590  0.2345E+01  0.1246E+02
   7.600  0.2398E+01  0.1248E+02
   7.610  0.2450E+01  0.1251E+02
   7.620  0.2500E+01  0.1253E+02
   7.630  0.2548E+01  0.1256E+02
   7.640  0.2592E+01  0.1258E+02
   7.650  0.2633E+01  0.1261E+02
   7.660  0.2669E+01  0.1264E+02
   7.670  0.2701E+01  0.1266E+02
   7.680  0.2727E+01  0.1269E+02
   7.690  0.2748E+01  0.1272E+02
   7.700  0.2763E+01  0.1274E+02
   7.710  0.2774E+01  0.1277E+02
   7.720  0.2779E+01  0.1280E+02
   7.730  0.2780E+01  0.1283E+02
   7.740  0.2777E+01  0.1286E+02
   7.750  0.2770E+01  0.1288E+02
   7.760  0.2761E+01  0.1291E+02
   7.770  0.2750E+01  0.1294E+02
   7.780  0.2737E+01  0.1297E+02
   7.790  0.2723E+01  0.1299E+02
   7.800  0.2710E+01  0.1302E+02
   7.810  0.2696E+01  0.1305E+02
   7.820  0.2683E+01  0.1307E+02
   7.830  0.2671E+01  0.1310E+02
   7.840  0.2660E+01  0.1313E+02
   7.850  0.2650E+01  0.1315E+02
   7.860  0.2640E+01  0.1318E+02
   7.870  0.2632E+01  0.1321E+02
   7.880  0.2623E+01  0.1323E+02
   7.890  0.2614E+01  0.1326E+02
   7.900  0.2605E+01  0.1329E+02
   7.910  0.2594E+01  0.1331E+02
   7.920  0.2582E+01  0.1334E+02
   7.930  0.2569E+01  0.1336E+02
   7.940  0.2553E+01  0.1339E+02
   7.950  0.2535E+01  0.1341E+02
   7.960  0.2514E+01  0.1344E+02
   7.970  0.2491E+01  0.1346E+02
   7.980  0.2466E+01  0.1349E+02
   7.990  0.2438E+01  0.1351E+02
   8.000  0.2408E+01  0.1354E+02
   8.010  0.2376E+01  0.1356E+02
   8.020  0.2344E+01  0.1358E+02
   8.030  0.2310E+01  0.1361E+02
   8.040  0.2277E+01  0.1363E+02
   8.050  0.2243E+01  0.1365E+02
   8.060  0.2211E+01  0.1367E+02
   8.070  0.2179E+01  0.1370E+02
   8.080  0.2150E+01  0.1372E+02
   8.090  0.2122E+01  0.1374E+02
   8.100  0.2096E+01  0.1376E+02
   8.110  0.2073E+01  0.1378E+02
   8.120  0.2052E+01  0.1380E+02
   8.130  0.2033E+01  0.1382E+02
   8.140  0.2017E+01  0.1384E+02
   8.150  0.2002E+01  0.1386E+02
   8.160  0.1989E+01  0.1388E+02
   8.170  0.1978E+01  0.1390E+02
   8.180  0.1968E+01  0.1392E+02
   8.190  0.1959E+01  0.1394E+02
   8.200  0.1952E+01  0.1396E+02
   8.210  0.1945E+01  0.1398E+02
   8.220  0.1939E+01  0.1400E+02
   8.230  0.1934E+01  0.1402E+02
   8.240  0.1930E+01  0.1404E+02
   8.250  0.1927E+01  0.1406E+02
   8.260  0.1925E+01  0.1408E+02
   8.270  0.1924E+01  0.1410E+02
   8.280  0.1924E+01  0.1411E+02
   8.290  0.1926E+01  0.1413E+02
   8.300  0.1929E+01  0.1415E+02
   8.310  0.1933E+01  0.1417E+02
   8.320  0.1939E+01  0.1419E+02
   8.330  0.1946E+01  0.1421E+02
   8.340  0.1955E+01  0.1423E+02
   8.350  0.1965E+01  0.1425E+02
   8.360  0.1976E+01  0.1427E+02
   8.370  0.1988E+01  0.1429E+02
   8.380  0.2001E+01  0.1431E+02
   8.390  0.2015E+01  0.1433E+02
   8.400  0.2030E+01  0.1435E+02
   8.410  0.2045E+01  0.1437E+02
   8.420  0.2061E+01  0.1439E+02
   8.430  0.2078E+01  0.1441E+02
   8.440  0.2094E+01  0.1443E+02
   8.450  0.2111E+01  0.1445E+02
   8.460  0.2128E+01  0.1448E+02
   8.470  0.2145E+01  0.1450E+02
   8.480  0.2162E+01  0.1452E+02
   8.490  0.2179E+01  0.1454E+02
   8.500  0.2195E+01  0.1456E+02
   8.510  0.2210E+01  0.1458E+02
   8.520  0.2225E+01  0.1461E+02
   8.530  0.2239E+01  0.1463E+02
   8.540  0.2252E+01  0.1465E+02
   8.550  0.2264E+01  0.1467E+02
   8.560  0.2274E+01  0.1470E+02
   8.570  0.2284E+01  0.1472E+02
   8.580  0.2292E+01  0.1474E+02
   8.590  0.2299E+01  0.1477E+02
   8.600  0.2304E+01  0.1479E+02
   8.610  0.2308E+01  0.1481E+02
   8.620  0.2310E+01  0.1484E+02
   8.630  0.2310E+01  0.1486E+02
   8.640  0.2310E+01  0.1488E+02
   8.650  0.2307E+01  0.1490E+02
   8.660  0.2304E+01  0.1493E+02
   8.670  0.2299E+01  0.1495E+02
   8.680  0.2292E+01  0.1497E+02
   8.690  0.2285E+01  0.1500E+02
   8.700  0.2276E+01  0.1502E+02
   8.710  0.2267E+01  0.1504E+02
   8.720  0.2257E+01  0.1506E+02
   8.730  0.2246E+01  0.1509E+02
   8.740  0.2235E+01  0.1511E+02
   8.750  0.2223E+01  0.1513E+02
   8.760  0.2210E+01  0.1515E+02
   8.770  0.2197E+01  0.1518E+02
   8.780  0.2184E+01  0.1520E+02
   8.790  0.2170E+01  0.1522E+02
   8.800  0.2156E+01  0.1524E+02
   8.810  0.2141E+01  0.1526E+02
   8.820  0.2126E+01  0.1528E+02
   8.830  0.2111E+01  0.1530E+02
   8.840  0.2096E+01  0.1533E+02
   8.850  0.2081E+01  0.1535E+02
   8.860  0.2066E+01  0.1537E+02
   8.870  0.2051E+01  0.1539E+02
   8.880  0.2037E+01  0.1541E+02
   8.890  0.2024E+01  0.1543E+02
   8.900  0.2012E+01  0.1545E+02
   8.910  0.2001E+01  0.1547E+02
   8.920  0.1992E+01  0.1549E+02
   8.930  0.1985E+01  0.1551E+02
   8.940  0.1979E+01  0.1553E+02
   8.950  0.1974E+01  0.1555E+02
   8.960  0.1972E+01  0.1557E+02
   8.970  0.1970E+01  0.1559E+02
   8.980  0.1970E+01  0.1561E+02
   8.990  0.1971E+01  0.1563E+02
   9.000  0.1972E+01  0.1565E+02
   9.010  0.1973E+01  0.1567E+02
   9.020  0.1974E+01  0.1569E+02
   9.030  0.1975E+01  0.1570E+02
   9.040  0.1975E+01  0.1572E+02
   9.050  0.1974E+01  0.1574E+02
   9.060  0.1972E+01  0.1576E+02
   9.070  0.1969E+01  0.1578E+02
   9.080  0.1965E+01  0.1580E+02
   9.090  0.1960E+01  0.1582E+02
   9.100  0.1955E+01  0.1584E+02
   9.110  0.1949E+01  0.1586E+02
   9.120  0.1944E+01  0.1588E+02
   9.130  0.1938E+01  0.1590E+02
   9.140  0.1934E+01  0.1592E+02
   9.150  0.1930E+01  0.1594E+02
   9.160  0.1926E+01  0.1596E+02
   9.170  0.1924E+01  0.1598E+02
   9.180  0.1923E+01  0.1600E+02
   9.190  0.1922E+01  0.1602E+02
   9.200  0.1921E+01  0.1604E+02
   9.210  0.1921E+01  0.1605E+02
   9.220  0.1921E+01  0.1607E+02
   9.230  0.1920E+01  0.1609E+02
   9.240  0.1918E+01  0.1611E+02
   9.250  0.1914E+01  0.1613E+02
   9.260  0.1909E+01  0.1615E+02
   9.270  0.1902E+01  0.1617E+02
   9.280  0.1893E+01  0.1619E+02
   9.290  0.1881E+01  0.1621E+02
   9.300  0.1867E+01  0.1623E+02
   9.310  0.1850E+01  0.1624E+02
   9.320  0.1832E+01  0.1626E+02
   9.330  0.1812E+01  0.1628E+02
   9.340  0.1791E+01  0.1630E+02
   9.350  0.1770E+01  0.1632E+02
   9.360  0.1748E+01  0.1633E+02
   9.370  0.1727E+01  0.1635E+02
   9.380  0.1706E+01  0.1637E+02
   9.390  0.1687E+01  0.1639E+02
   9.400  0.1669E+01  0.1640E+02
   9.410  0.1653E+01  0.1642E+02
   9.420  0.1640E+01  0.1643E+02
   9.430  0.1628E+01  0.1645E+02
   9.440  0.1619E+01  0.1647E+02
   9.450  0.1611E+01  0.1648E+02
   9.460  0.1606E+01  0.1650E+02
   9.470  0.1602E+01  0.1652E+02
   9.480  0.1600E+01  0.1653E+02
   9.490  0.1598E+01  0.1655E+02
   9.500  0.1598E+01  0.1656E+02
   9.510  0.1598E+01  0.1658E+02
   9.520  0.1598E+01  0.1660E+02
   9.530  0.1599E+01  0.1661E+02
   9.540  0.1600E+01  0.1663E+02
   9.550  0.1602E+01  0.1664E+02
   9.560  0.1604E+01  0.1666E+02
   9.570  0.1607E+01  0.1668E+02
   9.580  0.1612E+01  0.1669E+02
   9.590  0.1618E+01  0.1671E+02
   9.600  0.1627E+01  0.1672E+02
   9.610  0.1639E+01  0.1674E+02
   9.620  0.1654E+01  0.1676E+02
   9.630  0.1672E+01  0.1677E+02
   9.640  0.1695E+01  0.1679E+02
   9.650  0.1722E+01  0.1681E+02
   9.660  0.1754E+01  0.1683E+02
   9.670  0.1790E+01  0.1684E+02
   9.680  0.1831E+01  0.1686E+02
   9.690  0.1877E+01  0.1688E+02
   9.700  0.1926E+01  0.1690E+02
   9.710  0.1978E+01  0.1692E+02
   9.720  0.2032E+01  0.1694E+02
   9.730  0.2089E+01  0.1696E+02
   9.740  0.2146E+01  0.1698E+02
   9.750  0.2202E+01  0.1700E+02
   9.760  0.2257E+01  0.1703E+02
   9.770  0.2310E+01  0.1705E+02
   9.780  0.2359E+01  0.1707E+02
   9.790  0.2405E+01  0.1710E+02
   9.800  0.2446E+01  0.1712E+02
   9.810  0.2482E+01  0.1715E+02
   9.820  0.2513E+01  0.1717E+02
   9.830  0.2538E+01  0.1720E+02
   9.840  0.2559E+01  0.1722E+02
   9.850  0.2575E+01  0.1725E+02
   9.860  0.2587E+01  0.1727E+02
   9.870  0.2596E+01  0.1730E+02
   9.880  0.2601E+01  0.1733E+02
   9.890  0.2604E+01  0.1735E+02
   9.900  0.2606E+01  0.1738E+02
   9.910  0.2606E+01  0.1740E+02
   9.920  0.2606E+01  0.1743E+02
   9.930  0.2605E+01  0.1746E+02
   9.940  0.2604E+01  0.1748E+02
   9.950  0.2604E+01  0.1751E+02
   9.960  0.2603E+01  0.1753E+02
   9.970  0.2602E+01  0.1756E+02
   9.980  0.2600E+01  0.1759E+02
   9.990  0.2598E+01  0.1761E+02
  10.000  0.2596E+01  0.1764E+02
