#  E (eV)   dos(E)     Int dos(E) EFermi =   -2.630 eV
 -10.000  0.4646E+00  0.4646E-02
  -9.990  0.4640E+00  0.9286E-02
  -9.980  0.4632E+00  0.1392E-01
  -9.970  0.4624E+00  0.1854E-01
  -9.960  0.4618E+00  0.2316E-01
  -9.950  0.4614E+00  0.2777E-01
  -9.940  0.4613E+00  0.3239E-01
  -9.930  0.4616E+00  0.3700E-01
  -9.920  0.4624E+00  0.4163E-01
  -9.910  0.4637E+00  0.4626E-01
  -9.900  0.4654E+00  0.5092E-01
  -9.890  0.4674E+00  0.5559E-01
  -9.880  0.4697E+00  0.6029E-01
  -9.870  0.4721E+00  0.6501E-01
  -9.860  0.4745E+00  0.6976E-01
  -9.850  0.4768E+00  0.7452E-01
  -9.840  0.4787E+00  0.7931E-01
  -9.830  0.4802E+00  0.8411E-01
  -9.820  0.4812E+00  0.8892E-01
  -9.810  0.4816E+00  0.9374E-01
  -9.800  0.4815E+00  0.9856E-01
  -9.790  0.4808E+00  0.1034E+00
  -9.780  0.4797E+00  0.1082E+00
  -9.770  0.4782E+00  0.1129E+00
  -9.760  0.4765E+00  0.1177E+00
  -9.750  0.4747E+00  0.1225E+00
  -9.740  0.4729E+00  0.1272E+00
  -9.730  0.4714E+00  0.1319E+00
  -9.720  0.4703E+00  0.1366E+00
  -9.710  0.4696E+00  0.1413E+00
  -9.700  0.4694E+00  0.1460E+00
  -9.690  0.4699E+00  0.1507E+00
  -9.680  0.4710E+00  0.1554E+00
  -9.670  0.4726E+00  0.1601E+00
  -9.660  0.4747E+00  0.1649E+00
  -9.650  0.4773E+00  0.1696E+00
  -9.640  0.4801E+00  0.1744E+00
  -9.630  0.4831E+00  0.1793E+00
  -9.620  0.4861E+00  0.1841E+00
  -9.610  0.4890E+00  0.1890E+00
  -9.600  0.4918E+00  0.1939E+00
  -9.590  0.4941E+00  0.1989E+00
  -9.580  0.4961E+00  0.2038E+00
  -9.570  0.4976E+00  0.2088E+00
  -9.560  0.4987E+00  0.2138E+00
  -9.550  0.4992E+00  0.2188E+00
  -9.540  0.4992E+00  0.2238E+00
  -9.530  0.4988E+00  0.2288E+00
  -9.520  0.4980E+00  0.2338E+00
  -9.510  0.4969E+00  0.2387E+00
  -9.500  0.4955E+00  0.2437E+00
  -9.490  0.4940E+00  0.2486E+00
  -9.480  0.4925E+00  0.2536E+00
  -9.470  0.4909E+00  0.2585E+00
  -9.460  0.4895E+00  0.2634E+00
  -9.450  0.4882E+00  0.2682E+00
  -9.440  0.4873E+00  0.2731E+00
  -9.430  0.4867E+00  0.2780E+00
  -9.420  0.4864E+00  0.2828E+00
  -9.410  0.4866E+00  0.2877E+00
  -9.400  0.4873E+00  0.2926E+00
  -9.390  0.4885E+00  0.2975E+00
  -9.380  0.4902E+00  0.3024E+00
  -9.370  0.4924E+00  0.3073E+00
  -9.360  0.4951E+00  0.3122E+00
  -9.350  0.4981E+00  0.3172E+00
  -9.340  0.5015E+00  0.3222E+00
  -9.330  0.5051E+00  0.3273E+00
  -9.320  0.5088E+00  0.3324E+00
  -9.310  0.5125E+00  0.3375E+00
  -9.300  0.5161E+00  0.3427E+00
  -9.290  0.5193E+00  0.3479E+00
  -9.280  0.5221E+00  0.3531E+00
  -9.270  0.5243E+00  0.3583E+00
  -9.260  0.5258E+00  0.3636E+00
  -9.250  0.5266E+00  0.3688E+00
  -9.240  0.5266E+00  0.3741E+00
  -9.230  0.5258E+00  0.3794E+00
  -9.220  0.5242E+00  0.3846E+00
  -9.210  0.5221E+00  0.3898E+00
  -9.200  0.5194E+00  0.3950E+00
  -9.190  0.5163E+00  0.4002E+00
  -9.180  0.5132E+00  0.4053E+00
  -9.170  0.5101E+00  0.4104E+00
  -9.160  0.5073E+00  0.4155E+00
  -9.150  0.5050E+00  0.4205E+00
  -9.140  0.5035E+00  0.4256E+00
  -9.130  0.5029E+00  0.4306E+00
  -9.120  0.5033E+00  0.4356E+00
  -9.110  0.5048E+00  0.4407E+00
  -9.100  0.5074E+00  0.4458E+00
  -9.090  0.5112E+00  0.4509E+00
  -9.080  0.5159E+00  0.4560E+00
  -9.070  0.5215E+00  0.4613E+00
  -9.060  0.5278E+00  0.4665E+00
  -9.050  0.5346E+00  0.4719E+00
  -9.040  0.5416E+00  0.4773E+00
  -9.030  0.5487E+00  0.4828E+00
  -9.020  0.5556E+00  0.4883E+00
  -9.010  0.5622E+00  0.4940E+00
  -9.000  0.5683E+00  0.4996E+00
  -8.990  0.5739E+00  0.5054E+00
  -8.980  0.5789E+00  0.5112E+00
  -8.970  0.5834E+00  0.5170E+00
  -8.960  0.5875E+00  0.5229E+00
  -8.950  0.5914E+00  0.5288E+00
  -8.940  0.5953E+00  0.5347E+00
  -8.930  0.5993E+00  0.5407E+00
  -8.920  0.6039E+00  0.5468E+00
  -8.910  0.6091E+00  0.5529E+00
  -8.900  0.6153E+00  0.5590E+00
  -8.890  0.6227E+00  0.5653E+00
  -8.880  0.6313E+00  0.5716E+00
  -8.870  0.6412E+00  0.5780E+00
  -8.860  0.6524E+00  0.5845E+00
  -8.850  0.6649E+00  0.5911E+00
  -8.840  0.6784E+00  0.5979E+00
  -8.830  0.6929E+00  0.6049E+00
  -8.820  0.7080E+00  0.6119E+00
  -8.810  0.7234E+00  0.6192E+00
  -8.800  0.7389E+00  0.6266E+00
  -8.790  0.7540E+00  0.6341E+00
  -8.780  0.7686E+00  0.6418E+00
  -8.770  0.7824E+00  0.6496E+00
  -8.760  0.7951E+00  0.6576E+00
  -8.750  0.8066E+00  0.6656E+00
  -8.740  0.8169E+00  0.6738E+00
  -8.730  0.8258E+00  0.6821E+00
  -8.720  0.8333E+00  0.6904E+00
  -8.710  0.8397E+00  0.6988E+00
  -8.700  0.8449E+00  0.7072E+00
  -8.690  0.8492E+00  0.7157E+00
  -8.680  0.8527E+00  0.7243E+00
  -8.670  0.8557E+00  0.7328E+00
  -8.660  0.8582E+00  0.7414E+00
  -8.650  0.8605E+00  0.7500E+00
  -8.640  0.8627E+00  0.7586E+00
  -8.630  0.8648E+00  0.7673E+00
  -8.620  0.8670E+00  0.7759E+00
  -8.610  0.8693E+00  0.7846E+00
  -8.600  0.8716E+00  0.7934E+00
  -8.590  0.8739E+00  0.8021E+00
  -8.580  0.8762E+00  0.8109E+00
  -8.570  0.8784E+00  0.8196E+00
  -8.560  0.8804E+00  0.8284E+00
  -8.550  0.8821E+00  0.8373E+00
  -8.540  0.8836E+00  0.8461E+00
  -8.530  0.8849E+00  0.8550E+00
  -8.520  0.8859E+00  0.8638E+00
  -8.510  0.8867E+00  0.8727E+00
  -8.500  0.8874E+00  0.8816E+00
  -8.490  0.8881E+00  0.8904E+00
  -8.480  0.8891E+00  0.8993E+00
  -8.470  0.8903E+00  0.9082E+00
  -8.460  0.8919E+00  0.9171E+00
  -8.450  0.8941E+00  0.9261E+00
  -8.440  0.8970E+00  0.9351E+00
  -8.430  0.9005E+00  0.9441E+00
  -8.420  0.9047E+00  0.9531E+00
  -8.410  0.9095E+00  0.9622E+00
  -8.400  0.9148E+00  0.9714E+00
  -8.390  0.9206E+00  0.9806E+00
  -8.380  0.9266E+00  0.9898E+00
  -8.370  0.9326E+00  0.9991E+00
  -8.360  0.9384E+00  0.1009E+01
  -8.350  0.9439E+00  0.1018E+01
  -8.340  0.9488E+00  0.1027E+01
  -8.330  0.9531E+00  0.1037E+01
  -8.320  0.9566E+00  0.1047E+01
  -8.310  0.9592E+00  0.1056E+01
  -8.300  0.9611E+00  0.1066E+01
  -8.290  0.9622E+00  0.1075E+01
  -8.280  0.9626E+00  0.1085E+01
  -8.270  0.9626E+00  0.1095E+01
  -8.260  0.9624E+00  0.1104E+01
  -8.250  0.9621E+00  0.1114E+01
  -8.240  0.9619E+00  0.1123E+01
  -8.230  0.9622E+00  0.1133E+01
  -8.220  0.9632E+00  0.1143E+01
  -8.210  0.9648E+00  0.1152E+01
  -8.200  0.9674E+00  0.1162E+01
  -8.190  0.9710E+00  0.1172E+01
  -8.180  0.9755E+00  0.1182E+01
  -8.170  0.9809E+00  0.1191E+01
  -8.160  0.9872E+00  0.1201E+01
  -8.150  0.9943E+00  0.1211E+01
  -8.140  0.1002E+01  0.1221E+01
  -8.130  0.1010E+01  0.1231E+01
  -8.120  0.1018E+01  0.1241E+01
  -8.110  0.1027E+01  0.1252E+01
  -8.100  0.1035E+01  0.1262E+01
  -8.090  0.1044E+01  0.1273E+01
  -8.080  0.1052E+01  0.1283E+01
  -8.070  0.1060E+01  0.1294E+01
  -8.060  0.1068E+01  0.1304E+01
  -8.050  0.1076E+01  0.1315E+01
  -8.040  0.1084E+01  0.1326E+01
  -8.030  0.1092E+01  0.1337E+01
  -8.020  0.1100E+01  0.1348E+01
  -8.010  0.1108E+01  0.1359E+01
  -8.000  0.1117E+01  0.1370E+01
  -7.990  0.1126E+01  0.1381E+01
  -7.980  0.1135E+01  0.1393E+01
  -7.970  0.1146E+01  0.1404E+01
  -7.960  0.1156E+01  0.1416E+01
  -7.950  0.1168E+01  0.1427E+01
  -7.940  0.1180E+01  0.1439E+01
  -7.930  0.1192E+01  0.1451E+01
  -7.920  0.1204E+01  0.1463E+01
  -7.910  0.1217E+01  0.1475E+01
  -7.900  0.1229E+01  0.1488E+01
  -7.890  0.1242E+01  0.1500E+01
  -7.880  0.1254E+01  0.1513E+01
  -7.870  0.1265E+01  0.1525E+01
  -7.860  0.1276E+01  0.1538E+01
  -7.850  0.1285E+01  0.1551E+01
  -7.840  0.1294E+01  0.1564E+01
  -7.830  0.1302E+01  0.1577E+01
  -7.820  0.1308E+01  0.1590E+01
  -7.810  0.1313E+01  0.1603E+01
  -7.800  0.1317E+01  0.1616E+01
  -7.790  0.1319E+01  0.1629E+01
  -7.780  0.1320E+01  0.1643E+01
  -7.770  0.1319E+01  0.1656E+01
  -7.760  0.1317E+01  0.1669E+01
  -7.750  0.1313E+01  0.1682E+01
  -7.740  0.1308E+01  0.1695E+01
  -7.730  0.1301E+01  0.1708E+01
  -7.720  0.1293E+01  0.1721E+01
  -7.710  0.1284E+01  0.1734E+01
  -7.700  0.1273E+01  0.1747E+01
  -7.690  0.1262E+01  0.1759E+01
  -7.680  0.1250E+01  0.1772E+01
  -7.670  0.1237E+01  0.1784E+01
  -7.660  0.1223E+01  0.1796E+01
  -7.650  0.1209E+01  0.1808E+01
  -7.640  0.1194E+01  0.1820E+01
  -7.630  0.1179E+01  0.1832E+01
  -7.620  0.1164E+01  0.1844E+01
  -7.610  0.1149E+01  0.1855E+01
  -7.600  0.1134E+01  0.1867E+01
  -7.590  0.1119E+01  0.1878E+01
  -7.580  0.1105E+01  0.1889E+01
  -7.570  0.1091E+01  0.1900E+01
  -7.560  0.1078E+01  0.1911E+01
  -7.550  0.1066E+01  0.1921E+01
  -7.540  0.1055E+01  0.1932E+01
  -7.530  0.1044E+01  0.1942E+01
  -7.520  0.1035E+01  0.1953E+01
  -7.510  0.1026E+01  0.1963E+01
  -7.500  0.1018E+01  0.1973E+01
  -7.490  0.1012E+01  0.1983E+01
  -7.480  0.1006E+01  0.1993E+01
  -7.470  0.1001E+01  0.2003E+01
  -7.460  0.9972E+00  0.2013E+01
  -7.450  0.9938E+00  0.2023E+01
  -7.440  0.9910E+00  0.2033E+01
  -7.430  0.9885E+00  0.2043E+01
  -7.420  0.9862E+00  0.2053E+01
  -7.410  0.9840E+00  0.2063E+01
  -7.400  0.9817E+00  0.2072E+01
  -7.390  0.9791E+00  0.2082E+01
  -7.380  0.9761E+00  0.2092E+01
  -7.370  0.9726E+00  0.2102E+01
  -7.360  0.9685E+00  0.2111E+01
  -7.350  0.9639E+00  0.2121E+01
  -7.340  0.9587E+00  0.2131E+01
  -7.330  0.9529E+00  0.2140E+01
  -7.320  0.9467E+00  0.2150E+01
  -7.310  0.9401E+00  0.2159E+01
  -7.300  0.9334E+00  0.2168E+01
  -7.290  0.9266E+00  0.2178E+01
  -7.280  0.9199E+00  0.2187E+01
  -7.270  0.9134E+00  0.2196E+01
  -7.260  0.9073E+00  0.2205E+01
  -7.250  0.9017E+00  0.2214E+01
  -7.240  0.8968E+00  0.2223E+01
  -7.230  0.8924E+00  0.2232E+01
  -7.220  0.8888E+00  0.2241E+01
  -7.210  0.8858E+00  0.2250E+01
  -7.200  0.8834E+00  0.2258E+01
  -7.190  0.8815E+00  0.2267E+01
  -7.180  0.8800E+00  0.2276E+01
  -7.170  0.8788E+00  0.2285E+01
  -7.160  0.8778E+00  0.2294E+01
  -7.150  0.8769E+00  0.2302E+01
  -7.140  0.8759E+00  0.2311E+01
  -7.130  0.8747E+00  0.2320E+01
  -7.120  0.8734E+00  0.2329E+01
  -7.110  0.8718E+00  0.2337E+01
  -7.100  0.8700E+00  0.2346E+01
  -7.090  0.8680E+00  0.2355E+01
  -7.080  0.8658E+00  0.2363E+01
  -7.070  0.8634E+00  0.2372E+01
  -7.060  0.8609E+00  0.2381E+01
  -7.050  0.8584E+00  0.2389E+01
  -7.040  0.8559E+00  0.2398E+01
  -7.030  0.8535E+00  0.2406E+01
  -7.020  0.8511E+00  0.2415E+01
  -7.010  0.8489E+00  0.2423E+01
  -7.000  0.8467E+00  0.2432E+01
  -6.990  0.8445E+00  0.2440E+01
  -6.980  0.8423E+00  0.2449E+01
  -6.970  0.8401E+00  0.2457E+01
  -6.960  0.8377E+00  0.2465E+01
  -6.950  0.8351E+00  0.2474E+01
  -6.940  0.8324E+00  0.2482E+01
  -6.930  0.8293E+00  0.2490E+01
  -6.920  0.8260E+00  0.2499E+01
  -6.910  0.8225E+00  0.2507E+01
  -6.900  0.8188E+00  0.2515E+01
  -6.890  0.8151E+00  0.2523E+01
  -6.880  0.8113E+00  0.2531E+01
  -6.870  0.8076E+00  0.2539E+01
  -6.860  0.8041E+00  0.2547E+01
  -6.850  0.8010E+00  0.2556E+01
  -6.840  0.7984E+00  0.2563E+01
  -6.830  0.7962E+00  0.2571E+01
  -6.820  0.7947E+00  0.2579E+01
  -6.810  0.7939E+00  0.2587E+01
  -6.800  0.7937E+00  0.2595E+01
  -6.790  0.7941E+00  0.2603E+01
  -6.780  0.7951E+00  0.2611E+01
  -6.770  0.7965E+00  0.2619E+01
  -6.760  0.7981E+00  0.2627E+01
  -6.750  0.7999E+00  0.2635E+01
  -6.740  0.8015E+00  0.2643E+01
  -6.730  0.8029E+00  0.2651E+01
  -6.720  0.8037E+00  0.2659E+01
  -6.710  0.8040E+00  0.2667E+01
  -6.700  0.8034E+00  0.2675E+01
  -6.690  0.8019E+00  0.2683E+01
  -6.680  0.7994E+00  0.2691E+01
  -6.670  0.7961E+00  0.2699E+01
  -6.660  0.7919E+00  0.2707E+01
  -6.650  0.7870E+00  0.2715E+01
  -6.640  0.7816E+00  0.2723E+01
  -6.630  0.7759E+00  0.2731E+01
  -6.620  0.7702E+00  0.2738E+01
  -6.610  0.7648E+00  0.2746E+01
  -6.600  0.7598E+00  0.2754E+01
  -6.590  0.7557E+00  0.2761E+01
  -6.580  0.7525E+00  0.2769E+01
  -6.570  0.7504E+00  0.2776E+01
  -6.560  0.7494E+00  0.2784E+01
  -6.550  0.7496E+00  0.2791E+01
  -6.540  0.7508E+00  0.2799E+01
  -6.530  0.7529E+00  0.2806E+01
  -6.520  0.7556E+00  0.2814E+01
  -6.510  0.7587E+00  0.2821E+01
  -6.500  0.7619E+00  0.2829E+01
  -6.490  0.7649E+00  0.2837E+01
  -6.480  0.7675E+00  0.2844E+01
  -6.470  0.7693E+00  0.2852E+01
  -6.460  0.7703E+00  0.2860E+01
  -6.450  0.7703E+00  0.2867E+01
  -6.440  0.7692E+00  0.2875E+01
  -6.430  0.7672E+00  0.2883E+01
  -6.420  0.7643E+00  0.2890E+01
  -6.410  0.7606E+00  0.2898E+01
  -6.400  0.7564E+00  0.2906E+01
  -6.390  0.7520E+00  0.2913E+01
  -6.380  0.7475E+00  0.2921E+01
  -6.370  0.7433E+00  0.2928E+01
  -6.360  0.7394E+00  0.2935E+01
  -6.350  0.7361E+00  0.2943E+01
  -6.340  0.7336E+00  0.2950E+01
  -6.330  0.7317E+00  0.2957E+01
  -6.320  0.7306E+00  0.2965E+01
  -6.310  0.7302E+00  0.2972E+01
  -6.300  0.7304E+00  0.2979E+01
  -6.290  0.7311E+00  0.2987E+01
  -6.280  0.7321E+00  0.2994E+01
  -6.270  0.7333E+00  0.3001E+01
  -6.260  0.7345E+00  0.3009E+01
  -6.250  0.7357E+00  0.3016E+01
  -6.240  0.7366E+00  0.3023E+01
  -6.230  0.7372E+00  0.3031E+01
  -6.220  0.7374E+00  0.3038E+01
  -6.210  0.7373E+00  0.3045E+01
  -6.200  0.7369E+00  0.3053E+01
  -6.190  0.7361E+00  0.3060E+01
  -6.180  0.7350E+00  0.3068E+01
  -6.170  0.7337E+00  0.3075E+01
  -6.160  0.7322E+00  0.3082E+01
  -6.150  0.7306E+00  0.3089E+01
  -6.140  0.7289E+00  0.3097E+01
  -6.130  0.7271E+00  0.3104E+01
  -6.120  0.7254E+00  0.3111E+01
  -6.110  0.7238E+00  0.3119E+01
  -6.100  0.7222E+00  0.3126E+01
  -6.090  0.7207E+00  0.3133E+01
  -6.080  0.7194E+00  0.3140E+01
  -6.070  0.7183E+00  0.3147E+01
  -6.060  0.7174E+00  0.3155E+01
  -6.050  0.7168E+00  0.3162E+01
  -6.040  0.7164E+00  0.3169E+01
  -6.030  0.7163E+00  0.3176E+01
  -6.020  0.7164E+00  0.3183E+01
  -6.010  0.7168E+00  0.3190E+01
  -6.000  0.7173E+00  0.3198E+01
  -5.990  0.7179E+00  0.3205E+01
  -5.980  0.7186E+00  0.3212E+01
  -5.970  0.7192E+00  0.3219E+01
  -5.960  0.7197E+00  0.3226E+01
  -5.950  0.7199E+00  0.3233E+01
  -5.940  0.7199E+00  0.3241E+01
  -5.930  0.7195E+00  0.3248E+01
  -5.920  0.7188E+00  0.3255E+01
  -5.910  0.7177E+00  0.3262E+01
  -5.900  0.7163E+00  0.3269E+01
  -5.890  0.7146E+00  0.3277E+01
  -5.880  0.7127E+00  0.3284E+01
  -5.870  0.7108E+00  0.3291E+01
  -5.860  0.7089E+00  0.3298E+01
  -5.850  0.7072E+00  0.3305E+01
  -5.840  0.7057E+00  0.3312E+01
  -5.830  0.7046E+00  0.3319E+01
  -5.820  0.7040E+00  0.3326E+01
  -5.810  0.7038E+00  0.3333E+01
  -5.800  0.7041E+00  0.3340E+01
  -5.790  0.7048E+00  0.3347E+01
  -5.780  0.7060E+00  0.3354E+01
  -5.770  0.7074E+00  0.3361E+01
  -5.760  0.7091E+00  0.3368E+01
  -5.750  0.7108E+00  0.3376E+01
  -5.740  0.7124E+00  0.3383E+01
  -5.730  0.7138E+00  0.3390E+01
  -5.720  0.7149E+00  0.3397E+01
  -5.710  0.7156E+00  0.3404E+01
  -5.700  0.7158E+00  0.3411E+01
  -5.690  0.7155E+00  0.3418E+01
  -5.680  0.7148E+00  0.3426E+01
  -5.670  0.7135E+00  0.3433E+01
  -5.660  0.7119E+00  0.3440E+01
  -5.650  0.7100E+00  0.3447E+01
  -5.640  0.7079E+00  0.3454E+01
  -5.630  0.7058E+00  0.3461E+01
  -5.620  0.7037E+00  0.3468E+01
  -5.610  0.7019E+00  0.3475E+01
  -5.600  0.7004E+00  0.3482E+01
  -5.590  0.6994E+00  0.3489E+01
  -5.580  0.6989E+00  0.3496E+01
  -5.570  0.6989E+00  0.3503E+01
  -5.560  0.6995E+00  0.3510E+01
  -5.550  0.7006E+00  0.3517E+01
  -5.540  0.7023E+00  0.3524E+01
  -5.530  0.7043E+00  0.3531E+01
  -5.520  0.7067E+00  0.3538E+01
  -5.510  0.7092E+00  0.3545E+01
  -5.500  0.7117E+00  0.3552E+01
  -5.490  0.7141E+00  0.3560E+01
  -5.480  0.7162E+00  0.3567E+01
  -5.470  0.7180E+00  0.3574E+01
  -5.460  0.7192E+00  0.3581E+01
  -5.450  0.7199E+00  0.3588E+01
  -5.440  0.7200E+00  0.3595E+01
  -5.430  0.7195E+00  0.3603E+01
  -5.420  0.7184E+00  0.3610E+01
  -5.410  0.7169E+00  0.3617E+01
  -5.400  0.7151E+00  0.3624E+01
  -5.390  0.7130E+00  0.3631E+01
  -5.380  0.7110E+00  0.3638E+01
  -5.370  0.7090E+00  0.3646E+01
  -5.360  0.7073E+00  0.3653E+01
  -5.350  0.7061E+00  0.3660E+01
  -5.340  0.7054E+00  0.3667E+01
  -5.330  0.7053E+00  0.3674E+01
  -5.320  0.7058E+00  0.3681E+01
  -5.310  0.7070E+00  0.3688E+01
  -5.300  0.7088E+00  0.3695E+01
  -5.290  0.7111E+00  0.3702E+01
  -5.280  0.7138E+00  0.3709E+01
  -5.270  0.7167E+00  0.3716E+01
  -5.260  0.7196E+00  0.3724E+01
  -5.250  0.7225E+00  0.3731E+01
  -5.240  0.7250E+00  0.3738E+01
  -5.230  0.7269E+00  0.3745E+01
  -5.220  0.7283E+00  0.3753E+01
  -5.210  0.7288E+00  0.3760E+01
  -5.200  0.7284E+00  0.3767E+01
  -5.190  0.7271E+00  0.3774E+01
  -5.180  0.7248E+00  0.3782E+01
  -5.170  0.7215E+00  0.3789E+01
  -5.160  0.7173E+00  0.3796E+01
  -5.150  0.7122E+00  0.3803E+01
  -5.140  0.7064E+00  0.3810E+01
  -5.130  0.6999E+00  0.3817E+01
  -5.120  0.6930E+00  0.3824E+01
  -5.110  0.6858E+00  0.3831E+01
  -5.100  0.6783E+00  0.3838E+01
  -5.090  0.6707E+00  0.3845E+01
  -5.080  0.6632E+00  0.3851E+01
  -5.070  0.6557E+00  0.3858E+01
  -5.060  0.6484E+00  0.3864E+01
  -5.050  0.6413E+00  0.3871E+01
  -5.040  0.6344E+00  0.3877E+01
  -5.030  0.6278E+00  0.3883E+01
  -5.020  0.6213E+00  0.3889E+01
  -5.010  0.6149E+00  0.3896E+01
  -5.000  0.6087E+00  0.3902E+01
  -4.990  0.6025E+00  0.3908E+01
  -4.980  0.5964E+00  0.3914E+01
  -4.970  0.5904E+00  0.3920E+01
  -4.960  0.5843E+00  0.3925E+01
  -4.950  0.5784E+00  0.3931E+01
  -4.940  0.5725E+00  0.3937E+01
  -4.930  0.5669E+00  0.3943E+01
  -4.920  0.5617E+00  0.3948E+01
  -4.910  0.5568E+00  0.3954E+01
  -4.900  0.5526E+00  0.3959E+01
  -4.890  0.5491E+00  0.3965E+01
  -4.880  0.5465E+00  0.3970E+01
  -4.870  0.5449E+00  0.3976E+01
  -4.860  0.5444E+00  0.3981E+01
  -4.850  0.5452E+00  0.3987E+01
  -4.840  0.5473E+00  0.3992E+01
  -4.830  0.5507E+00  0.3998E+01
  -4.820  0.5553E+00  0.4003E+01
  -4.810  0.5612E+00  0.4009E+01
  -4.800  0.5682E+00  0.4014E+01
  -4.790  0.5762E+00  0.4020E+01
  -4.780  0.5851E+00  0.4026E+01
  -4.770  0.5946E+00  0.4032E+01
  -4.760  0.6046E+00  0.4038E+01
  -4.750  0.6149E+00  0.4044E+01
  -4.740  0.6254E+00  0.4050E+01
  -4.730  0.6360E+00  0.4057E+01
  -4.720  0.6465E+00  0.4063E+01
  -4.710  0.6569E+00  0.4070E+01
  -4.700  0.6671E+00  0.4077E+01
  -4.690  0.6773E+00  0.4083E+01
  -4.680  0.6873E+00  0.4090E+01
  -4.670  0.6973E+00  0.4097E+01
  -4.660  0.7073E+00  0.4104E+01
  -4.650  0.7174E+00  0.4111E+01
  -4.640  0.7277E+00  0.4119E+01
  -4.630  0.7380E+00  0.4126E+01
  -4.620  0.7484E+00  0.4134E+01
  -4.610  0.7589E+00  0.4141E+01
  -4.600  0.7692E+00  0.4149E+01
  -4.590  0.7791E+00  0.4157E+01
  -4.580  0.7886E+00  0.4165E+01
  -4.570  0.7972E+00  0.4172E+01
  -4.560  0.8047E+00  0.4181E+01
  -4.550  0.8108E+00  0.4189E+01
  -4.540  0.8152E+00  0.4197E+01
  -4.530  0.8178E+00  0.4205E+01
  -4.520  0.8182E+00  0.4213E+01
  -4.510  0.8165E+00  0.4221E+01
  -4.500  0.8125E+00  0.4229E+01
  -4.490  0.8062E+00  0.4237E+01
  -4.480  0.7979E+00  0.4245E+01
  -4.470  0.7878E+00  0.4253E+01
  -4.460  0.7760E+00  0.4261E+01
  -4.450  0.7629E+00  0.4269E+01
  -4.440  0.7488E+00  0.4276E+01
  -4.430  0.7342E+00  0.4284E+01
  -4.420  0.7193E+00  0.4291E+01
  -4.410  0.7044E+00  0.4298E+01
  -4.400  0.6898E+00  0.4305E+01
  -4.390  0.6757E+00  0.4311E+01
  -4.380  0.6623E+00  0.4318E+01
  -4.370  0.6495E+00  0.4325E+01
  -4.360  0.6374E+00  0.4331E+01
  -4.350  0.6260E+00  0.4337E+01
  -4.340  0.6151E+00  0.4343E+01
  -4.330  0.6048E+00  0.4349E+01
  -4.320  0.5948E+00  0.4355E+01
  -4.310  0.5851E+00  0.4361E+01
  -4.300  0.5756E+00  0.4367E+01
  -4.290  0.5662E+00  0.4373E+01
  -4.280  0.5570E+00  0.4378E+01
  -4.270  0.5480E+00  0.4384E+01
  -4.260  0.5391E+00  0.4389E+01
  -4.250  0.5304E+00  0.4394E+01
  -4.240  0.5220E+00  0.4400E+01
  -4.230  0.5140E+00  0.4405E+01
  -4.220  0.5064E+00  0.4410E+01
  -4.210  0.4992E+00  0.4415E+01
  -4.200  0.4924E+00  0.4420E+01
  -4.190  0.4862E+00  0.4425E+01
  -4.180  0.4803E+00  0.4429E+01
  -4.170  0.4748E+00  0.4434E+01
  -4.160  0.4697E+00  0.4439E+01
  -4.150  0.4648E+00  0.4443E+01
  -4.140  0.4601E+00  0.4448E+01
  -4.130  0.4555E+00  0.4453E+01
  -4.120  0.4510E+00  0.4457E+01
  -4.110  0.4465E+00  0.4462E+01
  -4.100  0.4420E+00  0.4466E+01
  -4.090  0.4376E+00  0.4470E+01
  -4.080  0.4331E+00  0.4475E+01
  -4.070  0.4286E+00  0.4479E+01
  -4.060  0.4241E+00  0.4483E+01
  -4.050  0.4197E+00  0.4487E+01
  -4.040  0.4154E+00  0.4492E+01
  -4.030  0.4112E+00  0.4496E+01
  -4.020  0.4072E+00  0.4500E+01
  -4.010  0.4033E+00  0.4504E+01
  -4.000  0.3995E+00  0.4508E+01
  -3.990  0.3958E+00  0.4512E+01
  -3.980  0.3922E+00  0.4516E+01
  -3.970  0.3888E+00  0.4520E+01
  -3.960  0.3854E+00  0.4523E+01
  -3.950  0.3821E+00  0.4527E+01
  -3.940  0.3788E+00  0.4531E+01
  -3.930  0.3755E+00  0.4535E+01
  -3.920  0.3722E+00  0.4539E+01
  -3.910  0.3689E+00  0.4542E+01
  -3.900  0.3656E+00  0.4546E+01
  -3.890  0.3622E+00  0.4549E+01
  -3.880  0.3587E+00  0.4553E+01
  -3.870  0.3552E+00  0.4557E+01
  -3.860  0.3516E+00  0.4560E+01
  -3.850  0.3478E+00  0.4564E+01
  -3.840  0.3438E+00  0.4567E+01
  -3.830  0.3396E+00  0.4570E+01
  -3.820  0.3352E+00  0.4574E+01
  -3.810  0.3304E+00  0.4577E+01
  -3.800  0.3253E+00  0.4580E+01
  -3.790  0.3197E+00  0.4584E+01
  -3.780  0.3136E+00  0.4587E+01
  -3.770  0.3069E+00  0.4590E+01
  -3.760  0.2997E+00  0.4593E+01
  -3.750  0.2918E+00  0.4596E+01
  -3.740  0.2832E+00  0.4599E+01
  -3.730  0.2739E+00  0.4601E+01
  -3.720  0.2640E+00  0.4604E+01
  -3.710  0.2533E+00  0.4606E+01
  -3.700  0.2421E+00  0.4609E+01
  -3.690  0.2302E+00  0.4611E+01
  -3.680  0.2177E+00  0.4613E+01
  -3.670  0.2049E+00  0.4615E+01
  -3.660  0.1917E+00  0.4617E+01
  -3.650  0.1783E+00  0.4619E+01
  -3.640  0.1648E+00  0.4621E+01
  -3.630  0.1513E+00  0.4622E+01
  -3.620  0.1380E+00  0.4624E+01
  -3.610  0.1249E+00  0.4625E+01
  -3.600  0.1123E+00  0.4626E+01
  -3.590  0.1002E+00  0.4627E+01
  -3.580  0.8872E-01  0.4628E+01
  -3.570  0.7794E-01  0.4629E+01
  -3.560  0.6791E-01  0.4629E+01
  -3.550  0.5869E-01  0.4630E+01
  -3.540  0.5030E-01  0.4630E+01
  -3.530  0.4274E-01  0.4631E+01
  -3.520  0.3600E-01  0.4631E+01
  -3.510  0.3006E-01  0.4632E+01
  -3.500  0.2488E-01  0.4632E+01
  -3.490  0.2041E-01  0.4632E+01
  -3.480  0.1658E-01  0.4632E+01
  -3.470  0.1336E-01  0.4632E+01
  -3.460  0.1065E-01  0.4632E+01
  -3.450  0.8421E-02  0.4632E+01
  -3.440  0.6593E-02  0.4633E+01
  -3.430  0.5112E-02  0.4633E+01
  -3.420  0.3926E-02  0.4633E+01
  -3.410  0.2987E-02  0.4633E+01
  -3.400  0.2250E-02  0.4633E+01
  -3.390  0.1678E-02  0.4633E+01
  -3.380  0.1240E-02  0.4633E+01
  -3.370  0.9067E-03  0.4633E+01
  -3.360  0.6566E-03  0.4633E+01
  -3.350  0.4708E-03  0.4633E+01
  -3.340  0.3342E-03  0.4633E+01
  -3.330  0.2348E-03  0.4633E+01
  -3.320  0.1634E-03  0.4633E+01
  -3.310  0.1125E-03  0.4633E+01
  -3.300  0.7672E-04  0.4633E+01
  -3.290  0.5177E-04  0.4633E+01
  -3.280  0.3459E-04  0.4633E+01
  -3.270  0.2287E-04  0.4633E+01
  -3.260  0.1497E-04  0.4633E+01
  -3.250  0.9697E-05  0.4633E+01
  -3.240  0.6217E-05  0.4633E+01
  -3.230  0.3945E-05  0.4633E+01
  -3.220  0.2478E-05  0.4633E+01
  -3.210  0.1540E-05  0.4633E+01
  -3.200  0.9477E-06  0.4633E+01
  -3.190  0.5770E-06  0.4633E+01
  -3.180  0.3477E-06  0.4633E+01
  -3.170  0.2073E-06  0.4633E+01
  -3.160  0.1224E-06  0.4633E+01
  -3.150  0.7145E-07  0.4633E+01
  -3.140  0.4130E-07  0.4633E+01
  -3.130  0.2362E-07  0.4633E+01
  -3.120  0.1337E-07  0.4633E+01
  -3.110  0.7487E-08  0.4633E+01
  -3.100  0.4149E-08  0.4633E+01
  -3.090  0.2276E-08  0.4633E+01
  -3.080  0.1235E-08  0.4633E+01
  -3.070  0.6632E-09  0.4633E+01
  -3.060  0.3524E-09  0.4633E+01
  -3.050  0.1853E-09  0.4633E+01
  -3.040  0.9643E-10  0.4633E+01
  -3.030  0.4965E-10  0.4633E+01
  -3.020  0.2529E-10  0.4633E+01
  -3.010  0.1275E-10  0.4633E+01
  -3.000  0.6360E-11  0.4633E+01
  -2.990  0.3139E-11  0.4633E+01
  -2.980  0.1533E-11  0.4633E+01
  -2.970  0.7407E-12  0.4633E+01
  -2.960  0.3541E-12  0.4633E+01
  -2.950  0.1675E-12  0.4633E+01
  -2.940  0.7841E-13  0.4633E+01
  -2.930  0.3632E-13  0.4633E+01
  -2.920  0.1664E-13  0.4633E+01
  -2.910  0.7545E-14  0.4633E+01
  -2.900  0.3385E-14  0.4633E+01
  -2.890  0.1502E-14  0.4633E+01
  -2.880  0.6598E-15  0.4633E+01
  -2.870  0.2867E-15  0.4633E+01
  -2.860  0.1233E-15  0.4633E+01
  -2.850  0.5243E-16  0.4633E+01
  -2.840  0.2207E-16  0.4633E+01
  -2.830  0.9188E-17  0.4633E+01
  -2.820  0.3785E-17  0.4633E+01
  -2.810  0.1543E-17  0.4633E+01
  -2.800  0.6223E-18  0.4633E+01
  -2.790  0.2483E-18  0.4633E+01
  -2.780  0.9801E-19  0.4633E+01
  -2.770  0.3828E-19  0.4633E+01
  -2.760  0.1479E-19  0.4633E+01
  -2.750  0.5656E-20  0.4633E+01
  -2.740  0.2139E-20  0.4633E+01
  -2.730  0.8006E-21  0.4633E+01
  -2.720  0.2964E-21  0.4633E+01
  -2.710  0.1086E-21  0.4633E+01
  -2.700  0.3935E-22  0.4633E+01
  -2.690  0.1411E-22  0.4633E+01
  -2.680  0.5005E-23  0.4633E+01
  -2.670  0.1757E-23  0.4633E+01
  -2.660  0.6099E-24  0.4633E+01
  -2.650  0.2095E-24  0.4633E+01
  -2.640  0.7120E-25  0.4633E+01
  -2.630  0.2394E-25  0.4633E+01
  -2.620  0.7964E-26  0.4633E+01
  -2.610  0.2621E-26  0.4633E+01
  -2.600  0.8533E-27  0.4633E+01
  -2.590  0.2749E-27  0.4633E+01
  -2.580  0.8760E-28  0.4633E+01
  -2.570  0.2762E-28  0.4633E+01
  -2.560  0.8614E-29  0.4633E+01
  -2.550  0.2658E-29  0.4633E+01
  -2.540  0.8115E-30  0.4633E+01
  -2.530  0.2451E-30  0.4633E+01
  -2.520  0.7323E-31  0.4633E+01
  -2.510  0.2165E-31  0.4633E+01
  -2.500  0.6331E-32  0.4633E+01
  -2.490  0.1832E-32  0.4633E+01
  -2.480  0.5243E-33  0.4633E+01
  -2.470  0.1485E-33  0.4633E+01
  -2.460  0.4159E-34  0.4633E+01
  -2.450  0.1153E-34  0.4633E+01
  -2.440  0.3161E-35  0.4633E+01
  -2.430  0.8573E-36  0.4633E+01
  -2.420  0.2301E-36  0.4633E+01
  -2.410  0.6108E-37  0.4633E+01
  -2.400  0.1604E-37  0.4633E+01
  -2.390  0.4168E-38  0.4633E+01
  -2.380  0.1071E-38  0.4633E+01
  -2.370  0.2724E-39  0.4633E+01
  -2.360  0.6854E-40  0.4633E+01
  -2.350  0.1706E-40  0.4633E+01
  -2.340  0.4200E-41  0.4633E+01
  -2.330  0.1023E-41  0.4633E+01
  -2.320  0.2465E-42  0.4633E+01
  -2.310  0.5877E-43  0.4633E+01
  -2.300  0.1386E-43  0.4633E+01
  -2.290  0.3234E-44  0.4633E+01
  -2.280  0.7463E-45  0.4633E+01
  -2.270  0.1704E-45  0.4633E+01
  -2.260  0.3850E-46  0.4633E+01
  -2.250  0.8603E-47  0.4633E+01
  -2.240  0.1902E-47  0.4633E+01
  -2.230  0.4160E-48  0.4633E+01
  -2.220  0.9000E-49  0.4633E+01
  -2.210  0.1926E-49  0.4633E+01
  -2.200  0.4079E-50  0.4633E+01
  -2.190  0.8545E-51  0.4633E+01
  -2.180  0.1771E-51  0.4633E+01
  -2.170  0.3630E-52  0.4633E+01
  -2.160  0.7363E-53  0.4633E+01
  -2.150  0.1477E-53  0.4633E+01
  -2.140  0.2932E-54  0.4633E+01
  -2.130  0.5758E-55  0.4633E+01
  -2.120  0.1118E-55  0.4633E+01
  -2.110  0.2149E-56  0.4633E+01
  -2.100  0.4086E-57  0.4633E+01
  -2.090  0.7685E-58  0.4633E+01
  -2.080  0.1430E-58  0.4633E+01
  -2.070  0.2632E-59  0.4633E+01
  -2.060  0.4792E-60  0.4633E+01
  -2.050  0.8632E-61  0.4633E+01
  -2.040  0.1538E-61  0.4633E+01
  -2.030  0.2712E-62  0.4633E+01
  -2.020  0.4729E-63  0.4633E+01
  -2.010  0.8158E-64  0.4633E+01
  -2.000  0.1392E-64  0.4633E+01
  -1.990  0.2351E-65  0.4633E+01
  -1.980  0.3927E-66  0.4633E+01
  -1.970  0.6488E-67  0.4633E+01
  -1.960  0.1061E-67  0.4633E+01
  -1.950  0.1715E-68  0.4633E+01
  -1.940  0.2744E-69  0.4633E+01
  -1.930  0.4342E-70  0.4633E+01
  -1.920  0.6798E-71  0.4633E+01
  -1.910  0.1053E-71  0.4633E+01
  -1.900  0.1613E-72  0.4633E+01
  -1.890  0.2445E-73  0.4633E+01
  -1.880  0.3666E-74  0.4633E+01
  -1.870  0.5438E-75  0.4633E+01
  -1.860  0.7980E-76  0.4633E+01
  -1.850  0.1158E-76  0.4633E+01
  -1.840  0.1663E-77  0.4633E+01
  -1.830  0.2363E-78  0.4633E+01
  -1.820  0.3321E-79  0.4633E+01
  -1.810  0.4618E-80  0.4633E+01
  -1.800  0.6353E-81  0.4633E+01
  -1.790  0.8660E-82  0.4633E+01
  -1.780  0.1182E-82  0.4633E+01
  -1.770  0.1732E-83  0.4633E+01
  -1.760  0.3875E-84  0.4633E+01
  -1.750  0.2101E-84  0.4633E+01
  -1.740  0.1870E-84  0.4633E+01
  -1.730  0.1840E-84  0.4633E+01
  -1.720  0.1837E-84  0.4633E+01
  -1.710  0.1836E-84  0.4633E+01
  -1.700  0.1836E-84  0.4633E+01
  -1.690  0.1836E-84  0.4633E+01
  -1.680  0.1836E-84  0.4633E+01
  -1.670  0.1836E-84  0.4633E+01
  -1.660  0.1836E-84  0.4633E+01
  -1.650  0.1836E-84  0.4633E+01
  -1.640  0.1836E-84  0.4633E+01
  -1.630  0.1836E-84  0.4633E+01
  -1.620  0.1836E-84  0.4633E+01
  -1.610  0.1836E-84  0.4633E+01
  -1.600  0.1836E-84  0.4633E+01
  -1.590  0.1836E-84  0.4633E+01
  -1.580  0.1836E-84  0.4633E+01
  -1.570  0.1836E-84  0.4633E+01
  -1.560  0.1836E-84  0.4633E+01
  -1.550  0.1836E-84  0.4633E+01
  -1.540  0.1836E-84  0.4633E+01
  -1.530  0.1836E-84  0.4633E+01
  -1.520  0.1836E-84  0.4633E+01
  -1.510  0.1836E-84  0.4633E+01
  -1.500  0.1836E-84  0.4633E+01
  -1.490  0.1836E-84  0.4633E+01
  -1.480  0.1836E-84  0.4633E+01
  -1.470  0.1836E-84  0.4633E+01
  -1.460  0.1836E-84  0.4633E+01
  -1.450  0.1836E-84  0.4633E+01
  -1.440  0.1836E-84  0.4633E+01
  -1.430  0.1836E-84  0.4633E+01
  -1.420  0.1836E-84  0.4633E+01
  -1.410  0.1836E-84  0.4633E+01
  -1.400  0.1836E-84  0.4633E+01
  -1.390  0.1836E-84  0.4633E+01
  -1.380  0.1836E-84  0.4633E+01
  -1.370  0.1836E-84  0.4633E+01
  -1.360  0.1836E-84  0.4633E+01
  -1.350  0.1836E-84  0.4633E+01
  -1.340  0.1836E-84  0.4633E+01
  -1.330  0.1836E-84  0.4633E+01
  -1.320  0.1836E-84  0.4633E+01
  -1.310  0.1836E-84  0.4633E+01
  -1.300  0.1836E-84  0.4633E+01
  -1.290  0.1836E-84  0.4633E+01
  -1.280  0.1836E-84  0.4633E+01
  -1.270  0.1836E-84  0.4633E+01
  -1.260  0.1836E-84  0.4633E+01
  -1.250  0.1836E-84  0.4633E+01
  -1.240  0.1836E-84  0.4633E+01
  -1.230  0.1836E-84  0.4633E+01
  -1.220  0.1836E-84  0.4633E+01
  -1.210  0.1836E-84  0.4633E+01
  -1.200  0.1836E-84  0.4633E+01
  -1.190  0.1836E-84  0.4633E+01
  -1.180  0.1836E-84  0.4633E+01
  -1.170  0.1836E-84  0.4633E+01
  -1.160  0.1837E-84  0.4633E+01
  -1.150  0.1844E-84  0.4633E+01
  -1.140  0.1897E-84  0.4633E+01
  -1.130  0.2306E-84  0.4633E+01
  -1.120  0.5419E-84  0.4633E+01
  -1.110  0.2885E-83  0.4633E+01
  -1.100  0.2033E-82  0.4633E+01
  -1.090  0.1488E-81  0.4633E+01
  -1.080  0.1085E-80  0.4633E+01
  -1.070  0.7835E-80  0.4633E+01
  -1.060  0.5597E-79  0.4633E+01
  -1.050  0.3956E-78  0.4633E+01
  -1.040  0.2766E-77  0.4633E+01
  -1.030  0.1913E-76  0.4633E+01
  -1.020  0.1309E-75  0.4633E+01
  -1.010  0.8863E-75  0.4633E+01
  -1.000  0.5936E-74  0.4633E+01
  -0.990  0.3933E-73  0.4633E+01
  -0.980  0.2578E-72  0.4633E+01
  -0.970  0.1672E-71  0.4633E+01
  -0.960  0.1072E-70  0.4633E+01
  -0.950  0.6807E-70  0.4633E+01
  -0.940  0.4274E-69  0.4633E+01
  -0.930  0.2655E-68  0.4633E+01
  -0.920  0.1632E-67  0.4633E+01
  -0.910  0.9919E-67  0.4633E+01
  -0.900  0.5966E-66  0.4633E+01
  -0.890  0.3550E-65  0.4633E+01
  -0.880  0.2090E-64  0.4633E+01
  -0.870  0.1217E-63  0.4633E+01
  -0.860  0.7011E-63  0.4633E+01
  -0.850  0.3996E-62  0.4633E+01
  -0.840  0.2253E-61  0.4633E+01
  -0.830  0.1257E-60  0.4633E+01
  -0.820  0.6938E-60  0.4633E+01
  -0.810  0.3788E-59  0.4633E+01
  -0.800  0.2046E-58  0.4633E+01
  -0.790  0.1093E-57  0.4633E+01
  -0.780  0.5780E-57  0.4633E+01
  -0.770  0.3023E-56  0.4633E+01
  -0.760  0.1564E-55  0.4633E+01
  -0.750  0.8007E-55  0.4633E+01
  -0.740  0.4055E-54  0.4633E+01
  -0.730  0.2032E-53  0.4633E+01
  -0.720  0.1007E-52  0.4633E+01
  -0.710  0.4938E-52  0.4633E+01
  -0.700  0.2395E-51  0.4633E+01
  -0.690  0.1150E-50  0.4633E+01
  -0.680  0.5458E-50  0.4633E+01
  -0.670  0.2564E-49  0.4633E+01
  -0.660  0.1192E-48  0.4633E+01
  -0.650  0.5478E-48  0.4633E+01
  -0.640  0.2492E-47  0.4633E+01
  -0.630  0.1121E-46  0.4633E+01
  -0.620  0.4991E-46  0.4633E+01
  -0.610  0.2198E-45  0.4633E+01
  -0.600  0.9577E-45  0.4633E+01
  -0.590  0.4128E-44  0.4633E+01
  -0.580  0.1761E-43  0.4633E+01
  -0.570  0.7428E-43  0.4633E+01
  -0.560  0.3100E-42  0.4633E+01
  -0.550  0.1280E-41  0.4633E+01
  -0.540  0.5230E-41  0.4633E+01
  -0.530  0.2114E-40  0.4633E+01
  -0.520  0.8452E-40  0.4633E+01
  -0.510  0.3343E-39  0.4633E+01
  -0.500  0.1308E-38  0.4633E+01
  -0.490  0.5066E-38  0.4633E+01
  -0.480  0.1941E-37  0.4633E+01
  -0.470  0.7354E-37  0.4633E+01
  -0.460  0.2757E-36  0.4633E+01
  -0.450  0.1023E-35  0.4633E+01
  -0.440  0.3752E-35  0.4633E+01
  -0.430  0.1362E-34  0.4633E+01
  -0.420  0.4893E-34  0.4633E+01
  -0.410  0.1739E-33  0.4633E+01
  -0.400  0.6112E-33  0.4633E+01
  -0.390  0.2126E-32  0.4633E+01
  -0.380  0.7314E-32  0.4633E+01
  -0.370  0.2490E-31  0.4633E+01
  -0.360  0.8385E-31  0.4633E+01
  -0.350  0.2794E-30  0.4633E+01
  -0.340  0.9210E-30  0.4633E+01
  -0.330  0.3004E-29  0.4633E+01
  -0.320  0.9691E-29  0.4633E+01
  -0.310  0.3094E-28  0.4633E+01
  -0.300  0.9770E-28  0.4633E+01
  -0.290  0.3053E-27  0.4633E+01
  -0.280  0.9436E-27  0.4633E+01
  -0.270  0.2886E-26  0.4633E+01
  -0.260  0.8731E-26  0.4633E+01
  -0.250  0.2614E-25  0.4633E+01
  -0.240  0.7741E-25  0.4633E+01
  -0.230  0.2268E-24  0.4633E+01
  -0.220  0.6575E-24  0.4633E+01
  -0.210  0.1886E-23  0.4633E+01
  -0.200  0.5350E-23  0.4633E+01
  -0.190  0.1502E-22  0.4633E+01
  -0.180  0.4172E-22  0.4633E+01
  -0.170  0.1146E-21  0.4633E+01
  -0.160  0.3116E-21  0.4633E+01
  -0.150  0.8383E-21  0.4633E+01
  -0.140  0.2231E-20  0.4633E+01
  -0.130  0.5873E-20  0.4633E+01
  -0.120  0.1530E-19  0.4633E+01
  -0.110  0.3943E-19  0.4633E+01
  -0.100  0.1005E-18  0.4633E+01
  -0.090  0.2537E-18  0.4633E+01
  -0.080  0.6331E-18  0.4633E+01
  -0.070  0.1564E-17  0.4633E+01
  -0.060  0.3820E-17  0.4633E+01
  -0.050  0.9235E-17  0.4633E+01
  -0.040  0.2209E-16  0.4633E+01
  -0.030  0.5227E-16  0.4633E+01
  -0.020  0.1224E-15  0.4633E+01
  -0.010  0.2835E-15  0.4633E+01
   0.000  0.6498E-15  0.4633E+01
   0.010  0.1474E-14  0.4633E+01
   0.020  0.3307E-14  0.4633E+01
   0.030  0.7341E-14  0.4633E+01
   0.040  0.1613E-13  0.4633E+01
   0.050  0.3505E-13  0.4633E+01
   0.060  0.7536E-13  0.4633E+01
   0.070  0.1603E-12  0.4633E+01
   0.080  0.3376E-12  0.4633E+01
   0.090  0.7032E-12  0.4633E+01
   0.100  0.1449E-11  0.4633E+01
   0.110  0.2956E-11  0.4633E+01
   0.120  0.5964E-11  0.4633E+01
   0.130  0.1191E-10  0.4633E+01
   0.140  0.2353E-10  0.4633E+01
   0.150  0.4599E-10  0.4633E+01
   0.160  0.8896E-10  0.4633E+01
   0.170  0.1703E-09  0.4633E+01
   0.180  0.3225E-09  0.4633E+01
   0.190  0.6044E-09  0.4633E+01
   0.200  0.1121E-08  0.4633E+01
   0.210  0.2057E-08  0.4633E+01
   0.220  0.3735E-08  0.4633E+01
   0.230  0.6711E-08  0.4633E+01
   0.240  0.1193E-07  0.4633E+01
   0.250  0.2100E-07  0.4633E+01
   0.260  0.3656E-07  0.4633E+01
   0.270  0.6300E-07  0.4633E+01
   0.280  0.1074E-06  0.4633E+01
   0.290  0.1813E-06  0.4633E+01
   0.300  0.3027E-06  0.4633E+01
   0.310  0.5003E-06  0.4633E+01
   0.320  0.8184E-06  0.4633E+01
   0.330  0.1325E-05  0.4633E+01
   0.340  0.2122E-05  0.4633E+01
   0.350  0.3365E-05  0.4633E+01
   0.360  0.5281E-05  0.4633E+01
   0.370  0.8202E-05  0.4633E+01
   0.380  0.1261E-04  0.4633E+01
   0.390  0.1918E-04  0.4633E+01
   0.400  0.2889E-04  0.4633E+01
   0.410  0.4307E-04  0.4633E+01
   0.420  0.6356E-04  0.4633E+01
   0.430  0.9284E-04  0.4633E+01
   0.440  0.1342E-03  0.4633E+01
   0.450  0.1921E-03  0.4633E+01
   0.460  0.2723E-03  0.4633E+01
   0.470  0.3820E-03  0.4633E+01
   0.480  0.5305E-03  0.4633E+01
   0.490  0.7296E-03  0.4633E+01
   0.500  0.9934E-03  0.4633E+01
   0.510  0.1339E-02  0.4633E+01
   0.520  0.1788E-02  0.4633E+01
   0.530  0.2363E-02  0.4633E+01
   0.540  0.3094E-02  0.4633E+01
   0.550  0.4012E-02  0.4633E+01
   0.560  0.5151E-02  0.4633E+01
   0.570  0.6552E-02  0.4633E+01
   0.580  0.8255E-02  0.4633E+01
   0.590  0.1030E-01  0.4633E+01
   0.600  0.1274E-01  0.4633E+01
   0.610  0.1561E-01  0.4633E+01
   0.620  0.1895E-01  0.4634E+01
   0.630  0.2280E-01  0.4634E+01
   0.640  0.2719E-01  0.4634E+01
   0.650  0.3214E-01  0.4634E+01
   0.660  0.3765E-01  0.4635E+01
   0.670  0.4374E-01  0.4635E+01
   0.680  0.5039E-01  0.4636E+01
   0.690  0.5758E-01  0.4636E+01
   0.700  0.6525E-01  0.4637E+01
   0.710  0.7337E-01  0.4638E+01
   0.720  0.8186E-01  0.4639E+01
   0.730  0.9065E-01  0.4639E+01
   0.740  0.9966E-01  0.4640E+01
   0.750  0.1088E+00  0.4642E+01
   0.760  0.1180E+00  0.4643E+01
   0.770  0.1271E+00  0.4644E+01
   0.780  0.1360E+00  0.4645E+01
   0.790  0.1448E+00  0.4647E+01
   0.800  0.1532E+00  0.4648E+01
   0.810  0.1614E+00  0.4650E+01
   0.820  0.1691E+00  0.4652E+01
   0.830  0.1765E+00  0.4653E+01
   0.840  0.1835E+00  0.4655E+01
   0.850  0.1902E+00  0.4657E+01
   0.860  0.1966E+00  0.4659E+01
   0.870  0.2028E+00  0.4661E+01
   0.880  0.2089E+00  0.4663E+01
   0.890  0.2150E+00  0.4665E+01
   0.900  0.2213E+00  0.4668E+01
   0.910  0.2280E+00  0.4670E+01
   0.920  0.2353E+00  0.4672E+01
   0.930  0.2434E+00  0.4675E+01
   0.940  0.2526E+00  0.4677E+01
   0.950  0.2631E+00  0.4680E+01
   0.960  0.2752E+00  0.4683E+01
   0.970  0.2891E+00  0.4685E+01
   0.980  0.3053E+00  0.4689E+01
   0.990  0.3239E+00  0.4692E+01
   1.000  0.3452E+00  0.4695E+01
   1.010  0.3695E+00  0.4699E+01
   1.020  0.3971E+00  0.4703E+01
   1.030  0.4281E+00  0.4707E+01
   1.040  0.4626E+00  0.4712E+01
   1.050  0.5008E+00  0.4717E+01
   1.060  0.5427E+00  0.4722E+01
   1.070  0.5881E+00  0.4728E+01
   1.080  0.6368E+00  0.4734E+01
   1.090  0.6888E+00  0.4741E+01
   1.100  0.7434E+00  0.4749E+01
   1.110  0.8004E+00  0.4757E+01
   1.120  0.8590E+00  0.4765E+01
   1.130  0.9187E+00  0.4775E+01
   1.140  0.9787E+00  0.4784E+01
   1.150  0.1038E+01  0.4795E+01
   1.160  0.1096E+01  0.4806E+01
   1.170  0.1152E+01  0.4817E+01
   1.180  0.1205E+01  0.4829E+01
   1.190  0.1255E+01  0.4842E+01
   1.200  0.1299E+01  0.4855E+01
   1.210  0.1339E+01  0.4868E+01
   1.220  0.1373E+01  0.4882E+01
   1.230  0.1401E+01  0.4896E+01
   1.240  0.1422E+01  0.4910E+01
   1.250  0.1437E+01  0.4925E+01
   1.260  0.1446E+01  0.4939E+01
   1.270  0.1449E+01  0.4954E+01
   1.280  0.1446E+01  0.4968E+01
   1.290  0.1437E+01  0.4982E+01
   1.300  0.1424E+01  0.4997E+01
   1.310  0.1406E+01  0.5011E+01
   1.320  0.1385E+01  0.5024E+01
   1.330  0.1361E+01  0.5038E+01
   1.340  0.1335E+01  0.5051E+01
   1.350  0.1307E+01  0.5065E+01
   1.360  0.1278E+01  0.5077E+01
   1.370  0.1249E+01  0.5090E+01
   1.380  0.1219E+01  0.5102E+01
   1.390  0.1190E+01  0.5114E+01
   1.400  0.1162E+01  0.5126E+01
   1.410  0.1135E+01  0.5137E+01
   1.420  0.1109E+01  0.5148E+01
   1.430  0.1084E+01  0.5159E+01
   1.440  0.1060E+01  0.5169E+01
   1.450  0.1038E+01  0.5180E+01
   1.460  0.1017E+01  0.5190E+01
   1.470  0.9977E+00  0.5200E+01
   1.480  0.9795E+00  0.5210E+01
   1.490  0.9626E+00  0.5219E+01
   1.500  0.9468E+00  0.5229E+01
   1.510  0.9321E+00  0.5238E+01
   1.520  0.9183E+00  0.5247E+01
   1.530  0.9055E+00  0.5256E+01
   1.540  0.8935E+00  0.5265E+01
   1.550  0.8823E+00  0.5274E+01
   1.560  0.8717E+00  0.5283E+01
   1.570  0.8619E+00  0.5291E+01
   1.580  0.8526E+00  0.5300E+01
   1.590  0.8439E+00  0.5308E+01
   1.600  0.8358E+00  0.5317E+01
   1.610  0.8282E+00  0.5325E+01
   1.620  0.8211E+00  0.5333E+01
   1.630  0.8145E+00  0.5341E+01
   1.640  0.8084E+00  0.5350E+01
   1.650  0.8028E+00  0.5358E+01
   1.660  0.7977E+00  0.5366E+01
   1.670  0.7931E+00  0.5373E+01
   1.680  0.7890E+00  0.5381E+01
   1.690  0.7855E+00  0.5389E+01
   1.700  0.7826E+00  0.5397E+01
   1.710  0.7804E+00  0.5405E+01
   1.720  0.7789E+00  0.5413E+01
   1.730  0.7781E+00  0.5420E+01
   1.740  0.7782E+00  0.5428E+01
   1.750  0.7791E+00  0.5436E+01
   1.760  0.7809E+00  0.5444E+01
   1.770  0.7836E+00  0.5452E+01
   1.780  0.7871E+00  0.5459E+01
   1.790  0.7914E+00  0.5467E+01
   1.800  0.7965E+00  0.5475E+01
   1.810  0.8022E+00  0.5483E+01
   1.820  0.8084E+00  0.5491E+01
   1.830  0.8151E+00  0.5500E+01
   1.840  0.8220E+00  0.5508E+01
   1.850  0.8290E+00  0.5516E+01
   1.860  0.8359E+00  0.5524E+01
   1.870  0.8427E+00  0.5533E+01
   1.880  0.8492E+00  0.5541E+01
   1.890  0.8552E+00  0.5550E+01
   1.900  0.8607E+00  0.5559E+01
   1.910  0.8658E+00  0.5567E+01
   1.920  0.8702E+00  0.5576E+01
   1.930  0.8740E+00  0.5585E+01
   1.940  0.8773E+00  0.5593E+01
   1.950  0.8801E+00  0.5602E+01
   1.960  0.8823E+00  0.5611E+01
   1.970  0.8841E+00  0.5620E+01
   1.980  0.8856E+00  0.5629E+01
   1.990  0.8867E+00  0.5638E+01
   2.000  0.8876E+00  0.5646E+01
   2.010  0.8882E+00  0.5655E+01
   2.020  0.8887E+00  0.5664E+01
   2.030  0.8890E+00  0.5673E+01
   2.040  0.8892E+00  0.5682E+01
   2.050  0.8893E+00  0.5691E+01
   2.060  0.8893E+00  0.5700E+01
   2.070  0.8891E+00  0.5709E+01
   2.080  0.8887E+00  0.5718E+01
   2.090  0.8880E+00  0.5726E+01
   2.100  0.8871E+00  0.5735E+01
   2.110  0.8859E+00  0.5744E+01
   2.120  0.8843E+00  0.5753E+01
   2.130  0.8824E+00  0.5762E+01
   2.140  0.8801E+00  0.5771E+01
   2.150  0.8775E+00  0.5779E+01
   2.160  0.8746E+00  0.5788E+01
   2.170  0.8716E+00  0.5797E+01
   2.180  0.8684E+00  0.5806E+01
   2.190  0.8653E+00  0.5814E+01
   2.200  0.8623E+00  0.5823E+01
   2.210  0.8596E+00  0.5831E+01
   2.220  0.8573E+00  0.5840E+01
   2.230  0.8554E+00  0.5849E+01
   2.240  0.8541E+00  0.5857E+01
   2.250  0.8533E+00  0.5866E+01
   2.260  0.8531E+00  0.5874E+01
   2.270  0.8534E+00  0.5883E+01
   2.280  0.8541E+00  0.5891E+01
   2.290  0.8551E+00  0.5900E+01
   2.300  0.8563E+00  0.5908E+01
   2.310  0.8576E+00  0.5917E+01
   2.320  0.8586E+00  0.5926E+01
   2.330  0.8595E+00  0.5934E+01
   2.340  0.8599E+00  0.5943E+01
   2.350  0.8600E+00  0.5951E+01
   2.360  0.8595E+00  0.5960E+01
   2.370  0.8586E+00  0.5969E+01
   2.380  0.8573E+00  0.5977E+01
   2.390  0.8557E+00  0.5986E+01
   2.400  0.8539E+00  0.5994E+01
   2.410  0.8522E+00  0.6003E+01
   2.420  0.8507E+00  0.6011E+01
   2.430  0.8496E+00  0.6020E+01
   2.440  0.8493E+00  0.6028E+01
   2.450  0.8497E+00  0.6037E+01
   2.460  0.8512E+00  0.6045E+01
   2.470  0.8538E+00  0.6054E+01
   2.480  0.8577E+00  0.6062E+01
   2.490  0.8628E+00  0.6071E+01
   2.500  0.8691E+00  0.6080E+01
   2.510  0.8767E+00  0.6088E+01
   2.520  0.8853E+00  0.6097E+01
   2.530  0.8949E+00  0.6106E+01
   2.540  0.9052E+00  0.6115E+01
   2.550  0.9160E+00  0.6124E+01
   2.560  0.9271E+00  0.6134E+01
   2.570  0.9384E+00  0.6143E+01
   2.580  0.9495E+00  0.6153E+01
   2.590  0.9602E+00  0.6162E+01
   2.600  0.9704E+00  0.6172E+01
   2.610  0.9798E+00  0.6182E+01
   2.620  0.9884E+00  0.6192E+01
   2.630  0.9960E+00  0.6202E+01
   2.640  0.1003E+01  0.6212E+01
   2.650  0.1008E+01  0.6222E+01
   2.660  0.1013E+01  0.6232E+01
   2.670  0.1016E+01  0.6242E+01
   2.680  0.1019E+01  0.6252E+01
   2.690  0.1021E+01  0.6262E+01
   2.700  0.1022E+01  0.6273E+01
   2.710  0.1023E+01  0.6283E+01
   2.720  0.1023E+01  0.6293E+01
   2.730  0.1024E+01  0.6303E+01
   2.740  0.1025E+01  0.6313E+01
   2.750  0.1026E+01  0.6324E+01
   2.760  0.1028E+01  0.6334E+01
   2.770  0.1030E+01  0.6344E+01
   2.780  0.1032E+01  0.6355E+01
   2.790  0.1036E+01  0.6365E+01
   2.800  0.1039E+01  0.6375E+01
   2.810  0.1043E+01  0.6386E+01
   2.820  0.1048E+01  0.6396E+01
   2.830  0.1052E+01  0.6407E+01
   2.840  0.1057E+01  0.6417E+01
   2.850  0.1061E+01  0.6428E+01
   2.860  0.1064E+01  0.6439E+01
   2.870  0.1067E+01  0.6449E+01
   2.880  0.1068E+01  0.6460E+01
   2.890  0.1069E+01  0.6471E+01
   2.900  0.1069E+01  0.6481E+01
   2.910  0.1068E+01  0.6492E+01
   2.920  0.1066E+01  0.6503E+01
   2.930  0.1063E+01  0.6513E+01
   2.940  0.1060E+01  0.6524E+01
   2.950  0.1056E+01  0.6535E+01
   2.960  0.1052E+01  0.6545E+01
   2.970  0.1049E+01  0.6556E+01
   2.980  0.1045E+01  0.6566E+01
   2.990  0.1042E+01  0.6576E+01
   3.000  0.1040E+01  0.6587E+01
   3.010  0.1039E+01  0.6597E+01
   3.020  0.1038E+01  0.6608E+01
   3.030  0.1039E+01  0.6618E+01
   3.040  0.1040E+01  0.6628E+01
   3.050  0.1043E+01  0.6639E+01
   3.060  0.1046E+01  0.6649E+01
   3.070  0.1049E+01  0.6660E+01
   3.080  0.1053E+01  0.6670E+01
   3.090  0.1058E+01  0.6681E+01
   3.100  0.1062E+01  0.6691E+01
   3.110  0.1067E+01  0.6702E+01
   3.120  0.1071E+01  0.6713E+01
   3.130  0.1076E+01  0.6724E+01
   3.140  0.1079E+01  0.6734E+01
   3.150  0.1082E+01  0.6745E+01
   3.160  0.1085E+01  0.6756E+01
   3.170  0.1087E+01  0.6767E+01
   3.180  0.1088E+01  0.6778E+01
   3.190  0.1089E+01  0.6789E+01
   3.200  0.1089E+01  0.6800E+01
   3.210  0.1089E+01  0.6811E+01
   3.220  0.1088E+01  0.6821E+01
   3.230  0.1087E+01  0.6832E+01
   3.240  0.1086E+01  0.6843E+01
   3.250  0.1085E+01  0.6854E+01
   3.260  0.1084E+01  0.6865E+01
   3.270  0.1083E+01  0.6876E+01
   3.280  0.1083E+01  0.6886E+01
   3.290  0.1083E+01  0.6897E+01
   3.300  0.1083E+01  0.6908E+01
   3.310  0.1084E+01  0.6919E+01
   3.320  0.1086E+01  0.6930E+01
   3.330  0.1089E+01  0.6941E+01
   3.340  0.1092E+01  0.6952E+01
   3.350  0.1096E+01  0.6963E+01
   3.360  0.1101E+01  0.6974E+01
   3.370  0.1106E+01  0.6985E+01
   3.380  0.1112E+01  0.6996E+01
   3.390  0.1118E+01  0.7007E+01
   3.400  0.1125E+01  0.7018E+01
   3.410  0.1132E+01  0.7030E+01
   3.420  0.1140E+01  0.7041E+01
   3.430  0.1148E+01  0.7052E+01
   3.440  0.1156E+01  0.7064E+01
   3.450  0.1165E+01  0.7076E+01
   3.460  0.1174E+01  0.7087E+01
   3.470  0.1183E+01  0.7099E+01
   3.480  0.1192E+01  0.7111E+01
   3.490  0.1201E+01  0.7123E+01
   3.500  0.1211E+01  0.7135E+01
   3.510  0.1220E+01  0.7147E+01
   3.520  0.1230E+01  0.7160E+01
   3.530  0.1240E+01  0.7172E+01
   3.540  0.1250E+01  0.7185E+01
   3.550  0.1261E+01  0.7197E+01
   3.560  0.1272E+01  0.7210E+01
   3.570  0.1284E+01  0.7223E+01
   3.580  0.1296E+01  0.7236E+01
   3.590  0.1309E+01  0.7249E+01
   3.600  0.1323E+01  0.7262E+01
   3.610  0.1338E+01  0.7275E+01
   3.620  0.1354E+01  0.7289E+01
   3.630  0.1370E+01  0.7303E+01
   3.640  0.1387E+01  0.7317E+01
   3.650  0.1404E+01  0.7331E+01
   3.660  0.1421E+01  0.7345E+01
   3.670  0.1437E+01  0.7359E+01
   3.680  0.1452E+01  0.7374E+01
   3.690  0.1466E+01  0.7388E+01
   3.700  0.1477E+01  0.7403E+01
   3.710  0.1485E+01  0.7418E+01
   3.720  0.1490E+01  0.7433E+01
   3.730  0.1491E+01  0.7448E+01
   3.740  0.1488E+01  0.7463E+01
   3.750  0.1479E+01  0.7477E+01
   3.760  0.1466E+01  0.7492E+01
   3.770  0.1446E+01  0.7507E+01
   3.780  0.1422E+01  0.7521E+01
   3.790  0.1392E+01  0.7535E+01
   3.800  0.1356E+01  0.7548E+01
   3.810  0.1316E+01  0.7561E+01
   3.820  0.1272E+01  0.7574E+01
   3.830  0.1224E+01  0.7586E+01
   3.840  0.1173E+01  0.7598E+01
   3.850  0.1121E+01  0.7609E+01
   3.860  0.1067E+01  0.7620E+01
   3.870  0.1012E+01  0.7630E+01
   3.880  0.9585E+00  0.7640E+01
   3.890  0.9059E+00  0.7649E+01
   3.900  0.8551E+00  0.7657E+01
   3.910  0.8068E+00  0.7665E+01
   3.920  0.7614E+00  0.7673E+01
   3.930  0.7193E+00  0.7680E+01
   3.940  0.6807E+00  0.7687E+01
   3.950  0.6459E+00  0.7693E+01
   3.960  0.6148E+00  0.7700E+01
   3.970  0.5876E+00  0.7706E+01
   3.980  0.5640E+00  0.7711E+01
   3.990  0.5439E+00  0.7717E+01
   4.000  0.5272E+00  0.7722E+01
   4.010  0.5137E+00  0.7727E+01
   4.020  0.5030E+00  0.7732E+01
   4.030  0.4951E+00  0.7737E+01
   4.040  0.4895E+00  0.7742E+01
   4.050  0.4861E+00  0.7747E+01
   4.060  0.4846E+00  0.7752E+01
   4.070  0.4848E+00  0.7756E+01
   4.080  0.4864E+00  0.7761E+01
   4.090  0.4893E+00  0.7766E+01
   4.100  0.4932E+00  0.7771E+01
   4.110  0.4979E+00  0.7776E+01
   4.120  0.5032E+00  0.7781E+01
   4.130  0.5090E+00  0.7786E+01
   4.140  0.5151E+00  0.7791E+01
   4.150  0.5213E+00  0.7797E+01
   4.160  0.5275E+00  0.7802E+01
   4.170  0.5336E+00  0.7807E+01
   4.180  0.5395E+00  0.7813E+01
   4.190  0.5451E+00  0.7818E+01
   4.200  0.5504E+00  0.7824E+01
   4.210  0.5555E+00  0.7829E+01
   4.220  0.5602E+00  0.7835E+01
   4.230  0.5647E+00  0.7840E+01
   4.240  0.5690E+00  0.7846E+01
   4.250  0.5732E+00  0.7852E+01
   4.260  0.5774E+00  0.7858E+01
   4.270  0.5816E+00  0.7863E+01
   4.280  0.5861E+00  0.7869E+01
   4.290  0.5910E+00  0.7875E+01
   4.300  0.5963E+00  0.7881E+01
   4.310  0.6022E+00  0.7887E+01
   4.320  0.6089E+00  0.7893E+01
   4.330  0.6162E+00  0.7899E+01
   4.340  0.6244E+00  0.7906E+01
   4.350  0.6334E+00  0.7912E+01
   4.360  0.6432E+00  0.7918E+01
   4.370  0.6537E+00  0.7925E+01
   4.380  0.6648E+00  0.7932E+01
   4.390  0.6763E+00  0.7938E+01
   4.400  0.6881E+00  0.7945E+01
   4.410  0.6999E+00  0.7952E+01
   4.420  0.7115E+00  0.7959E+01
   4.430  0.7228E+00  0.7967E+01
   4.440  0.7333E+00  0.7974E+01
   4.450  0.7430E+00  0.7981E+01
   4.460  0.7516E+00  0.7989E+01
   4.470  0.7590E+00  0.7996E+01
   4.480  0.7650E+00  0.8004E+01
   4.490  0.7695E+00  0.8012E+01
   4.500  0.7725E+00  0.8019E+01
   4.510  0.7740E+00  0.8027E+01
   4.520  0.7742E+00  0.8035E+01
   4.530  0.7730E+00  0.8043E+01
   4.540  0.7707E+00  0.8050E+01
   4.550  0.7674E+00  0.8058E+01
   4.560  0.7633E+00  0.8066E+01
   4.570  0.7587E+00  0.8073E+01
   4.580  0.7537E+00  0.8081E+01
   4.590  0.7486E+00  0.8088E+01
   4.600  0.7437E+00  0.8096E+01
   4.610  0.7390E+00  0.8103E+01
   4.620  0.7348E+00  0.8110E+01
   4.630  0.7312E+00  0.8118E+01
   4.640  0.7283E+00  0.8125E+01
   4.650  0.7262E+00  0.8132E+01
   4.660  0.7249E+00  0.8140E+01
   4.670  0.7245E+00  0.8147E+01
   4.680  0.7249E+00  0.8154E+01
   4.690  0.7261E+00  0.8161E+01
   4.700  0.7281E+00  0.8169E+01
   4.710  0.7307E+00  0.8176E+01
   4.720  0.7340E+00  0.8183E+01
   4.730  0.7378E+00  0.8191E+01
   4.740  0.7420E+00  0.8198E+01
   4.750  0.7465E+00  0.8206E+01
   4.760  0.7513E+00  0.8213E+01
   4.770  0.7563E+00  0.8221E+01
   4.780  0.7613E+00  0.8228E+01
   4.790  0.7664E+00  0.8236E+01
   4.800  0.7715E+00  0.8244E+01
   4.810  0.7765E+00  0.8251E+01
   4.820  0.7814E+00  0.8259E+01
   4.830  0.7863E+00  0.8267E+01
   4.840  0.7911E+00  0.8275E+01
   4.850  0.7958E+00  0.8283E+01
   4.860  0.8005E+00  0.8291E+01
   4.870  0.8053E+00  0.8299E+01
   4.880  0.8103E+00  0.8307E+01
   4.890  0.8154E+00  0.8315E+01
   4.900  0.8208E+00  0.8323E+01
   4.910  0.8265E+00  0.8332E+01
   4.920  0.8326E+00  0.8340E+01
   4.930  0.8392E+00  0.8348E+01
   4.940  0.8462E+00  0.8357E+01
   4.950  0.8537E+00  0.8365E+01
   4.960  0.8616E+00  0.8374E+01
   4.970  0.8699E+00  0.8383E+01
   4.980  0.8786E+00  0.8392E+01
   4.990  0.8875E+00  0.8400E+01
   5.000  0.8965E+00  0.8409E+01
   5.010  0.9056E+00  0.8418E+01
   5.020  0.9148E+00  0.8428E+01
   5.030  0.9239E+00  0.8437E+01
   5.040  0.9330E+00  0.8446E+01
   5.050  0.9422E+00  0.8456E+01
   5.060  0.9514E+00  0.8465E+01
   5.070  0.9608E+00  0.8475E+01
   5.080  0.9707E+00  0.8484E+01
   5.090  0.9812E+00  0.8494E+01
   5.100  0.9928E+00  0.8504E+01
   5.110  0.1006E+01  0.8514E+01
   5.120  0.1020E+01  0.8524E+01
   5.130  0.1037E+01  0.8535E+01
   5.140  0.1057E+01  0.8545E+01
   5.150  0.1079E+01  0.8556E+01
   5.160  0.1105E+01  0.8567E+01
   5.170  0.1135E+01  0.8579E+01
   5.180  0.1169E+01  0.8590E+01
   5.190  0.1208E+01  0.8602E+01
   5.200  0.1252E+01  0.8615E+01
   5.210  0.1301E+01  0.8628E+01
   5.220  0.1355E+01  0.8641E+01
   5.230  0.1414E+01  0.8656E+01
   5.240  0.1478E+01  0.8670E+01
   5.250  0.1546E+01  0.8686E+01
   5.260  0.1618E+01  0.8702E+01
   5.270  0.1693E+01  0.8719E+01
   5.280  0.1771E+01  0.8737E+01
   5.290  0.1851E+01  0.8755E+01
   5.300  0.1930E+01  0.8774E+01
   5.310  0.2009E+01  0.8794E+01
   5.320  0.2086E+01  0.8815E+01
   5.330  0.2160E+01  0.8837E+01
   5.340  0.2228E+01  0.8859E+01
   5.350  0.2291E+01  0.8882E+01
   5.360  0.2346E+01  0.8906E+01
   5.370  0.2392E+01  0.8930E+01
   5.380  0.2429E+01  0.8954E+01
   5.390  0.2456E+01  0.8978E+01
   5.400  0.2471E+01  0.9003E+01
   5.410  0.2475E+01  0.9028E+01
   5.420  0.2468E+01  0.9053E+01
   5.430  0.2449E+01  0.9077E+01
   5.440  0.2419E+01  0.9101E+01
   5.450  0.2380E+01  0.9125E+01
   5.460  0.2331E+01  0.9148E+01
   5.470  0.2274E+01  0.9171E+01
   5.480  0.2211E+01  0.9193E+01
   5.490  0.2142E+01  0.9215E+01
   5.500  0.2070E+01  0.9235E+01
   5.510  0.1996E+01  0.9255E+01
   5.520  0.1922E+01  0.9274E+01
   5.530  0.1848E+01  0.9293E+01
   5.540  0.1777E+01  0.9311E+01
   5.550  0.1709E+01  0.9328E+01
   5.560  0.1645E+01  0.9344E+01
   5.570  0.1587E+01  0.9360E+01
   5.580  0.1533E+01  0.9375E+01
   5.590  0.1485E+01  0.9390E+01
   5.600  0.1443E+01  0.9405E+01
   5.610  0.1406E+01  0.9419E+01
   5.620  0.1373E+01  0.9433E+01
   5.630  0.1345E+01  0.9446E+01
   5.640  0.1321E+01  0.9459E+01
   5.650  0.1300E+01  0.9472E+01
   5.660  0.1282E+01  0.9485E+01
   5.670  0.1265E+01  0.9498E+01
   5.680  0.1250E+01  0.9510E+01
   5.690  0.1236E+01  0.9523E+01
   5.700  0.1223E+01  0.9535E+01
   5.710  0.1209E+01  0.9547E+01
   5.720  0.1196E+01  0.9559E+01
   5.730  0.1183E+01  0.9571E+01
   5.740  0.1170E+01  0.9582E+01
   5.750  0.1157E+01  0.9594E+01
   5.760  0.1144E+01  0.9605E+01
   5.770  0.1132E+01  0.9617E+01
   5.780  0.1121E+01  0.9628E+01
   5.790  0.1110E+01  0.9639E+01
   5.800  0.1101E+01  0.9650E+01
   5.810  0.1093E+01  0.9661E+01
   5.820  0.1087E+01  0.9672E+01
   5.830  0.1083E+01  0.9683E+01
   5.840  0.1081E+01  0.9693E+01
   5.850  0.1080E+01  0.9704E+01
   5.860  0.1082E+01  0.9715E+01
   5.870  0.1086E+01  0.9726E+01
   5.880  0.1092E+01  0.9737E+01
   5.890  0.1099E+01  0.9748E+01
   5.900  0.1108E+01  0.9759E+01
   5.910  0.1118E+01  0.9770E+01
   5.920  0.1130E+01  0.9781E+01
   5.930  0.1142E+01  0.9793E+01
   5.940  0.1154E+01  0.9804E+01
   5.950  0.1167E+01  0.9816E+01
   5.960  0.1179E+01  0.9828E+01
   5.970  0.1191E+01  0.9840E+01
   5.980  0.1203E+01  0.9852E+01
   5.990  0.1213E+01  0.9864E+01
   6.000  0.1223E+01  0.9876E+01
   6.010  0.1232E+01  0.9888E+01
   6.020  0.1240E+01  0.9901E+01
   6.030  0.1247E+01  0.9913E+01
   6.040  0.1254E+01  0.9926E+01
   6.050  0.1259E+01  0.9938E+01
   6.060  0.1264E+01  0.9951E+01
   6.070  0.1269E+01  0.9964E+01
   6.080  0.1273E+01  0.9976E+01
   6.090  0.1276E+01  0.9989E+01
   6.100  0.1279E+01  0.1000E+02
   6.110  0.1281E+01  0.1001E+02
   6.120  0.1282E+01  0.1003E+02
   6.130  0.1283E+01  0.1004E+02
   6.140  0.1282E+01  0.1005E+02
   6.150  0.1281E+01  0.1007E+02
   6.160  0.1278E+01  0.1008E+02
   6.170  0.1274E+01  0.1009E+02
   6.180  0.1269E+01  0.1010E+02
   6.190  0.1262E+01  0.1012E+02
   6.200  0.1254E+01  0.1013E+02
   6.210  0.1245E+01  0.1014E+02
   6.220  0.1234E+01  0.1015E+02
   6.230  0.1223E+01  0.1017E+02
   6.240  0.1210E+01  0.1018E+02
   6.250  0.1198E+01  0.1019E+02
   6.260  0.1184E+01  0.1020E+02
   6.270  0.1171E+01  0.1021E+02
   6.280  0.1158E+01  0.1023E+02
   6.290  0.1146E+01  0.1024E+02
   6.300  0.1134E+01  0.1025E+02
   6.310  0.1123E+01  0.1026E+02
   6.320  0.1113E+01  0.1027E+02
   6.330  0.1104E+01  0.1028E+02
   6.340  0.1097E+01  0.1029E+02
   6.350  0.1091E+01  0.1030E+02
   6.360  0.1086E+01  0.1031E+02
   6.370  0.1083E+01  0.1033E+02
   6.380  0.1081E+01  0.1034E+02
   6.390  0.1081E+01  0.1035E+02
   6.400  0.1082E+01  0.1036E+02
   6.410  0.1085E+01  0.1037E+02
   6.420  0.1089E+01  0.1038E+02
   6.430  0.1095E+01  0.1039E+02
   6.440  0.1102E+01  0.1040E+02
   6.450  0.1111E+01  0.1041E+02
   6.460  0.1120E+01  0.1042E+02
   6.470  0.1131E+01  0.1044E+02
   6.480  0.1142E+01  0.1045E+02
   6.490  0.1153E+01  0.1046E+02
   6.500  0.1165E+01  0.1047E+02
   6.510  0.1176E+01  0.1048E+02
   6.520  0.1187E+01  0.1049E+02
   6.530  0.1196E+01  0.1051E+02
   6.540  0.1203E+01  0.1052E+02
   6.550  0.1209E+01  0.1053E+02
   6.560  0.1213E+01  0.1054E+02
   6.570  0.1214E+01  0.1055E+02
   6.580  0.1213E+01  0.1057E+02
   6.590  0.1209E+01  0.1058E+02
   6.600  0.1204E+01  0.1059E+02
   6.610  0.1196E+01  0.1060E+02
   6.620  0.1187E+01  0.1061E+02
   6.630  0.1177E+01  0.1063E+02
   6.640  0.1166E+01  0.1064E+02
   6.650  0.1156E+01  0.1065E+02
   6.660  0.1147E+01  0.1066E+02
   6.670  0.1141E+01  0.1067E+02
   6.680  0.1136E+01  0.1068E+02
   6.690  0.1136E+01  0.1069E+02
   6.700  0.1140E+01  0.1071E+02
   6.710  0.1148E+01  0.1072E+02
   6.720  0.1162E+01  0.1073E+02
   6.730  0.1182E+01  0.1074E+02
   6.740  0.1208E+01  0.1075E+02
   6.750  0.1239E+01  0.1077E+02
   6.760  0.1277E+01  0.1078E+02
   6.770  0.1321E+01  0.1079E+02
   6.780  0.1371E+01  0.1080E+02
   6.790  0.1426E+01  0.1082E+02
   6.800  0.1485E+01  0.1083E+02
   6.810  0.1549E+01  0.1085E+02
   6.820  0.1615E+01  0.1087E+02
   6.830  0.1684E+01  0.1088E+02
   6.840  0.1755E+01  0.1090E+02
   6.850  0.1826E+01  0.1092E+02
   6.860  0.1897E+01  0.1094E+02
   6.870  0.1967E+01  0.1096E+02
   6.880  0.2035E+01  0.1098E+02
   6.890  0.2099E+01  0.1100E+02
   6.900  0.2160E+01  0.1102E+02
   6.910  0.2217E+01  0.1104E+02
   6.920  0.2268E+01  0.1106E+02
   6.930  0.2313E+01  0.1109E+02
   6.940  0.2352E+01  0.1111E+02
   6.950  0.2384E+01  0.1114E+02
   6.960  0.2410E+01  0.1116E+02
   6.970  0.2428E+01  0.1118E+02
   6.980  0.2439E+01  0.1121E+02
   6.990  0.2443E+01  0.1123E+02
   7.000  0.2441E+01  0.1126E+02
   7.010  0.2432E+01  0.1128E+02
   7.020  0.2417E+01  0.1131E+02
   7.030  0.2397E+01  0.1133E+02
   7.040  0.2372E+01  0.1135E+02
   7.050  0.2343E+01  0.1138E+02
   7.060  0.2311E+01  0.1140E+02
   7.070  0.2277E+01  0.1142E+02
   7.080  0.2241E+01  0.1144E+02
   7.090  0.2204E+01  0.1147E+02
   7.100  0.2167E+01  0.1149E+02
   7.110  0.2131E+01  0.1151E+02
   7.120  0.2096E+01  0.1153E+02
   7.130  0.2064E+01  0.1155E+02
   7.140  0.2033E+01  0.1157E+02
   7.150  0.2006E+01  0.1159E+02
   7.160  0.1981E+01  0.1161E+02
   7.170  0.1960E+01  0.1163E+02
   7.180  0.1942E+01  0.1165E+02
   7.190  0.1928E+01  0.1167E+02
   7.200  0.1917E+01  0.1169E+02
   7.210  0.1909E+01  0.1171E+02
   7.220  0.1905E+01  0.1173E+02
   7.230  0.1904E+01  0.1175E+02
   7.240  0.1905E+01  0.1177E+02
   7.250  0.1908E+01  0.1178E+02
   7.260  0.1914E+01  0.1180E+02
   7.270  0.1921E+01  0.1182E+02
   7.280  0.1929E+01  0.1184E+02
   7.290  0.1938E+01  0.1186E+02
   7.300  0.1947E+01  0.1188E+02
   7.310  0.1957E+01  0.1190E+02
   7.320  0.1965E+01  0.1192E+02
   7.330  0.1973E+01  0.1194E+02
   7.340  0.1978E+01  0.1196E+02
   7.350  0.1982E+01  0.1198E+02
   7.360  0.1984E+01  0.1200E+02
   7.370  0.1983E+01  0.1202E+02
   7.380  0.1980E+01  0.1204E+02
   7.390  0.1973E+01  0.1206E+02
   7.400  0.1965E+01  0.1208E+02
   7.410  0.1955E+01  0.1210E+02
   7.420  0.1943E+01  0.1212E+02
   7.430  0.1931E+01  0.1214E+02
   7.440  0.1918E+01  0.1216E+02
   7.450  0.1907E+01  0.1217E+02
   7.460  0.1897E+01  0.1219E+02
   7.470  0.1891E+01  0.1221E+02
   7.480  0.1889E+01  0.1223E+02
   7.490  0.1892E+01  0.1225E+02
   7.500  0.1901E+01  0.1227E+02
   7.510  0.1916E+01  0.1229E+02
   7.520  0.1939E+01  0.1231E+02
   7.530  0.1968E+01  0.1233E+02
   7.540  0.2005E+01  0.1235E+02
   7.550  0.2049E+01  0.1237E+02
   7.560  0.2099E+01  0.1239E+02
   7.570  0.2155E+01  0.1241E+02
   7.580  0.2214E+01  0.1243E+02
   7.590  0.2277E+01  0.1246E+02
   7.600  0.2342E+01  0.1248E+02
   7.610  0.2407E+01  0.1250E+02
   7.620  0.2471E+01  0.1253E+02
   7.630  0.2532E+01  0.1255E+02
   7.640  0.2590E+01  0.1258E+02
   7.650  0.2642E+01  0.1261E+02
   7.660  0.2688E+01  0.1263E+02
   7.670  0.2727E+01  0.1266E+02
   7.680  0.2758E+01  0.1269E+02
   7.690  0.2782E+01  0.1272E+02
   7.700  0.2799E+01  0.1274E+02
   7.710  0.2808E+01  0.1277E+02
   7.720  0.2810E+01  0.1280E+02
   7.730  0.2807E+01  0.1283E+02
   7.740  0.2798E+01  0.1286E+02
   7.750  0.2785E+01  0.1288E+02
   7.760  0.2770E+01  0.1291E+02
   7.770  0.2752E+01  0.1294E+02
   7.780  0.2734E+01  0.1297E+02
   7.790  0.2716E+01  0.1299E+02
   7.800  0.2699E+01  0.1302E+02
   7.810  0.2684E+01  0.1305E+02
   7.820  0.2670E+01  0.1307E+02
   7.830  0.2659E+01  0.1310E+02
   7.840  0.2650E+01  0.1313E+02
   7.850  0.2644E+01  0.1315E+02
   7.860  0.2639E+01  0.1318E+02
   7.870  0.2635E+01  0.1321E+02
   7.880  0.2632E+01  0.1323E+02
   7.890  0.2629E+01  0.1326E+02
   7.900  0.2626E+01  0.1328E+02
   7.910  0.2621E+01  0.1331E+02
   7.920  0.2613E+01  0.1334E+02
   7.930  0.2604E+01  0.1336E+02
   7.940  0.2591E+01  0.1339E+02
   7.950  0.2574E+01  0.1341E+02
   7.960  0.2553E+01  0.1344E+02
   7.970  0.2529E+01  0.1347E+02
   7.980  0.2500E+01  0.1349E+02
   7.990  0.2468E+01  0.1352E+02
   8.000  0.2432E+01  0.1354E+02
   8.010  0.2393E+01  0.1356E+02
   8.020  0.2352E+01  0.1359E+02
   8.030  0.2309E+01  0.1361E+02
   8.040  0.2265E+01  0.1363E+02
   8.050  0.2221E+01  0.1365E+02
   8.060  0.2178E+01  0.1368E+02
   8.070  0.2136E+01  0.1370E+02
   8.080  0.2097E+01  0.1372E+02
   8.090  0.2061E+01  0.1374E+02
   8.100  0.2029E+01  0.1376E+02
   8.110  0.2001E+01  0.1378E+02
   8.120  0.1977E+01  0.1380E+02
   8.130  0.1959E+01  0.1382E+02
   8.140  0.1946E+01  0.1384E+02
   8.150  0.1937E+01  0.1386E+02
   8.160  0.1934E+01  0.1388E+02
   8.170  0.1934E+01  0.1390E+02
   8.180  0.1938E+01  0.1392E+02
   8.190  0.1945E+01  0.1394E+02
   8.200  0.1955E+01  0.1396E+02
   8.210  0.1965E+01  0.1397E+02
   8.220  0.1977E+01  0.1399E+02
   8.230  0.1988E+01  0.1401E+02
   8.240  0.1998E+01  0.1403E+02
   8.250  0.2007E+01  0.1405E+02
   8.260  0.2013E+01  0.1407E+02
   8.270  0.2018E+01  0.1409E+02
   8.280  0.2020E+01  0.1411E+02
   8.290  0.2019E+01  0.1414E+02
   8.300  0.2016E+01  0.1416E+02
   8.310  0.2011E+01  0.1418E+02
   8.320  0.2005E+01  0.1420E+02
   8.330  0.1997E+01  0.1422E+02
   8.340  0.1989E+01  0.1424E+02
   8.350  0.1981E+01  0.1426E+02
   8.360  0.1974E+01  0.1427E+02
   8.370  0.1969E+01  0.1429E+02
   8.380  0.1965E+01  0.1431E+02
   8.390  0.1964E+01  0.1433E+02
   8.400  0.1966E+01  0.1435E+02
   8.410  0.1971E+01  0.1437E+02
   8.420  0.1979E+01  0.1439E+02
   8.430  0.1991E+01  0.1441E+02
   8.440  0.2005E+01  0.1443E+02
   8.450  0.2023E+01  0.1445E+02
   8.460  0.2044E+01  0.1447E+02
   8.470  0.2067E+01  0.1449E+02
   8.480  0.2092E+01  0.1452E+02
   8.490  0.2119E+01  0.1454E+02
   8.500  0.2147E+01  0.1456E+02
   8.510  0.2176E+01  0.1458E+02
   8.520  0.2205E+01  0.1460E+02
   8.530  0.2234E+01  0.1462E+02
   8.540  0.2262E+01  0.1465E+02
   8.550  0.2288E+01  0.1467E+02
   8.560  0.2314E+01  0.1469E+02
   8.570  0.2336E+01  0.1472E+02
   8.580  0.2356E+01  0.1474E+02
   8.590  0.2373E+01  0.1476E+02
   8.600  0.2387E+01  0.1479E+02
   8.610  0.2397E+01  0.1481E+02
   8.620  0.2403E+01  0.1484E+02
   8.630  0.2404E+01  0.1486E+02
   8.640  0.2402E+01  0.1488E+02
   8.650  0.2395E+01  0.1491E+02
   8.660  0.2384E+01  0.1493E+02
   8.670  0.2369E+01  0.1495E+02
   8.680  0.2351E+01  0.1498E+02
   8.690  0.2330E+01  0.1500E+02
   8.700  0.2306E+01  0.1502E+02
   8.710  0.2280E+01  0.1505E+02
   8.720  0.2252E+01  0.1507E+02
   8.730  0.2224E+01  0.1509E+02
   8.740  0.2195E+01  0.1511E+02
   8.750  0.2167E+01  0.1514E+02
   8.760  0.2139E+01  0.1516E+02
   8.770  0.2113E+01  0.1518E+02
   8.780  0.2089E+01  0.1520E+02
   8.790  0.2067E+01  0.1522E+02
   8.800  0.2048E+01  0.1524E+02
   8.810  0.2031E+01  0.1526E+02
   8.820  0.2018E+01  0.1528E+02
   8.830  0.2008E+01  0.1530E+02
   8.840  0.2001E+01  0.1532E+02
   8.850  0.1997E+01  0.1534E+02
   8.860  0.1995E+01  0.1536E+02
   8.870  0.1996E+01  0.1538E+02
   8.880  0.1999E+01  0.1540E+02
   8.890  0.2004E+01  0.1542E+02
   8.900  0.2010E+01  0.1544E+02
   8.910  0.2017E+01  0.1546E+02
   8.920  0.2025E+01  0.1548E+02
   8.930  0.2032E+01  0.1550E+02
   8.940  0.2039E+01  0.1552E+02
   8.950  0.2046E+01  0.1554E+02
   8.960  0.2051E+01  0.1556E+02
   8.970  0.2056E+01  0.1558E+02
   8.980  0.2058E+01  0.1560E+02
   8.990  0.2060E+01  0.1562E+02
   9.000  0.2060E+01  0.1565E+02
   9.010  0.2058E+01  0.1567E+02
   9.020  0.2054E+01  0.1569E+02
   9.030  0.2050E+01  0.1571E+02
   9.040  0.2043E+01  0.1573E+02
   9.050  0.2036E+01  0.1575E+02
   9.060  0.2027E+01  0.1577E+02
   9.070  0.2017E+01  0.1579E+02
   9.080  0.2006E+01  0.1581E+02
   9.090  0.1994E+01  0.1583E+02
   9.100  0.1981E+01  0.1585E+02
   9.110  0.1968E+01  0.1587E+02
   9.120  0.1954E+01  0.1589E+02
   9.130  0.1940E+01  0.1591E+02
   9.140  0.1925E+01  0.1593E+02
   9.150  0.1911E+01  0.1595E+02
   9.160  0.1896E+01  0.1596E+02
   9.170  0.1882E+01  0.1598E+02
   9.180  0.1868E+01  0.1600E+02
   9.190  0.1855E+01  0.1602E+02
   9.200  0.1843E+01  0.1604E+02
   9.210  0.1832E+01  0.1606E+02
   9.220  0.1822E+01  0.1608E+02
   9.230  0.1813E+01  0.1609E+02
   9.240  0.1806E+01  0.1611E+02
   9.250  0.1801E+01  0.1613E+02
   9.260  0.1796E+01  0.1615E+02
   9.270  0.1794E+01  0.1617E+02
   9.280  0.1793E+01  0.1618E+02
   9.290  0.1793E+01  0.1620E+02
   9.300  0.1794E+01  0.1622E+02
   9.310  0.1795E+01  0.1624E+02
   9.320  0.1797E+01  0.1625E+02
   9.330  0.1799E+01  0.1627E+02
   9.340  0.1800E+01  0.1629E+02
   9.350  0.1800E+01  0.1631E+02
   9.360  0.1799E+01  0.1633E+02
   9.370  0.1797E+01  0.1634E+02
   9.380  0.1793E+01  0.1636E+02
   9.390  0.1787E+01  0.1638E+02
   9.400  0.1780E+01  0.1640E+02
   9.410  0.1770E+01  0.1642E+02
   9.420  0.1759E+01  0.1643E+02
   9.430  0.1747E+01  0.1645E+02
   9.440  0.1733E+01  0.1647E+02
   9.450  0.1718E+01  0.1649E+02
   9.460  0.1702E+01  0.1650E+02
   9.470  0.1686E+01  0.1652E+02
   9.480  0.1670E+01  0.1654E+02
   9.490  0.1654E+01  0.1655E+02
   9.500  0.1639E+01  0.1657E+02
   9.510  0.1625E+01  0.1659E+02
   9.520  0.1612E+01  0.1660E+02
   9.530  0.1600E+01  0.1662E+02
   9.540  0.1589E+01  0.1663E+02
   9.550  0.1581E+01  0.1665E+02
   9.560  0.1574E+01  0.1666E+02
   9.570  0.1569E+01  0.1668E+02
   9.580  0.1567E+01  0.1670E+02
   9.590  0.1567E+01  0.1671E+02
   9.600  0.1571E+01  0.1673E+02
   9.610  0.1578E+01  0.1674E+02
   9.620  0.1589E+01  0.1676E+02
   9.630  0.1604E+01  0.1678E+02
   9.640  0.1624E+01  0.1679E+02
   9.650  0.1649E+01  0.1681E+02
   9.660  0.1680E+01  0.1682E+02
   9.670  0.1716E+01  0.1684E+02
   9.680  0.1758E+01  0.1686E+02
   9.690  0.1805E+01  0.1688E+02
   9.700  0.1858E+01  0.1690E+02
   9.710  0.1915E+01  0.1692E+02
   9.720  0.1976E+01  0.1694E+02
   9.730  0.2040E+01  0.1696E+02
   9.740  0.2107E+01  0.1698E+02
   9.750  0.2175E+01  0.1700E+02
   9.760  0.2242E+01  0.1702E+02
   9.770  0.2308E+01  0.1704E+02
   9.780  0.2372E+01  0.1707E+02
   9.790  0.2432E+01  0.1709E+02
   9.800  0.2487E+01  0.1712E+02
   9.810  0.2537E+01  0.1714E+02
   9.820  0.2580E+01  0.1717E+02
   9.830  0.2616E+01  0.1719E+02
   9.840  0.2646E+01  0.1722E+02
   9.850  0.2668E+01  0.1725E+02
   9.860  0.2683E+01  0.1727E+02
   9.870  0.2692E+01  0.1730E+02
   9.880  0.2695E+01  0.1733E+02
   9.890  0.2692E+01  0.1735E+02
   9.900  0.2685E+01  0.1738E+02
   9.910  0.2675E+01  0.1741E+02
   9.920  0.2661E+01  0.1744E+02
   9.930  0.2646E+01  0.1746E+02
   9.940  0.2629E+01  0.1749E+02
   9.950  0.2611E+01  0.1751E+02
   9.960  0.2594E+01  0.1754E+02
   9.970  0.2577E+01  0.1757E+02
   9.980  0.2560E+01  0.1759E+02
   9.990  0.2545E+01  0.1762E+02
  10.000  0.2531E+01  0.1764E+02
