#  E (eV)   dos(E)     Int dos(E) EFermi =   -2.630 eV
 -10.000  0.4308E+00  0.4308E-02
  -9.990  0.4268E+00  0.8576E-02
  -9.980  0.4242E+00  0.1282E-01
  -9.970  0.4233E+00  0.1705E-01
  -9.960  0.4242E+00  0.2129E-01
  -9.950  0.4269E+00  0.2556E-01
  -9.940  0.4315E+00  0.2988E-01
  -9.930  0.4377E+00  0.3426E-01
  -9.920  0.4454E+00  0.3871E-01
  -9.910  0.4543E+00  0.4325E-01
  -9.900  0.4641E+00  0.4789E-01
  -9.890  0.4743E+00  0.5264E-01
  -9.880  0.4846E+00  0.5748E-01
  -9.870  0.4945E+00  0.6243E-01
  -9.860  0.5036E+00  0.6746E-01
  -9.850  0.5115E+00  0.7258E-01
  -9.840  0.5179E+00  0.7776E-01
  -9.830  0.5224E+00  0.8298E-01
  -9.820  0.5250E+00  0.8823E-01
  -9.810  0.5253E+00  0.9348E-01
  -9.800  0.5235E+00  0.9872E-01
  -9.790  0.5196E+00  0.1039E+00
  -9.780  0.5138E+00  0.1091E+00
  -9.770  0.5063E+00  0.1141E+00
  -9.760  0.4975E+00  0.1191E+00
  -9.750  0.4877E+00  0.1240E+00
  -9.740  0.4775E+00  0.1287E+00
  -9.730  0.4671E+00  0.1334E+00
  -9.720  0.4572E+00  0.1380E+00
  -9.710  0.4482E+00  0.1425E+00
  -9.700  0.4404E+00  0.1469E+00
  -9.690  0.4342E+00  0.1512E+00
  -9.680  0.4299E+00  0.1555E+00
  -9.670  0.4277E+00  0.1598E+00
  -9.660  0.4276E+00  0.1641E+00
  -9.650  0.4297E+00  0.1684E+00
  -9.640  0.4338E+00  0.1727E+00
  -9.630  0.4398E+00  0.1771E+00
  -9.620  0.4474E+00  0.1816E+00
  -9.610  0.4563E+00  0.1861E+00
  -9.600  0.4662E+00  0.1908E+00
  -9.590  0.4766E+00  0.1956E+00
  -9.580  0.4872E+00  0.2004E+00
  -9.570  0.4976E+00  0.2054E+00
  -9.560  0.5073E+00  0.2105E+00
  -9.550  0.5161E+00  0.2156E+00
  -9.540  0.5237E+00  0.2209E+00
  -9.530  0.5299E+00  0.2262E+00
  -9.520  0.5344E+00  0.2315E+00
  -9.510  0.5373E+00  0.2369E+00
  -9.500  0.5385E+00  0.2423E+00
  -9.490  0.5380E+00  0.2477E+00
  -9.480  0.5359E+00  0.2530E+00
  -9.470  0.5324E+00  0.2583E+00
  -9.460  0.5278E+00  0.2636E+00
  -9.450  0.5222E+00  0.2688E+00
  -9.440  0.5158E+00  0.2740E+00
  -9.430  0.5091E+00  0.2791E+00
  -9.420  0.5022E+00  0.2841E+00
  -9.410  0.4955E+00  0.2891E+00
  -9.400  0.4892E+00  0.2940E+00
  -9.390  0.4835E+00  0.2988E+00
  -9.380  0.4787E+00  0.3036E+00
  -9.370  0.4748E+00  0.3083E+00
  -9.360  0.4721E+00  0.3131E+00
  -9.350  0.4706E+00  0.3178E+00
  -9.340  0.4703E+00  0.3225E+00
  -9.330  0.4711E+00  0.3272E+00
  -9.320  0.4731E+00  0.3319E+00
  -9.310  0.4760E+00  0.3367E+00
  -9.300  0.4798E+00  0.3415E+00
  -9.290  0.4843E+00  0.3463E+00
  -9.280  0.4893E+00  0.3512E+00
  -9.270  0.4946E+00  0.3561E+00
  -9.260  0.5000E+00  0.3611E+00
  -9.250  0.5054E+00  0.3662E+00
  -9.240  0.5107E+00  0.3713E+00
  -9.230  0.5156E+00  0.3765E+00
  -9.220  0.5201E+00  0.3817E+00
  -9.210  0.5242E+00  0.3869E+00
  -9.200  0.5277E+00  0.3922E+00
  -9.190  0.5307E+00  0.3975E+00
  -9.180  0.5332E+00  0.4028E+00
  -9.170  0.5352E+00  0.4082E+00
  -9.160  0.5368E+00  0.4135E+00
  -9.150  0.5379E+00  0.4189E+00
  -9.140  0.5387E+00  0.4243E+00
  -9.130  0.5391E+00  0.4297E+00
  -9.120  0.5394E+00  0.4351E+00
  -9.110  0.5394E+00  0.4405E+00
  -9.100  0.5392E+00  0.4459E+00
  -9.090  0.5390E+00  0.4513E+00
  -9.080  0.5386E+00  0.4567E+00
  -9.070  0.5383E+00  0.4620E+00
  -9.060  0.5380E+00  0.4674E+00
  -9.050  0.5378E+00  0.4728E+00
  -9.040  0.5379E+00  0.4782E+00
  -9.030  0.5382E+00  0.4836E+00
  -9.020  0.5390E+00  0.4889E+00
  -9.010  0.5404E+00  0.4944E+00
  -9.000  0.5423E+00  0.4998E+00
  -8.990  0.5451E+00  0.5052E+00
  -8.980  0.5488E+00  0.5107E+00
  -8.970  0.5534E+00  0.5162E+00
  -8.960  0.5591E+00  0.5218E+00
  -8.950  0.5659E+00  0.5275E+00
  -8.940  0.5737E+00  0.5332E+00
  -8.930  0.5827E+00  0.5391E+00
  -8.920  0.5926E+00  0.5450E+00
  -8.910  0.6035E+00  0.5510E+00
  -8.900  0.6151E+00  0.5572E+00
  -8.890  0.6274E+00  0.5634E+00
  -8.880  0.6403E+00  0.5699E+00
  -8.870  0.6534E+00  0.5764E+00
  -8.860  0.6668E+00  0.5831E+00
  -8.850  0.6803E+00  0.5899E+00
  -8.840  0.6937E+00  0.5968E+00
  -8.830  0.7069E+00  0.6039E+00
  -8.820  0.7198E+00  0.6111E+00
  -8.810  0.7323E+00  0.6184E+00
  -8.800  0.7444E+00  0.6258E+00
  -8.790  0.7559E+00  0.6334E+00
  -8.780  0.7670E+00  0.6411E+00
  -8.770  0.7775E+00  0.6488E+00
  -8.760  0.7876E+00  0.6567E+00
  -8.750  0.7971E+00  0.6647E+00
  -8.740  0.8061E+00  0.6727E+00
  -8.730  0.8146E+00  0.6809E+00
  -8.720  0.8227E+00  0.6891E+00
  -8.710  0.8304E+00  0.6974E+00
  -8.700  0.8377E+00  0.7058E+00
  -8.690  0.8447E+00  0.7142E+00
  -8.680  0.8513E+00  0.7228E+00
  -8.670  0.8576E+00  0.7313E+00
  -8.660  0.8636E+00  0.7400E+00
  -8.650  0.8692E+00  0.7487E+00
  -8.640  0.8744E+00  0.7574E+00
  -8.630  0.8792E+00  0.7662E+00
  -8.620  0.8835E+00  0.7750E+00
  -8.610  0.8872E+00  0.7839E+00
  -8.600  0.8903E+00  0.7928E+00
  -8.590  0.8926E+00  0.8017E+00
  -8.580  0.8942E+00  0.8107E+00
  -8.570  0.8950E+00  0.8196E+00
  -8.560  0.8949E+00  0.8286E+00
  -8.550  0.8940E+00  0.8375E+00
  -8.540  0.8924E+00  0.8464E+00
  -8.530  0.8901E+00  0.8553E+00
  -8.520  0.8873E+00  0.8642E+00
  -8.510  0.8841E+00  0.8730E+00
  -8.500  0.8809E+00  0.8819E+00
  -8.490  0.8778E+00  0.8906E+00
  -8.480  0.8750E+00  0.8994E+00
  -8.470  0.8728E+00  0.9081E+00
  -8.460  0.8715E+00  0.9168E+00
  -8.450  0.8712E+00  0.9255E+00
  -8.440  0.8721E+00  0.9343E+00
  -8.430  0.8743E+00  0.9430E+00
  -8.420  0.8779E+00  0.9518E+00
  -8.410  0.8829E+00  0.9606E+00
  -8.400  0.8891E+00  0.9695E+00
  -8.390  0.8966E+00  0.9785E+00
  -8.380  0.9050E+00  0.9875E+00
  -8.370  0.9142E+00  0.9967E+00
  -8.360  0.9239E+00  0.1006E+01
  -8.350  0.9339E+00  0.1015E+01
  -8.340  0.9439E+00  0.1025E+01
  -8.330  0.9537E+00  0.1034E+01
  -8.320  0.9629E+00  0.1044E+01
  -8.310  0.9713E+00  0.1054E+01
  -8.300  0.9789E+00  0.1063E+01
  -8.290  0.9853E+00  0.1073E+01
  -8.280  0.9905E+00  0.1083E+01
  -8.270  0.9945E+00  0.1093E+01
  -8.260  0.9973E+00  0.1103E+01
  -8.250  0.9989E+00  0.1113E+01
  -8.240  0.9994E+00  0.1123E+01
  -8.230  0.9989E+00  0.1133E+01
  -8.220  0.9977E+00  0.1143E+01
  -8.210  0.9960E+00  0.1153E+01
  -8.200  0.9939E+00  0.1163E+01
  -8.190  0.9918E+00  0.1173E+01
  -8.180  0.9899E+00  0.1183E+01
  -8.170  0.9884E+00  0.1193E+01
  -8.160  0.9876E+00  0.1202E+01
  -8.150  0.9877E+00  0.1212E+01
  -8.140  0.9887E+00  0.1222E+01
  -8.130  0.9910E+00  0.1232E+01
  -8.120  0.9944E+00  0.1242E+01
  -8.110  0.9990E+00  0.1252E+01
  -8.100  0.1005E+01  0.1262E+01
  -8.090  0.1012E+01  0.1272E+01
  -8.080  0.1020E+01  0.1282E+01
  -8.070  0.1029E+01  0.1293E+01
  -8.060  0.1038E+01  0.1303E+01
  -8.050  0.1049E+01  0.1314E+01
  -8.040  0.1060E+01  0.1324E+01
  -8.030  0.1071E+01  0.1335E+01
  -8.020  0.1083E+01  0.1346E+01
  -8.010  0.1095E+01  0.1357E+01
  -8.000  0.1107E+01  0.1368E+01
  -7.990  0.1120E+01  0.1379E+01
  -7.980  0.1133E+01  0.1390E+01
  -7.970  0.1146E+01  0.1402E+01
  -7.960  0.1159E+01  0.1413E+01
  -7.950  0.1173E+01  0.1425E+01
  -7.940  0.1187E+01  0.1437E+01
  -7.930  0.1202E+01  0.1449E+01
  -7.920  0.1216E+01  0.1461E+01
  -7.910  0.1230E+01  0.1473E+01
  -7.900  0.1244E+01  0.1486E+01
  -7.890  0.1258E+01  0.1498E+01
  -7.880  0.1271E+01  0.1511E+01
  -7.870  0.1283E+01  0.1524E+01
  -7.860  0.1295E+01  0.1537E+01
  -7.850  0.1305E+01  0.1550E+01
  -7.840  0.1314E+01  0.1563E+01
  -7.830  0.1321E+01  0.1576E+01
  -7.820  0.1327E+01  0.1590E+01
  -7.810  0.1331E+01  0.1603E+01
  -7.800  0.1333E+01  0.1616E+01
  -7.790  0.1334E+01  0.1630E+01
  -7.780  0.1332E+01  0.1643E+01
  -7.770  0.1329E+01  0.1656E+01
  -7.760  0.1325E+01  0.1669E+01
  -7.750  0.1318E+01  0.1683E+01
  -7.740  0.1311E+01  0.1696E+01
  -7.730  0.1301E+01  0.1709E+01
  -7.720  0.1291E+01  0.1722E+01
  -7.710  0.1278E+01  0.1734E+01
  -7.700  0.1265E+01  0.1747E+01
  -7.690  0.1251E+01  0.1760E+01
  -7.680  0.1236E+01  0.1772E+01
  -7.670  0.1219E+01  0.1784E+01
  -7.660  0.1203E+01  0.1796E+01
  -7.650  0.1186E+01  0.1808E+01
  -7.640  0.1168E+01  0.1820E+01
  -7.630  0.1151E+01  0.1831E+01
  -7.620  0.1134E+01  0.1843E+01
  -7.610  0.1118E+01  0.1854E+01
  -7.600  0.1103E+01  0.1865E+01
  -7.590  0.1089E+01  0.1876E+01
  -7.580  0.1077E+01  0.1886E+01
  -7.570  0.1066E+01  0.1897E+01
  -7.560  0.1057E+01  0.1908E+01
  -7.550  0.1049E+01  0.1918E+01
  -7.540  0.1044E+01  0.1929E+01
  -7.530  0.1040E+01  0.1939E+01
  -7.520  0.1037E+01  0.1949E+01
  -7.510  0.1036E+01  0.1960E+01
  -7.500  0.1037E+01  0.1970E+01
  -7.490  0.1037E+01  0.1980E+01
  -7.480  0.1039E+01  0.1991E+01
  -7.470  0.1040E+01  0.2001E+01
  -7.460  0.1040E+01  0.2012E+01
  -7.450  0.1040E+01  0.2022E+01
  -7.440  0.1039E+01  0.2032E+01
  -7.430  0.1037E+01  0.2043E+01
  -7.420  0.1032E+01  0.2053E+01
  -7.410  0.1026E+01  0.2063E+01
  -7.400  0.1018E+01  0.2074E+01
  -7.390  0.1009E+01  0.2084E+01
  -7.380  0.9977E+00  0.2094E+01
  -7.370  0.9851E+00  0.2103E+01
  -7.360  0.9715E+00  0.2113E+01
  -7.350  0.9571E+00  0.2123E+01
  -7.340  0.9424E+00  0.2132E+01
  -7.330  0.9279E+00  0.2141E+01
  -7.320  0.9139E+00  0.2151E+01
  -7.310  0.9010E+00  0.2160E+01
  -7.300  0.8895E+00  0.2169E+01
  -7.290  0.8798E+00  0.2177E+01
  -7.280  0.8720E+00  0.2186E+01
  -7.270  0.8664E+00  0.2195E+01
  -7.260  0.8630E+00  0.2203E+01
  -7.250  0.8618E+00  0.2212E+01
  -7.240  0.8627E+00  0.2221E+01
  -7.230  0.8653E+00  0.2229E+01
  -7.220  0.8694E+00  0.2238E+01
  -7.210  0.8747E+00  0.2247E+01
  -7.200  0.8806E+00  0.2255E+01
  -7.190  0.8868E+00  0.2264E+01
  -7.180  0.8928E+00  0.2273E+01
  -7.170  0.8981E+00  0.2282E+01
  -7.160  0.9025E+00  0.2291E+01
  -7.150  0.9057E+00  0.2300E+01
  -7.140  0.9073E+00  0.2309E+01
  -7.130  0.9074E+00  0.2318E+01
  -7.120  0.9059E+00  0.2328E+01
  -7.110  0.9027E+00  0.2337E+01
  -7.100  0.8982E+00  0.2346E+01
  -7.090  0.8925E+00  0.2354E+01
  -7.080  0.8858E+00  0.2363E+01
  -7.070  0.8784E+00  0.2372E+01
  -7.060  0.8706E+00  0.2381E+01
  -7.050  0.8629E+00  0.2389E+01
  -7.040  0.8553E+00  0.2398E+01
  -7.030  0.8482E+00  0.2406E+01
  -7.020  0.8417E+00  0.2415E+01
  -7.010  0.8361E+00  0.2423E+01
  -7.000  0.8314E+00  0.2432E+01
  -6.990  0.8276E+00  0.2440E+01
  -6.980  0.8248E+00  0.2448E+01
  -6.970  0.8228E+00  0.2456E+01
  -6.960  0.8217E+00  0.2465E+01
  -6.950  0.8212E+00  0.2473E+01
  -6.940  0.8212E+00  0.2481E+01
  -6.930  0.8215E+00  0.2489E+01
  -6.920  0.8221E+00  0.2497E+01
  -6.910  0.8227E+00  0.2506E+01
  -6.900  0.8231E+00  0.2514E+01
  -6.890  0.8232E+00  0.2522E+01
  -6.880  0.8229E+00  0.2530E+01
  -6.870  0.8221E+00  0.2539E+01
  -6.860  0.8207E+00  0.2547E+01
  -6.850  0.8186E+00  0.2555E+01
  -6.840  0.8158E+00  0.2563E+01
  -6.830  0.8123E+00  0.2571E+01
  -6.820  0.8083E+00  0.2579E+01
  -6.810  0.8037E+00  0.2587E+01
  -6.800  0.7986E+00  0.2595E+01
  -6.790  0.7934E+00  0.2603E+01
  -6.780  0.7881E+00  0.2611E+01
  -6.770  0.7829E+00  0.2619E+01
  -6.760  0.7781E+00  0.2627E+01
  -6.750  0.7738E+00  0.2634E+01
  -6.740  0.7704E+00  0.2642E+01
  -6.730  0.7680E+00  0.2650E+01
  -6.720  0.7666E+00  0.2658E+01
  -6.710  0.7666E+00  0.2665E+01
  -6.700  0.7678E+00  0.2673E+01
  -6.690  0.7703E+00  0.2681E+01
  -6.680  0.7740E+00  0.2688E+01
  -6.670  0.7786E+00  0.2696E+01
  -6.660  0.7841E+00  0.2704E+01
  -6.650  0.7900E+00  0.2712E+01
  -6.640  0.7960E+00  0.2720E+01
  -6.630  0.8018E+00  0.2728E+01
  -6.620  0.8070E+00  0.2736E+01
  -6.610  0.8112E+00  0.2744E+01
  -6.600  0.8140E+00  0.2752E+01
  -6.590  0.8152E+00  0.2760E+01
  -6.580  0.8146E+00  0.2768E+01
  -6.570  0.8120E+00  0.2777E+01
  -6.560  0.8073E+00  0.2785E+01
  -6.550  0.8008E+00  0.2793E+01
  -6.540  0.7925E+00  0.2801E+01
  -6.530  0.7827E+00  0.2808E+01
  -6.520  0.7717E+00  0.2816E+01
  -6.510  0.7600E+00  0.2824E+01
  -6.500  0.7481E+00  0.2831E+01
  -6.490  0.7364E+00  0.2839E+01
  -6.480  0.7255E+00  0.2846E+01
  -6.470  0.7157E+00  0.2853E+01
  -6.460  0.7076E+00  0.2860E+01
  -6.450  0.7015E+00  0.2867E+01
  -6.440  0.6977E+00  0.2874E+01
  -6.430  0.6962E+00  0.2881E+01
  -6.420  0.6972E+00  0.2888E+01
  -6.410  0.7006E+00  0.2895E+01
  -6.400  0.7062E+00  0.2902E+01
  -6.390  0.7138E+00  0.2909E+01
  -6.380  0.7228E+00  0.2916E+01
  -6.370  0.7329E+00  0.2924E+01
  -6.360  0.7436E+00  0.2931E+01
  -6.350  0.7542E+00  0.2939E+01
  -6.340  0.7644E+00  0.2946E+01
  -6.330  0.7735E+00  0.2954E+01
  -6.320  0.7811E+00  0.2962E+01
  -6.310  0.7869E+00  0.2970E+01
  -6.300  0.7906E+00  0.2978E+01
  -6.290  0.7920E+00  0.2986E+01
  -6.280  0.7911E+00  0.2994E+01
  -6.270  0.7879E+00  0.3001E+01
  -6.260  0.7827E+00  0.3009E+01
  -6.250  0.7756E+00  0.3017E+01
  -6.240  0.7672E+00  0.3025E+01
  -6.230  0.7576E+00  0.3032E+01
  -6.220  0.7475E+00  0.3040E+01
  -6.210  0.7372E+00  0.3047E+01
  -6.200  0.7271E+00  0.3054E+01
  -6.190  0.7177E+00  0.3062E+01
  -6.180  0.7092E+00  0.3069E+01
  -6.170  0.7018E+00  0.3076E+01
  -6.160  0.6958E+00  0.3083E+01
  -6.150  0.6913E+00  0.3090E+01
  -6.140  0.6883E+00  0.3096E+01
  -6.130  0.6868E+00  0.3103E+01
  -6.120  0.6866E+00  0.3110E+01
  -6.110  0.6877E+00  0.3117E+01
  -6.100  0.6900E+00  0.3124E+01
  -6.090  0.6932E+00  0.3131E+01
  -6.080  0.6972E+00  0.3138E+01
  -6.070  0.7018E+00  0.3145E+01
  -6.060  0.7067E+00  0.3152E+01
  -6.050  0.7120E+00  0.3159E+01
  -6.040  0.7173E+00  0.3166E+01
  -6.030  0.7226E+00  0.3173E+01
  -6.020  0.7277E+00  0.3181E+01
  -6.010  0.7326E+00  0.3188E+01
  -6.000  0.7370E+00  0.3195E+01
  -5.990  0.7408E+00  0.3203E+01
  -5.980  0.7440E+00  0.3210E+01
  -5.970  0.7465E+00  0.3218E+01
  -5.960  0.7480E+00  0.3225E+01
  -5.950  0.7487E+00  0.3233E+01
  -5.940  0.7483E+00  0.3240E+01
  -5.930  0.7468E+00  0.3248E+01
  -5.920  0.7443E+00  0.3255E+01
  -5.910  0.7407E+00  0.3262E+01
  -5.900  0.7360E+00  0.3270E+01
  -5.890  0.7304E+00  0.3277E+01
  -5.880  0.7241E+00  0.3284E+01
  -5.870  0.7171E+00  0.3292E+01
  -5.860  0.7097E+00  0.3299E+01
  -5.850  0.7023E+00  0.3306E+01
  -5.840  0.6949E+00  0.3313E+01
  -5.830  0.6880E+00  0.3319E+01
  -5.820  0.6819E+00  0.3326E+01
  -5.810  0.6768E+00  0.3333E+01
  -5.800  0.6729E+00  0.3340E+01
  -5.790  0.6705E+00  0.3347E+01
  -5.780  0.6698E+00  0.3353E+01
  -5.770  0.6708E+00  0.3360E+01
  -5.760  0.6734E+00  0.3367E+01
  -5.750  0.6777E+00  0.3373E+01
  -5.740  0.6834E+00  0.3380E+01
  -5.730  0.6904E+00  0.3387E+01
  -5.720  0.6982E+00  0.3394E+01
  -5.710  0.7066E+00  0.3401E+01
  -5.700  0.7151E+00  0.3408E+01
  -5.690  0.7234E+00  0.3416E+01
  -5.680  0.7310E+00  0.3423E+01
  -5.670  0.7376E+00  0.3430E+01
  -5.660  0.7429E+00  0.3438E+01
  -5.650  0.7465E+00  0.3445E+01
  -5.640  0.7485E+00  0.3453E+01
  -5.630  0.7486E+00  0.3460E+01
  -5.620  0.7468E+00  0.3468E+01
  -5.610  0.7434E+00  0.3475E+01
  -5.600  0.7385E+00  0.3482E+01
  -5.590  0.7323E+00  0.3490E+01
  -5.580  0.7251E+00  0.3497E+01
  -5.570  0.7174E+00  0.3504E+01
  -5.560  0.7094E+00  0.3511E+01
  -5.550  0.7015E+00  0.3518E+01
  -5.540  0.6941E+00  0.3525E+01
  -5.530  0.6874E+00  0.3532E+01
  -5.520  0.6818E+00  0.3539E+01
  -5.510  0.6775E+00  0.3546E+01
  -5.500  0.6745E+00  0.3552E+01
  -5.490  0.6730E+00  0.3559E+01
  -5.480  0.6730E+00  0.3566E+01
  -5.470  0.6744E+00  0.3573E+01
  -5.460  0.6772E+00  0.3579E+01
  -5.450  0.6813E+00  0.3586E+01
  -5.440  0.6865E+00  0.3593E+01
  -5.430  0.6925E+00  0.3600E+01
  -5.420  0.6991E+00  0.3607E+01
  -5.410  0.7061E+00  0.3614E+01
  -5.400  0.7133E+00  0.3621E+01
  -5.390  0.7203E+00  0.3628E+01
  -5.380  0.7270E+00  0.3636E+01
  -5.370  0.7331E+00  0.3643E+01
  -5.360  0.7384E+00  0.3650E+01
  -5.350  0.7427E+00  0.3658E+01
  -5.340  0.7460E+00  0.3665E+01
  -5.330  0.7480E+00  0.3673E+01
  -5.320  0.7487E+00  0.3680E+01
  -5.310  0.7483E+00  0.3688E+01
  -5.300  0.7465E+00  0.3695E+01
  -5.290  0.7437E+00  0.3703E+01
  -5.280  0.7398E+00  0.3710E+01
  -5.270  0.7351E+00  0.3717E+01
  -5.260  0.7296E+00  0.3725E+01
  -5.250  0.7237E+00  0.3732E+01
  -5.240  0.7175E+00  0.3739E+01
  -5.230  0.7113E+00  0.3746E+01
  -5.220  0.7052E+00  0.3753E+01
  -5.210  0.6994E+00  0.3760E+01
  -5.200  0.6941E+00  0.3767E+01
  -5.190  0.6894E+00  0.3774E+01
  -5.180  0.6854E+00  0.3781E+01
  -5.170  0.6822E+00  0.3788E+01
  -5.160  0.6798E+00  0.3795E+01
  -5.150  0.6781E+00  0.3801E+01
  -5.140  0.6771E+00  0.3808E+01
  -5.130  0.6766E+00  0.3815E+01
  -5.120  0.6766E+00  0.3822E+01
  -5.110  0.6768E+00  0.3828E+01
  -5.100  0.6769E+00  0.3835E+01
  -5.090  0.6769E+00  0.3842E+01
  -5.080  0.6765E+00  0.3849E+01
  -5.070  0.6754E+00  0.3855E+01
  -5.060  0.6735E+00  0.3862E+01
  -5.050  0.6705E+00  0.3869E+01
  -5.040  0.6665E+00  0.3876E+01
  -5.030  0.6612E+00  0.3882E+01
  -5.020  0.6546E+00  0.3889E+01
  -5.010  0.6467E+00  0.3895E+01
  -5.000  0.6377E+00  0.3902E+01
  -4.990  0.6276E+00  0.3908E+01
  -4.980  0.6167E+00  0.3914E+01
  -4.970  0.6051E+00  0.3920E+01
  -4.960  0.5931E+00  0.3926E+01
  -4.950  0.5810E+00  0.3932E+01
  -4.940  0.5692E+00  0.3938E+01
  -4.930  0.5579E+00  0.3943E+01
  -4.920  0.5475E+00  0.3949E+01
  -4.910  0.5383E+00  0.3954E+01
  -4.900  0.5305E+00  0.3959E+01
  -4.890  0.5245E+00  0.3964E+01
  -4.880  0.5204E+00  0.3970E+01
  -4.870  0.5183E+00  0.3975E+01
  -4.860  0.5184E+00  0.3980E+01
  -4.850  0.5207E+00  0.3985E+01
  -4.840  0.5252E+00  0.3991E+01
  -4.830  0.5317E+00  0.3996E+01
  -4.820  0.5402E+00  0.4001E+01
  -4.810  0.5504E+00  0.4007E+01
  -4.800  0.5620E+00  0.4012E+01
  -4.790  0.5748E+00  0.4018E+01
  -4.780  0.5885E+00  0.4024E+01
  -4.770  0.6026E+00  0.4030E+01
  -4.760  0.6170E+00  0.4036E+01
  -4.750  0.6312E+00  0.4043E+01
  -4.740  0.6449E+00  0.4049E+01
  -4.730  0.6580E+00  0.4056E+01
  -4.720  0.6702E+00  0.4062E+01
  -4.710  0.6814E+00  0.4069E+01
  -4.700  0.6914E+00  0.4076E+01
  -4.690  0.7003E+00  0.4083E+01
  -4.680  0.7081E+00  0.4090E+01
  -4.670  0.7149E+00  0.4097E+01
  -4.660  0.7209E+00  0.4104E+01
  -4.650  0.7263E+00  0.4112E+01
  -4.640  0.7313E+00  0.4119E+01
  -4.630  0.7360E+00  0.4126E+01
  -4.620  0.7408E+00  0.4134E+01
  -4.610  0.7458E+00  0.4141E+01
  -4.600  0.7512E+00  0.4149E+01
  -4.590  0.7570E+00  0.4156E+01
  -4.580  0.7633E+00  0.4164E+01
  -4.570  0.7700E+00  0.4172E+01
  -4.560  0.7770E+00  0.4179E+01
  -4.550  0.7842E+00  0.4187E+01
  -4.540  0.7911E+00  0.4195E+01
  -4.530  0.7975E+00  0.4203E+01
  -4.520  0.8031E+00  0.4211E+01
  -4.510  0.8074E+00  0.4219E+01
  -4.500  0.8100E+00  0.4227E+01
  -4.490  0.8106E+00  0.4235E+01
  -4.480  0.8089E+00  0.4244E+01
  -4.470  0.8047E+00  0.4252E+01
  -4.460  0.7979E+00  0.4260E+01
  -4.450  0.7884E+00  0.4267E+01
  -4.440  0.7763E+00  0.4275E+01
  -4.430  0.7619E+00  0.4283E+01
  -4.420  0.7455E+00  0.4290E+01
  -4.410  0.7275E+00  0.4298E+01
  -4.400  0.7083E+00  0.4305E+01
  -4.390  0.6885E+00  0.4312E+01
  -4.380  0.6687E+00  0.4318E+01
  -4.370  0.6493E+00  0.4325E+01
  -4.360  0.6308E+00  0.4331E+01
  -4.350  0.6137E+00  0.4337E+01
  -4.340  0.5981E+00  0.4343E+01
  -4.330  0.5844E+00  0.4349E+01
  -4.320  0.5726E+00  0.4355E+01
  -4.310  0.5627E+00  0.4360E+01
  -4.300  0.5545E+00  0.4366E+01
  -4.290  0.5479E+00  0.4371E+01
  -4.280  0.5426E+00  0.4377E+01
  -4.270  0.5382E+00  0.4382E+01
  -4.260  0.5343E+00  0.4387E+01
  -4.250  0.5307E+00  0.4393E+01
  -4.240  0.5270E+00  0.4398E+01
  -4.230  0.5230E+00  0.4403E+01
  -4.220  0.5185E+00  0.4408E+01
  -4.210  0.5133E+00  0.4414E+01
  -4.200  0.5073E+00  0.4419E+01
  -4.190  0.5007E+00  0.4424E+01
  -4.180  0.4935E+00  0.4429E+01
  -4.170  0.4858E+00  0.4433E+01
  -4.160  0.4778E+00  0.4438E+01
  -4.150  0.4698E+00  0.4443E+01
  -4.140  0.4618E+00  0.4448E+01
  -4.130  0.4542E+00  0.4452E+01
  -4.120  0.4471E+00  0.4457E+01
  -4.110  0.4405E+00  0.4461E+01
  -4.100  0.4347E+00  0.4465E+01
  -4.090  0.4295E+00  0.4470E+01
  -4.080  0.4250E+00  0.4474E+01
  -4.070  0.4212E+00  0.4478E+01
  -4.060  0.4178E+00  0.4482E+01
  -4.050  0.4149E+00  0.4486E+01
  -4.040  0.4123E+00  0.4491E+01
  -4.030  0.4098E+00  0.4495E+01
  -4.020  0.4073E+00  0.4499E+01
  -4.010  0.4047E+00  0.4503E+01
  -4.000  0.4019E+00  0.4507E+01
  -3.990  0.3990E+00  0.4511E+01
  -3.980  0.3958E+00  0.4515E+01
  -3.970  0.3923E+00  0.4519E+01
  -3.960  0.3886E+00  0.4523E+01
  -3.950  0.3848E+00  0.4526E+01
  -3.940  0.3808E+00  0.4530E+01
  -3.930  0.3768E+00  0.4534E+01
  -3.920  0.3728E+00  0.4538E+01
  -3.910  0.3688E+00  0.4541E+01
  -3.900  0.3650E+00  0.4545E+01
  -3.890  0.3612E+00  0.4549E+01
  -3.880  0.3575E+00  0.4552E+01
  -3.870  0.3539E+00  0.4556E+01
  -3.860  0.3503E+00  0.4559E+01
  -3.850  0.3466E+00  0.4563E+01
  -3.840  0.3429E+00  0.4566E+01
  -3.830  0.3389E+00  0.4570E+01
  -3.820  0.3347E+00  0.4573E+01
  -3.810  0.3302E+00  0.4576E+01
  -3.800  0.3253E+00  0.4579E+01
  -3.790  0.3198E+00  0.4583E+01
  -3.780  0.3139E+00  0.4586E+01
  -3.770  0.3073E+00  0.4589E+01
  -3.760  0.3001E+00  0.4592E+01
  -3.750  0.2921E+00  0.4595E+01
  -3.740  0.2835E+00  0.4598E+01
  -3.730  0.2742E+00  0.4600E+01
  -3.720  0.2642E+00  0.4603E+01
  -3.710  0.2534E+00  0.4606E+01
  -3.700  0.2421E+00  0.4608E+01
  -3.690  0.2302E+00  0.4610E+01
  -3.680  0.2177E+00  0.4612E+01
  -3.670  0.2048E+00  0.4614E+01
  -3.660  0.1916E+00  0.4616E+01
  -3.650  0.1782E+00  0.4618E+01
  -3.640  0.1647E+00  0.4620E+01
  -3.630  0.1513E+00  0.4621E+01
  -3.620  0.1380E+00  0.4623E+01
  -3.610  0.1249E+00  0.4624E+01
  -3.600  0.1123E+00  0.4625E+01
  -3.590  0.1002E+00  0.4626E+01
  -3.580  0.8877E-01  0.4627E+01
  -3.570  0.7799E-01  0.4628E+01
  -3.560  0.6797E-01  0.4628E+01
  -3.550  0.5875E-01  0.4629E+01
  -3.540  0.5036E-01  0.4630E+01
  -3.530  0.4280E-01  0.4630E+01
  -3.520  0.3606E-01  0.4630E+01
  -3.510  0.3011E-01  0.4631E+01
  -3.500  0.2492E-01  0.4631E+01
  -3.490  0.2044E-01  0.4631E+01
  -3.480  0.1661E-01  0.4631E+01
  -3.470  0.1338E-01  0.4631E+01
  -3.460  0.1068E-01  0.4631E+01
  -3.450  0.8438E-02  0.4632E+01
  -3.440  0.6607E-02  0.4632E+01
  -3.430  0.5124E-02  0.4632E+01
  -3.420  0.3936E-02  0.4632E+01
  -3.410  0.2994E-02  0.4632E+01
  -3.400  0.2256E-02  0.4632E+01
  -3.390  0.1683E-02  0.4632E+01
  -3.380  0.1243E-02  0.4632E+01
  -3.370  0.9095E-03  0.4632E+01
  -3.360  0.6588E-03  0.4632E+01
  -3.350  0.4724E-03  0.4632E+01
  -3.340  0.3354E-03  0.4632E+01
  -3.330  0.2358E-03  0.4632E+01
  -3.320  0.1641E-03  0.4632E+01
  -3.310  0.1130E-03  0.4632E+01
  -3.300  0.7706E-04  0.4632E+01
  -3.290  0.5201E-04  0.4632E+01
  -3.280  0.3475E-04  0.4632E+01
  -3.270  0.2298E-04  0.4632E+01
  -3.260  0.1504E-04  0.4632E+01
  -3.250  0.9746E-05  0.4632E+01
  -3.240  0.6249E-05  0.4632E+01
  -3.230  0.3966E-05  0.4632E+01
  -3.220  0.2491E-05  0.4632E+01
  -3.210  0.1549E-05  0.4632E+01
  -3.200  0.9527E-06  0.4632E+01
  -3.190  0.5800E-06  0.4632E+01
  -3.180  0.3494E-06  0.4632E+01
  -3.170  0.2084E-06  0.4632E+01
  -3.160  0.1229E-06  0.4632E+01
  -3.150  0.7178E-07  0.4632E+01
  -3.140  0.4147E-07  0.4632E+01
  -3.130  0.2371E-07  0.4632E+01
  -3.120  0.1342E-07  0.4632E+01
  -3.110  0.7511E-08  0.4632E+01
  -3.100  0.4161E-08  0.4632E+01
  -3.090  0.2281E-08  0.4632E+01
  -3.080  0.1237E-08  0.4632E+01
  -3.070  0.6639E-09  0.4632E+01
  -3.060  0.3525E-09  0.4632E+01
  -3.050  0.1852E-09  0.4632E+01
  -3.040  0.9631E-10  0.4632E+01
  -3.030  0.4954E-10  0.4632E+01
  -3.020  0.2521E-10  0.4632E+01
  -3.010  0.1270E-10  0.4632E+01
  -3.000  0.6327E-11  0.4632E+01
  -2.990  0.3119E-11  0.4632E+01
  -2.980  0.1522E-11  0.4632E+01
  -2.970  0.7343E-12  0.4632E+01
  -2.960  0.3506E-12  0.4632E+01
  -2.950  0.1656E-12  0.4632E+01
  -2.940  0.7742E-13  0.4632E+01
  -2.930  0.3581E-13  0.4632E+01
  -2.920  0.1638E-13  0.4632E+01
  -2.910  0.7416E-14  0.4632E+01
  -2.900  0.3321E-14  0.4632E+01
  -2.890  0.1472E-14  0.4632E+01
  -2.880  0.6452E-15  0.4632E+01
  -2.870  0.2798E-15  0.4632E+01
  -2.860  0.1201E-15  0.4632E+01
  -2.850  0.5098E-16  0.4632E+01
  -2.840  0.2141E-16  0.4632E+01
  -2.830  0.8898E-17  0.4632E+01
  -2.820  0.3658E-17  0.4632E+01
  -2.810  0.1488E-17  0.4632E+01
  -2.800  0.5987E-18  0.4632E+01
  -2.790  0.2383E-18  0.4632E+01
  -2.780  0.9386E-19  0.4632E+01
  -2.770  0.3657E-19  0.4632E+01
  -2.760  0.1410E-19  0.4632E+01
  -2.750  0.5377E-20  0.4632E+01
  -2.740  0.2029E-20  0.4632E+01
  -2.730  0.7572E-21  0.4632E+01
  -2.720  0.2796E-21  0.4632E+01
  -2.710  0.1022E-21  0.4632E+01
  -2.700  0.3692E-22  0.4632E+01
  -2.690  0.1320E-22  0.4632E+01
  -2.680  0.4670E-23  0.4632E+01
  -2.670  0.1634E-23  0.4632E+01
  -2.660  0.5659E-24  0.4632E+01
  -2.650  0.1938E-24  0.4632E+01
  -2.640  0.6568E-25  0.4632E+01
  -2.630  0.2202E-25  0.4632E+01
  -2.620  0.7302E-26  0.4632E+01
  -2.610  0.2396E-26  0.4632E+01
  -2.600  0.7775E-27  0.4632E+01
  -2.590  0.2497E-27  0.4632E+01
  -2.580  0.7931E-28  0.4632E+01
  -2.570  0.2493E-28  0.4632E+01
  -2.560  0.7749E-29  0.4632E+01
  -2.550  0.2383E-29  0.4632E+01
  -2.540  0.7252E-30  0.4632E+01
  -2.530  0.2183E-30  0.4632E+01
  -2.520  0.6501E-31  0.4632E+01
  -2.510  0.1915E-31  0.4632E+01
  -2.500  0.5582E-32  0.4632E+01
  -2.490  0.1609E-32  0.4632E+01
  -2.480  0.4590E-33  0.4632E+01
  -2.470  0.1295E-33  0.4632E+01
  -2.460  0.3616E-34  0.4632E+01
  -2.450  0.9986E-35  0.4632E+01
  -2.440  0.2728E-35  0.4632E+01
  -2.430  0.7373E-36  0.4632E+01
  -2.420  0.1971E-36  0.4632E+01
  -2.410  0.5214E-37  0.4632E+01
  -2.400  0.1364E-37  0.4632E+01
  -2.390  0.3532E-38  0.4632E+01
  -2.380  0.9045E-39  0.4632E+01
  -2.370  0.2292E-39  0.4632E+01
  -2.360  0.5743E-40  0.4632E+01
  -2.350  0.1424E-40  0.4632E+01
  -2.340  0.3493E-41  0.4632E+01
  -2.330  0.8475E-42  0.4632E+01
  -2.320  0.2034E-42  0.4632E+01
  -2.310  0.4831E-43  0.4632E+01
  -2.300  0.1135E-43  0.4632E+01
  -2.290  0.2638E-44  0.4632E+01
  -2.280  0.6064E-45  0.4632E+01
  -2.270  0.1379E-45  0.4632E+01
  -2.260  0.3103E-46  0.4632E+01
  -2.250  0.6907E-47  0.4632E+01
  -2.240  0.1521E-47  0.4632E+01
  -2.230  0.3313E-48  0.4632E+01
  -2.220  0.7140E-49  0.4632E+01
  -2.210  0.1522E-49  0.4632E+01
  -2.200  0.3210E-50  0.4632E+01
  -2.190  0.6697E-51  0.4632E+01
  -2.180  0.1382E-51  0.4632E+01
  -2.170  0.2822E-52  0.4632E+01
  -2.160  0.5701E-53  0.4632E+01
  -2.150  0.1139E-53  0.4632E+01
  -2.140  0.2252E-54  0.4632E+01
  -2.130  0.4403E-55  0.4632E+01
  -2.120  0.8518E-56  0.4632E+01
  -2.110  0.1630E-56  0.4632E+01
  -2.100  0.3086E-57  0.4632E+01
  -2.090  0.5780E-58  0.4632E+01
  -2.080  0.1071E-58  0.4632E+01
  -2.070  0.1963E-59  0.4632E+01
  -2.060  0.3559E-60  0.4632E+01
  -2.050  0.6384E-61  0.4632E+01
  -2.040  0.1133E-61  0.4632E+01
  -2.030  0.1989E-62  0.4632E+01
  -2.020  0.3453E-63  0.4632E+01
  -2.010  0.5933E-64  0.4632E+01
  -2.000  0.1008E-64  0.4632E+01
  -1.990  0.1695E-65  0.4632E+01
  -1.980  0.2819E-66  0.4632E+01
  -1.970  0.4639E-67  0.4632E+01
  -1.960  0.7550E-68  0.4632E+01
  -1.950  0.1216E-68  0.4632E+01
  -1.940  0.1936E-69  0.4632E+01
  -1.930  0.3051E-70  0.4632E+01
  -1.920  0.4757E-71  0.4632E+01
  -1.910  0.7335E-72  0.4632E+01
  -1.900  0.1119E-72  0.4632E+01
  -1.890  0.1689E-73  0.4632E+01
  -1.880  0.2521E-74  0.4632E+01
  -1.870  0.3724E-75  0.4632E+01
  -1.860  0.5440E-76  0.4632E+01
  -1.850  0.7863E-77  0.4632E+01
  -1.840  0.1124E-77  0.4632E+01
  -1.830  0.1590E-78  0.4632E+01
  -1.820  0.2225E-79  0.4632E+01
  -1.810  0.3081E-80  0.4632E+01
  -1.800  0.4220E-81  0.4632E+01
  -1.790  0.5733E-82  0.4632E+01
  -1.780  0.7841E-83  0.4632E+01
  -1.770  0.1199E-83  0.4632E+01
  -1.760  0.3167E-84  0.4632E+01
  -1.750  0.2008E-84  0.4632E+01
  -1.740  0.1858E-84  0.4632E+01
  -1.730  0.1839E-84  0.4632E+01
  -1.720  0.1836E-84  0.4632E+01
  -1.710  0.1836E-84  0.4632E+01
  -1.700  0.1836E-84  0.4632E+01
  -1.690  0.1836E-84  0.4632E+01
  -1.680  0.1836E-84  0.4632E+01
  -1.670  0.1836E-84  0.4632E+01
  -1.660  0.1836E-84  0.4632E+01
  -1.650  0.1836E-84  0.4632E+01
  -1.640  0.1836E-84  0.4632E+01
  -1.630  0.1836E-84  0.4632E+01
  -1.620  0.1836E-84  0.4632E+01
  -1.610  0.1836E-84  0.4632E+01
  -1.600  0.1836E-84  0.4632E+01
  -1.590  0.1836E-84  0.4632E+01
  -1.580  0.1836E-84  0.4632E+01
  -1.570  0.1836E-84  0.4632E+01
  -1.560  0.1836E-84  0.4632E+01
  -1.550  0.1836E-84  0.4632E+01
  -1.540  0.1836E-84  0.4632E+01
  -1.530  0.1836E-84  0.4632E+01
  -1.520  0.1836E-84  0.4632E+01
  -1.510  0.1836E-84  0.4632E+01
  -1.500  0.1836E-84  0.4632E+01
  -1.490  0.1836E-84  0.4632E+01
  -1.480  0.1836E-84  0.4632E+01
  -1.470  0.1836E-84  0.4632E+01
  -1.460  0.1836E-84  0.4632E+01
  -1.450  0.1836E-84  0.4632E+01
  -1.440  0.1836E-84  0.4632E+01
  -1.430  0.1836E-84  0.4632E+01
  -1.420  0.1836E-84  0.4632E+01
  -1.410  0.1836E-84  0.4632E+01
  -1.400  0.1836E-84  0.4632E+01
  -1.390  0.1836E-84  0.4632E+01
  -1.380  0.1836E-84  0.4632E+01
  -1.370  0.1836E-84  0.4632E+01
  -1.360  0.1836E-84  0.4632E+01
  -1.350  0.1836E-84  0.4632E+01
  -1.340  0.1836E-84  0.4632E+01
  -1.330  0.1836E-84  0.4632E+01
  -1.320  0.1836E-84  0.4632E+01
  -1.310  0.1836E-84  0.4632E+01
  -1.300  0.1836E-84  0.4632E+01
  -1.290  0.1836E-84  0.4632E+01
  -1.280  0.1836E-84  0.4632E+01
  -1.270  0.1836E-84  0.4632E+01
  -1.260  0.1836E-84  0.4632E+01
  -1.250  0.1836E-84  0.4632E+01
  -1.240  0.1836E-84  0.4632E+01
  -1.230  0.1836E-84  0.4632E+01
  -1.220  0.1836E-84  0.4632E+01
  -1.210  0.1836E-84  0.4632E+01
  -1.200  0.1836E-84  0.4632E+01
  -1.190  0.1836E-84  0.4632E+01
  -1.180  0.1836E-84  0.4632E+01
  -1.170  0.1836E-84  0.4632E+01
  -1.160  0.1837E-84  0.4632E+01
  -1.150  0.1845E-84  0.4632E+01
  -1.140  0.1910E-84  0.4632E+01
  -1.130  0.2407E-84  0.4632E+01
  -1.120  0.6176E-84  0.4632E+01
  -1.110  0.3447E-83  0.4632E+01
  -1.100  0.2447E-82  0.4632E+01
  -1.090  0.1789E-81  0.4632E+01
  -1.080  0.1302E-80  0.4632E+01
  -1.070  0.9377E-80  0.4632E+01
  -1.060  0.6682E-79  0.4632E+01
  -1.050  0.4711E-78  0.4632E+01
  -1.040  0.3286E-77  0.4632E+01
  -1.030  0.2267E-76  0.4632E+01
  -1.020  0.1548E-75  0.4632E+01
  -1.010  0.1045E-74  0.4632E+01
  -1.000  0.6984E-74  0.4632E+01
  -0.990  0.4616E-73  0.4632E+01
  -0.980  0.3018E-72  0.4632E+01
  -0.970  0.1953E-71  0.4632E+01
  -0.960  0.1250E-70  0.4632E+01
  -0.950  0.7912E-70  0.4632E+01
  -0.940  0.4956E-69  0.4632E+01
  -0.930  0.3071E-68  0.4632E+01
  -0.920  0.1883E-67  0.4632E+01
  -0.910  0.1142E-66  0.4632E+01
  -0.900  0.6850E-66  0.4632E+01
  -0.890  0.4066E-65  0.4632E+01
  -0.880  0.2388E-64  0.4632E+01
  -0.870  0.1387E-63  0.4632E+01
  -0.860  0.7973E-63  0.4632E+01
  -0.850  0.4533E-62  0.4632E+01
  -0.840  0.2550E-61  0.4632E+01
  -0.830  0.1419E-60  0.4632E+01
  -0.820  0.7814E-60  0.4632E+01
  -0.810  0.4256E-59  0.4632E+01
  -0.800  0.2293E-58  0.4632E+01
  -0.790  0.1223E-57  0.4632E+01
  -0.780  0.6449E-57  0.4632E+01
  -0.770  0.3365E-56  0.4632E+01
  -0.760  0.1737E-55  0.4632E+01
  -0.750  0.8871E-55  0.4632E+01
  -0.740  0.4482E-54  0.4632E+01
  -0.730  0.2240E-53  0.4632E+01
  -0.720  0.1108E-52  0.4632E+01
  -0.710  0.5421E-52  0.4632E+01
  -0.700  0.2624E-51  0.4632E+01
  -0.690  0.1256E-50  0.4632E+01
  -0.680  0.5952E-50  0.4632E+01
  -0.670  0.2790E-49  0.4632E+01
  -0.660  0.1294E-48  0.4632E+01
  -0.650  0.5935E-48  0.4632E+01
  -0.640  0.2693E-47  0.4632E+01
  -0.630  0.1209E-46  0.4632E+01
  -0.620  0.5373E-46  0.4632E+01
  -0.610  0.2361E-45  0.4632E+01
  -0.600  0.1027E-44  0.4632E+01
  -0.590  0.4417E-44  0.4632E+01
  -0.580  0.1880E-43  0.4632E+01
  -0.570  0.7915E-43  0.4632E+01
  -0.560  0.3297E-42  0.4632E+01
  -0.550  0.1359E-41  0.4632E+01
  -0.540  0.5541E-41  0.4632E+01
  -0.530  0.2235E-40  0.4632E+01
  -0.520  0.8920E-40  0.4632E+01
  -0.510  0.3522E-39  0.4632E+01
  -0.500  0.1376E-38  0.4632E+01
  -0.490  0.5318E-38  0.4632E+01
  -0.480  0.2034E-37  0.4632E+01
  -0.470  0.7693E-37  0.4632E+01
  -0.460  0.2879E-36  0.4632E+01
  -0.450  0.1066E-35  0.4632E+01
  -0.440  0.3906E-35  0.4632E+01
  -0.430  0.1416E-34  0.4632E+01
  -0.420  0.5077E-34  0.4632E+01
  -0.410  0.1801E-33  0.4632E+01
  -0.400  0.6323E-33  0.4632E+01
  -0.390  0.2196E-32  0.4632E+01
  -0.380  0.7545E-32  0.4632E+01
  -0.370  0.2565E-31  0.4632E+01
  -0.360  0.8626E-31  0.4632E+01
  -0.350  0.2870E-30  0.4632E+01
  -0.340  0.9450E-30  0.4632E+01
  -0.330  0.3078E-29  0.4632E+01
  -0.320  0.9919E-29  0.4632E+01
  -0.310  0.3163E-28  0.4632E+01
  -0.300  0.9976E-28  0.4632E+01
  -0.290  0.3114E-27  0.4632E+01
  -0.280  0.9614E-27  0.4632E+01
  -0.270  0.2937E-26  0.4632E+01
  -0.260  0.8878E-26  0.4632E+01
  -0.250  0.2655E-25  0.4632E+01
  -0.240  0.7855E-25  0.4632E+01
  -0.230  0.2300E-24  0.4632E+01
  -0.220  0.6660E-24  0.4632E+01
  -0.210  0.1909E-23  0.4632E+01
  -0.200  0.5411E-23  0.4632E+01
  -0.190  0.1518E-22  0.4632E+01
  -0.180  0.4213E-22  0.4632E+01
  -0.170  0.1157E-21  0.4632E+01
  -0.160  0.3143E-21  0.4632E+01
  -0.150  0.8448E-21  0.4632E+01
  -0.140  0.2247E-20  0.4632E+01
  -0.130  0.5912E-20  0.4632E+01
  -0.120  0.1539E-19  0.4632E+01
  -0.110  0.3965E-19  0.4632E+01
  -0.100  0.1010E-18  0.4632E+01
  -0.090  0.2548E-18  0.4632E+01
  -0.080  0.6357E-18  0.4632E+01
  -0.070  0.1569E-17  0.4632E+01
  -0.060  0.3833E-17  0.4632E+01
  -0.050  0.9262E-17  0.4632E+01
  -0.040  0.2215E-16  0.4632E+01
  -0.030  0.5239E-16  0.4632E+01
  -0.020  0.1226E-15  0.4632E+01
  -0.010  0.2840E-15  0.4632E+01
   0.000  0.6508E-15  0.4632E+01
   0.010  0.1476E-14  0.4632E+01
   0.020  0.3310E-14  0.4632E+01
   0.030  0.7348E-14  0.4632E+01
   0.040  0.1614E-13  0.4632E+01
   0.050  0.3507E-13  0.4632E+01
   0.060  0.7540E-13  0.4632E+01
   0.070  0.1604E-12  0.4632E+01
   0.080  0.3376E-12  0.4632E+01
   0.090  0.7033E-12  0.4632E+01
   0.100  0.1449E-11  0.4632E+01
   0.110  0.2956E-11  0.4632E+01
   0.120  0.5964E-11  0.4632E+01
   0.130  0.1191E-10  0.4632E+01
   0.140  0.2352E-10  0.4632E+01
   0.150  0.4598E-10  0.4632E+01
   0.160  0.8894E-10  0.4632E+01
   0.170  0.1702E-09  0.4632E+01
   0.180  0.3224E-09  0.4632E+01
   0.190  0.6042E-09  0.4632E+01
   0.200  0.1121E-08  0.4632E+01
   0.210  0.2056E-08  0.4632E+01
   0.220  0.3734E-08  0.4632E+01
   0.230  0.6709E-08  0.4632E+01
   0.240  0.1193E-07  0.4632E+01
   0.250  0.2099E-07  0.4632E+01
   0.260  0.3655E-07  0.4632E+01
   0.270  0.6298E-07  0.4632E+01
   0.280  0.1074E-06  0.4632E+01
   0.290  0.1812E-06  0.4632E+01
   0.300  0.3027E-06  0.4632E+01
   0.310  0.5003E-06  0.4632E+01
   0.320  0.8182E-06  0.4632E+01
   0.330  0.1325E-05  0.4632E+01
   0.340  0.2122E-05  0.4632E+01
   0.350  0.3365E-05  0.4632E+01
   0.360  0.5280E-05  0.4632E+01
   0.370  0.8201E-05  0.4632E+01
   0.380  0.1261E-04  0.4632E+01
   0.390  0.1918E-04  0.4632E+01
   0.400  0.2889E-04  0.4632E+01
   0.410  0.4307E-04  0.4632E+01
   0.420  0.6355E-04  0.4632E+01
   0.430  0.9283E-04  0.4632E+01
   0.440  0.1342E-03  0.4632E+01
   0.450  0.1921E-03  0.4632E+01
   0.460  0.2723E-03  0.4632E+01
   0.470  0.3820E-03  0.4632E+01
   0.480  0.5305E-03  0.4632E+01
   0.490  0.7295E-03  0.4632E+01
   0.500  0.9933E-03  0.4632E+01
   0.510  0.1339E-02  0.4632E+01
   0.520  0.1788E-02  0.4632E+01
   0.530  0.2363E-02  0.4632E+01
   0.540  0.3094E-02  0.4632E+01
   0.550  0.4012E-02  0.4632E+01
   0.560  0.5151E-02  0.4632E+01
   0.570  0.6552E-02  0.4632E+01
   0.580  0.8255E-02  0.4632E+01
   0.590  0.1030E-01  0.4632E+01
   0.600  0.1274E-01  0.4632E+01
   0.610  0.1561E-01  0.4633E+01
   0.620  0.1895E-01  0.4633E+01
   0.630  0.2280E-01  0.4633E+01
   0.640  0.2719E-01  0.4633E+01
   0.650  0.3214E-01  0.4634E+01
   0.660  0.3765E-01  0.4634E+01
   0.670  0.4375E-01  0.4634E+01
   0.680  0.5039E-01  0.4635E+01
   0.690  0.5758E-01  0.4635E+01
   0.700  0.6525E-01  0.4636E+01
   0.710  0.7337E-01  0.4637E+01
   0.720  0.8186E-01  0.4638E+01
   0.730  0.9065E-01  0.4639E+01
   0.740  0.9966E-01  0.4640E+01
   0.750  0.1088E+00  0.4641E+01
   0.760  0.1180E+00  0.4642E+01
   0.770  0.1271E+00  0.4643E+01
   0.780  0.1360E+00  0.4645E+01
   0.790  0.1448E+00  0.4646E+01
   0.800  0.1532E+00  0.4647E+01
   0.810  0.1614E+00  0.4649E+01
   0.820  0.1691E+00  0.4651E+01
   0.830  0.1765E+00  0.4653E+01
   0.840  0.1835E+00  0.4654E+01
   0.850  0.1902E+00  0.4656E+01
   0.860  0.1966E+00  0.4658E+01
   0.870  0.2028E+00  0.4660E+01
   0.880  0.2088E+00  0.4662E+01
   0.890  0.2150E+00  0.4665E+01
   0.900  0.2213E+00  0.4667E+01
   0.910  0.2280E+00  0.4669E+01
   0.920  0.2353E+00  0.4671E+01
   0.930  0.2434E+00  0.4674E+01
   0.940  0.2526E+00  0.4676E+01
   0.950  0.2631E+00  0.4679E+01
   0.960  0.2751E+00  0.4682E+01
   0.970  0.2891E+00  0.4685E+01
   0.980  0.3052E+00  0.4688E+01
   0.990  0.3238E+00  0.4691E+01
   1.000  0.3451E+00  0.4694E+01
   1.010  0.3694E+00  0.4698E+01
   1.020  0.3970E+00  0.4702E+01
   1.030  0.4280E+00  0.4706E+01
   1.040  0.4625E+00  0.4711E+01
   1.050  0.5007E+00  0.4716E+01
   1.060  0.5426E+00  0.4721E+01
   1.070  0.5881E+00  0.4727E+01
   1.080  0.6369E+00  0.4734E+01
   1.090  0.6889E+00  0.4740E+01
   1.100  0.7436E+00  0.4748E+01
   1.110  0.8005E+00  0.4756E+01
   1.120  0.8591E+00  0.4765E+01
   1.130  0.9188E+00  0.4774E+01
   1.140  0.9787E+00  0.4783E+01
   1.150  0.1038E+01  0.4794E+01
   1.160  0.1096E+01  0.4805E+01
   1.170  0.1152E+01  0.4816E+01
   1.180  0.1205E+01  0.4828E+01
   1.190  0.1254E+01  0.4841E+01
   1.200  0.1299E+01  0.4854E+01
   1.210  0.1338E+01  0.4867E+01
   1.220  0.1372E+01  0.4881E+01
   1.230  0.1400E+01  0.4895E+01
   1.240  0.1422E+01  0.4909E+01
   1.250  0.1437E+01  0.4924E+01
   1.260  0.1446E+01  0.4938E+01
   1.270  0.1450E+01  0.4953E+01
   1.280  0.1447E+01  0.4967E+01
   1.290  0.1439E+01  0.4981E+01
   1.300  0.1425E+01  0.4996E+01
   1.310  0.1408E+01  0.5010E+01
   1.320  0.1387E+01  0.5024E+01
   1.330  0.1363E+01  0.5037E+01
   1.340  0.1336E+01  0.5051E+01
   1.350  0.1307E+01  0.5064E+01
   1.360  0.1278E+01  0.5076E+01
   1.370  0.1248E+01  0.5089E+01
   1.380  0.1218E+01  0.5101E+01
   1.390  0.1188E+01  0.5113E+01
   1.400  0.1159E+01  0.5125E+01
   1.410  0.1131E+01  0.5136E+01
   1.420  0.1105E+01  0.5147E+01
   1.430  0.1081E+01  0.5158E+01
   1.440  0.1058E+01  0.5168E+01
   1.450  0.1036E+01  0.5179E+01
   1.460  0.1017E+01  0.5189E+01
   1.470  0.9984E+00  0.5199E+01
   1.480  0.9816E+00  0.5209E+01
   1.490  0.9659E+00  0.5218E+01
   1.500  0.9513E+00  0.5228E+01
   1.510  0.9375E+00  0.5237E+01
   1.520  0.9244E+00  0.5246E+01
   1.530  0.9118E+00  0.5256E+01
   1.540  0.8995E+00  0.5265E+01
   1.550  0.8875E+00  0.5273E+01
   1.560  0.8758E+00  0.5282E+01
   1.570  0.8643E+00  0.5291E+01
   1.580  0.8532E+00  0.5299E+01
   1.590  0.8423E+00  0.5308E+01
   1.600  0.8320E+00  0.5316E+01
   1.610  0.8222E+00  0.5324E+01
   1.620  0.8132E+00  0.5332E+01
   1.630  0.8052E+00  0.5341E+01
   1.640  0.7981E+00  0.5349E+01
   1.650  0.7923E+00  0.5356E+01
   1.660  0.7876E+00  0.5364E+01
   1.670  0.7843E+00  0.5372E+01
   1.680  0.7822E+00  0.5380E+01
   1.690  0.7813E+00  0.5388E+01
   1.700  0.7816E+00  0.5396E+01
   1.710  0.7828E+00  0.5403E+01
   1.720  0.7847E+00  0.5411E+01
   1.730  0.7872E+00  0.5419E+01
   1.740  0.7901E+00  0.5427E+01
   1.750  0.7931E+00  0.5435E+01
   1.760  0.7962E+00  0.5443E+01
   1.770  0.7990E+00  0.5451E+01
   1.780  0.8017E+00  0.5459E+01
   1.790  0.8042E+00  0.5467E+01
   1.800  0.8064E+00  0.5475E+01
   1.810  0.8085E+00  0.5483E+01
   1.820  0.8106E+00  0.5491E+01
   1.830  0.8129E+00  0.5499E+01
   1.840  0.8154E+00  0.5508E+01
   1.850  0.8184E+00  0.5516E+01
   1.860  0.8220E+00  0.5524E+01
   1.870  0.8263E+00  0.5532E+01
   1.880  0.8313E+00  0.5541E+01
   1.890  0.8370E+00  0.5549E+01
   1.900  0.8434E+00  0.5557E+01
   1.910  0.8504E+00  0.5566E+01
   1.920  0.8577E+00  0.5574E+01
   1.930  0.8652E+00  0.5583E+01
   1.940  0.8726E+00  0.5592E+01
   1.950  0.8797E+00  0.5601E+01
   1.960  0.8862E+00  0.5609E+01
   1.970  0.8920E+00  0.5618E+01
   1.980  0.8969E+00  0.5627E+01
   1.990  0.9007E+00  0.5636E+01
   2.000  0.9033E+00  0.5645E+01
   2.010  0.9048E+00  0.5654E+01
   2.020  0.9052E+00  0.5663E+01
   2.030  0.9046E+00  0.5673E+01
   2.040  0.9030E+00  0.5682E+01
   2.050  0.9006E+00  0.5691E+01
   2.060  0.8976E+00  0.5700E+01
   2.070  0.8942E+00  0.5708E+01
   2.080  0.8905E+00  0.5717E+01
   2.090  0.8866E+00  0.5726E+01
   2.100  0.8827E+00  0.5735E+01
   2.110  0.8789E+00  0.5744E+01
   2.120  0.8752E+00  0.5753E+01
   2.130  0.8718E+00  0.5761E+01
   2.140  0.8686E+00  0.5770E+01
   2.150  0.8656E+00  0.5779E+01
   2.160  0.8630E+00  0.5787E+01
   2.170  0.8606E+00  0.5796E+01
   2.180  0.8586E+00  0.5804E+01
   2.190  0.8569E+00  0.5813E+01
   2.200  0.8555E+00  0.5822E+01
   2.210  0.8545E+00  0.5830E+01
   2.220  0.8540E+00  0.5839E+01
   2.230  0.8538E+00  0.5847E+01
   2.240  0.8542E+00  0.5856E+01
   2.250  0.8549E+00  0.5864E+01
   2.260  0.8561E+00  0.5873E+01
   2.270  0.8576E+00  0.5881E+01
   2.280  0.8594E+00  0.5890E+01
   2.290  0.8614E+00  0.5899E+01
   2.300  0.8633E+00  0.5907E+01
   2.310  0.8651E+00  0.5916E+01
   2.320  0.8666E+00  0.5925E+01
   2.330  0.8677E+00  0.5933E+01
   2.340  0.8681E+00  0.5942E+01
   2.350  0.8678E+00  0.5951E+01
   2.360  0.8668E+00  0.5959E+01
   2.370  0.8650E+00  0.5968E+01
   2.380  0.8625E+00  0.5977E+01
   2.390  0.8594E+00  0.5985E+01
   2.400  0.8560E+00  0.5994E+01
   2.410  0.8525E+00  0.6002E+01
   2.420  0.8492E+00  0.6011E+01
   2.430  0.8463E+00  0.6019E+01
   2.440  0.8442E+00  0.6028E+01
   2.450  0.8432E+00  0.6036E+01
   2.460  0.8435E+00  0.6045E+01
   2.470  0.8454E+00  0.6053E+01
   2.480  0.8489E+00  0.6061E+01
   2.490  0.8542E+00  0.6070E+01
   2.500  0.8611E+00  0.6079E+01
   2.510  0.8696E+00  0.6087E+01
   2.520  0.8794E+00  0.6096E+01
   2.530  0.8904E+00  0.6105E+01
   2.540  0.9022E+00  0.6114E+01
   2.550  0.9146E+00  0.6123E+01
   2.560  0.9272E+00  0.6132E+01
   2.570  0.9397E+00  0.6142E+01
   2.580  0.9518E+00  0.6151E+01
   2.590  0.9633E+00  0.6161E+01
   2.600  0.9740E+00  0.6171E+01
   2.610  0.9837E+00  0.6181E+01
   2.620  0.9924E+00  0.6191E+01
   2.630  0.9999E+00  0.6201E+01
   2.640  0.1006E+01  0.6211E+01
   2.650  0.1012E+01  0.6221E+01
   2.660  0.1016E+01  0.6231E+01
   2.670  0.1020E+01  0.6241E+01
   2.680  0.1023E+01  0.6251E+01
   2.690  0.1025E+01  0.6262E+01
   2.700  0.1027E+01  0.6272E+01
   2.710  0.1028E+01  0.6282E+01
   2.720  0.1029E+01  0.6292E+01
   2.730  0.1030E+01  0.6303E+01
   2.740  0.1030E+01  0.6313E+01
   2.750  0.1031E+01  0.6323E+01
   2.760  0.1031E+01  0.6334E+01
   2.770  0.1032E+01  0.6344E+01
   2.780  0.1033E+01  0.6354E+01
   2.790  0.1033E+01  0.6365E+01
   2.800  0.1034E+01  0.6375E+01
   2.810  0.1036E+01  0.6385E+01
   2.820  0.1037E+01  0.6396E+01
   2.830  0.1039E+01  0.6406E+01
   2.840  0.1041E+01  0.6416E+01
   2.850  0.1043E+01  0.6427E+01
   2.860  0.1046E+01  0.6437E+01
   2.870  0.1049E+01  0.6448E+01
   2.880  0.1052E+01  0.6458E+01
   2.890  0.1055E+01  0.6469E+01
   2.900  0.1058E+01  0.6480E+01
   2.910  0.1061E+01  0.6490E+01
   2.920  0.1064E+01  0.6501E+01
   2.930  0.1067E+01  0.6511E+01
   2.940  0.1069E+01  0.6522E+01
   2.950  0.1071E+01  0.6533E+01
   2.960  0.1072E+01  0.6544E+01
   2.970  0.1073E+01  0.6554E+01
   2.980  0.1073E+01  0.6565E+01
   2.990  0.1072E+01  0.6576E+01
   3.000  0.1071E+01  0.6586E+01
   3.010  0.1069E+01  0.6597E+01
   3.020  0.1067E+01  0.6608E+01
   3.030  0.1064E+01  0.6618E+01
   3.040  0.1061E+01  0.6629E+01
   3.050  0.1057E+01  0.6640E+01
   3.060  0.1053E+01  0.6650E+01
   3.070  0.1050E+01  0.6661E+01
   3.080  0.1046E+01  0.6671E+01
   3.090  0.1043E+01  0.6682E+01
   3.100  0.1041E+01  0.6692E+01
   3.110  0.1039E+01  0.6702E+01
   3.120  0.1038E+01  0.6713E+01
   3.130  0.1038E+01  0.6723E+01
   3.140  0.1039E+01  0.6733E+01
   3.150  0.1041E+01  0.6744E+01
   3.160  0.1044E+01  0.6754E+01
   3.170  0.1049E+01  0.6765E+01
   3.180  0.1054E+01  0.6775E+01
   3.190  0.1060E+01  0.6786E+01
   3.200  0.1066E+01  0.6797E+01
   3.210  0.1073E+01  0.6807E+01
   3.220  0.1081E+01  0.6818E+01
   3.230  0.1088E+01  0.6829E+01
   3.240  0.1095E+01  0.6840E+01
   3.250  0.1103E+01  0.6851E+01
   3.260  0.1109E+01  0.6862E+01
   3.270  0.1115E+01  0.6873E+01
   3.280  0.1121E+01  0.6884E+01
   3.290  0.1125E+01  0.6896E+01
   3.300  0.1129E+01  0.6907E+01
   3.310  0.1132E+01  0.6918E+01
   3.320  0.1134E+01  0.6930E+01
   3.330  0.1135E+01  0.6941E+01
   3.340  0.1135E+01  0.6952E+01
   3.350  0.1135E+01  0.6964E+01
   3.360  0.1134E+01  0.6975E+01
   3.370  0.1133E+01  0.6986E+01
   3.380  0.1131E+01  0.6998E+01
   3.390  0.1130E+01  0.7009E+01
   3.400  0.1128E+01  0.7020E+01
   3.410  0.1127E+01  0.7032E+01
   3.420  0.1125E+01  0.7043E+01
   3.430  0.1125E+01  0.7054E+01
   3.440  0.1125E+01  0.7065E+01
   3.450  0.1126E+01  0.7077E+01
   3.460  0.1128E+01  0.7088E+01
   3.470  0.1132E+01  0.7099E+01
   3.480  0.1137E+01  0.7111E+01
   3.490  0.1144E+01  0.7122E+01
   3.500  0.1152E+01  0.7133E+01
   3.510  0.1163E+01  0.7145E+01
   3.520  0.1176E+01  0.7157E+01
   3.530  0.1191E+01  0.7169E+01
   3.540  0.1208E+01  0.7181E+01
   3.550  0.1227E+01  0.7193E+01
   3.560  0.1247E+01  0.7206E+01
   3.570  0.1269E+01  0.7218E+01
   3.580  0.1293E+01  0.7231E+01
   3.590  0.1318E+01  0.7244E+01
   3.600  0.1343E+01  0.7258E+01
   3.610  0.1368E+01  0.7271E+01
   3.620  0.1394E+01  0.7285E+01
   3.630  0.1418E+01  0.7300E+01
   3.640  0.1442E+01  0.7314E+01
   3.650  0.1463E+01  0.7329E+01
   3.660  0.1483E+01  0.7343E+01
   3.670  0.1500E+01  0.7359E+01
   3.680  0.1514E+01  0.7374E+01
   3.690  0.1525E+01  0.7389E+01
   3.700  0.1531E+01  0.7404E+01
   3.710  0.1534E+01  0.7420E+01
   3.720  0.1532E+01  0.7435E+01
   3.730  0.1524E+01  0.7450E+01
   3.740  0.1512E+01  0.7465E+01
   3.750  0.1495E+01  0.7480E+01
   3.760  0.1472E+01  0.7495E+01
   3.770  0.1443E+01  0.7509E+01
   3.780  0.1410E+01  0.7523E+01
   3.790  0.1372E+01  0.7537E+01
   3.800  0.1329E+01  0.7550E+01
   3.810  0.1282E+01  0.7563E+01
   3.820  0.1232E+01  0.7576E+01
   3.830  0.1179E+01  0.7587E+01
   3.840  0.1124E+01  0.7599E+01
   3.850  0.1069E+01  0.7609E+01
   3.860  0.1013E+01  0.7619E+01
   3.870  0.9571E+00  0.7629E+01
   3.880  0.9032E+00  0.7638E+01
   3.890  0.8516E+00  0.7647E+01
   3.900  0.8030E+00  0.7655E+01
   3.910  0.7581E+00  0.7662E+01
   3.920  0.7172E+00  0.7669E+01
   3.930  0.6808E+00  0.7676E+01
   3.940  0.6491E+00  0.7683E+01
   3.950  0.6221E+00  0.7689E+01
   3.960  0.5998E+00  0.7695E+01
   3.970  0.5819E+00  0.7701E+01
   3.980  0.5683E+00  0.7706E+01
   3.990  0.5583E+00  0.7712E+01
   4.000  0.5516E+00  0.7717E+01
   4.010  0.5477E+00  0.7723E+01
   4.020  0.5459E+00  0.7728E+01
   4.030  0.5457E+00  0.7734E+01
   4.040  0.5467E+00  0.7739E+01
   4.050  0.5482E+00  0.7745E+01
   4.060  0.5499E+00  0.7750E+01
   4.070  0.5515E+00  0.7756E+01
   4.080  0.5526E+00  0.7761E+01
   4.090  0.5530E+00  0.7767E+01
   4.100  0.5526E+00  0.7772E+01
   4.110  0.5513E+00  0.7778E+01
   4.120  0.5492E+00  0.7783E+01
   4.130  0.5463E+00  0.7789E+01
   4.140  0.5428E+00  0.7794E+01
   4.150  0.5387E+00  0.7800E+01
   4.160  0.5343E+00  0.7805E+01
   4.170  0.5298E+00  0.7810E+01
   4.180  0.5254E+00  0.7816E+01
   4.190  0.5214E+00  0.7821E+01
   4.200  0.5179E+00  0.7826E+01
   4.210  0.5152E+00  0.7831E+01
   4.220  0.5135E+00  0.7836E+01
   4.230  0.5130E+00  0.7841E+01
   4.240  0.5138E+00  0.7847E+01
   4.250  0.5162E+00  0.7852E+01
   4.260  0.5202E+00  0.7857E+01
   4.270  0.5259E+00  0.7862E+01
   4.280  0.5333E+00  0.7867E+01
   4.290  0.5424E+00  0.7873E+01
   4.300  0.5532E+00  0.7878E+01
   4.310  0.5655E+00  0.7884E+01
   4.320  0.5793E+00  0.7890E+01
   4.330  0.5942E+00  0.7896E+01
   4.340  0.6100E+00  0.7902E+01
   4.350  0.6266E+00  0.7908E+01
   4.360  0.6437E+00  0.7915E+01
   4.370  0.6608E+00  0.7921E+01
   4.380  0.6778E+00  0.7928E+01
   4.390  0.6944E+00  0.7935E+01
   4.400  0.7102E+00  0.7942E+01
   4.410  0.7251E+00  0.7949E+01
   4.420  0.7388E+00  0.7957E+01
   4.430  0.7511E+00  0.7964E+01
   4.440  0.7618E+00  0.7972E+01
   4.450  0.7709E+00  0.7980E+01
   4.460  0.7782E+00  0.7987E+01
   4.470  0.7837E+00  0.7995E+01
   4.480  0.7875E+00  0.8003E+01
   4.490  0.7896E+00  0.8011E+01
   4.500  0.7901E+00  0.8019E+01
   4.510  0.7891E+00  0.8027E+01
   4.520  0.7869E+00  0.8035E+01
   4.530  0.7835E+00  0.8042E+01
   4.540  0.7792E+00  0.8050E+01
   4.550  0.7743E+00  0.8058E+01
   4.560  0.7690E+00  0.8066E+01
   4.570  0.7635E+00  0.8073E+01
   4.580  0.7581E+00  0.8081E+01
   4.590  0.7529E+00  0.8088E+01
   4.600  0.7482E+00  0.8096E+01
   4.610  0.7440E+00  0.8103E+01
   4.620  0.7406E+00  0.8111E+01
   4.630  0.7379E+00  0.8118E+01
   4.640  0.7360E+00  0.8125E+01
   4.650  0.7348E+00  0.8133E+01
   4.660  0.7343E+00  0.8140E+01
   4.670  0.7343E+00  0.8147E+01
   4.680  0.7348E+00  0.8155E+01
   4.690  0.7356E+00  0.8162E+01
   4.700  0.7365E+00  0.8170E+01
   4.710  0.7375E+00  0.8177E+01
   4.720  0.7384E+00  0.8184E+01
   4.730  0.7390E+00  0.8192E+01
   4.740  0.7395E+00  0.8199E+01
   4.750  0.7396E+00  0.8206E+01
   4.760  0.7396E+00  0.8214E+01
   4.770  0.7393E+00  0.8221E+01
   4.780  0.7390E+00  0.8229E+01
   4.790  0.7388E+00  0.8236E+01
   4.800  0.7389E+00  0.8243E+01
   4.810  0.7394E+00  0.8251E+01
   4.820  0.7405E+00  0.8258E+01
   4.830  0.7425E+00  0.8266E+01
   4.840  0.7455E+00  0.8273E+01
   4.850  0.7497E+00  0.8281E+01
   4.860  0.7551E+00  0.8288E+01
   4.870  0.7618E+00  0.8296E+01
   4.880  0.7699E+00  0.8303E+01
   4.890  0.7792E+00  0.8311E+01
   4.900  0.7898E+00  0.8319E+01
   4.910  0.8015E+00  0.8327E+01
   4.920  0.8141E+00  0.8335E+01
   4.930  0.8276E+00  0.8344E+01
   4.940  0.8417E+00  0.8352E+01
   4.950  0.8562E+00  0.8361E+01
   4.960  0.8711E+00  0.8369E+01
   4.970  0.8861E+00  0.8378E+01
   4.980  0.9011E+00  0.8387E+01
   4.990  0.9160E+00  0.8396E+01
   5.000  0.9308E+00  0.8406E+01
   5.010  0.9452E+00  0.8415E+01
   5.020  0.9594E+00  0.8425E+01
   5.030  0.9732E+00  0.8434E+01
   5.040  0.9867E+00  0.8444E+01
   5.050  0.9997E+00  0.8454E+01
   5.060  0.1012E+01  0.8464E+01
   5.070  0.1025E+01  0.8475E+01
   5.080  0.1037E+01  0.8485E+01
   5.090  0.1049E+01  0.8496E+01
   5.100  0.1061E+01  0.8506E+01
   5.110  0.1073E+01  0.8517E+01
   5.120  0.1086E+01  0.8528E+01
   5.130  0.1099E+01  0.8539E+01
   5.140  0.1113E+01  0.8550E+01
   5.150  0.1128E+01  0.8561E+01
   5.160  0.1146E+01  0.8573E+01
   5.170  0.1165E+01  0.8584E+01
   5.180  0.1187E+01  0.8596E+01
   5.190  0.1213E+01  0.8608E+01
   5.200  0.1242E+01  0.8621E+01
   5.210  0.1276E+01  0.8633E+01
   5.220  0.1315E+01  0.8647E+01
   5.230  0.1359E+01  0.8660E+01
   5.240  0.1408E+01  0.8674E+01
   5.250  0.1462E+01  0.8689E+01
   5.260  0.1522E+01  0.8704E+01
   5.270  0.1587E+01  0.8720E+01
   5.280  0.1656E+01  0.8737E+01
   5.290  0.1730E+01  0.8754E+01
   5.300  0.1806E+01  0.8772E+01
   5.310  0.1885E+01  0.8791E+01
   5.320  0.1964E+01  0.8810E+01
   5.330  0.2043E+01  0.8831E+01
   5.340  0.2120E+01  0.8852E+01
   5.350  0.2193E+01  0.8874E+01
   5.360  0.2262E+01  0.8897E+01
   5.370  0.2324E+01  0.8920E+01
   5.380  0.2378E+01  0.8944E+01
   5.390  0.2424E+01  0.8968E+01
   5.400  0.2459E+01  0.8992E+01
   5.410  0.2483E+01  0.9017E+01
   5.420  0.2497E+01  0.9042E+01
   5.430  0.2498E+01  0.9067E+01
   5.440  0.2488E+01  0.9092E+01
   5.450  0.2467E+01  0.9117E+01
   5.460  0.2434E+01  0.9141E+01
   5.470  0.2392E+01  0.9165E+01
   5.480  0.2341E+01  0.9188E+01
   5.490  0.2282E+01  0.9211E+01
   5.500  0.2217E+01  0.9233E+01
   5.510  0.2147E+01  0.9255E+01
   5.520  0.2074E+01  0.9276E+01
   5.530  0.1998E+01  0.9296E+01
   5.540  0.1921E+01  0.9315E+01
   5.550  0.1844E+01  0.9333E+01
   5.560  0.1769E+01  0.9351E+01
   5.570  0.1696E+01  0.9368E+01
   5.580  0.1625E+01  0.9384E+01
   5.590  0.1558E+01  0.9400E+01
   5.600  0.1495E+01  0.9415E+01
   5.610  0.1435E+01  0.9429E+01
   5.620  0.1380E+01  0.9443E+01
   5.630  0.1329E+01  0.9456E+01
   5.640  0.1282E+01  0.9469E+01
   5.650  0.1240E+01  0.9481E+01
   5.660  0.1201E+01  0.9493E+01
   5.670  0.1167E+01  0.9505E+01
   5.680  0.1136E+01  0.9516E+01
   5.690  0.1108E+01  0.9527E+01
   5.700  0.1084E+01  0.9538E+01
   5.710  0.1064E+01  0.9549E+01
   5.720  0.1047E+01  0.9559E+01
   5.730  0.1033E+01  0.9570E+01
   5.740  0.1022E+01  0.9580E+01
   5.750  0.1014E+01  0.9590E+01
   5.760  0.1009E+01  0.9600E+01
   5.770  0.1007E+01  0.9610E+01
   5.780  0.1008E+01  0.9620E+01
   5.790  0.1012E+01  0.9630E+01
   5.800  0.1019E+01  0.9641E+01
   5.810  0.1028E+01  0.9651E+01
   5.820  0.1040E+01  0.9661E+01
   5.830  0.1054E+01  0.9672E+01
   5.840  0.1070E+01  0.9683E+01
   5.850  0.1089E+01  0.9693E+01
   5.860  0.1108E+01  0.9705E+01
   5.870  0.1129E+01  0.9716E+01
   5.880  0.1150E+01  0.9727E+01
   5.890  0.1171E+01  0.9739E+01
   5.900  0.1192E+01  0.9751E+01
   5.910  0.1213E+01  0.9763E+01
   5.920  0.1232E+01  0.9775E+01
   5.930  0.1250E+01  0.9788E+01
   5.940  0.1266E+01  0.9801E+01
   5.950  0.1280E+01  0.9813E+01
   5.960  0.1291E+01  0.9826E+01
   5.970  0.1300E+01  0.9839E+01
   5.980  0.1307E+01  0.9852E+01
   5.990  0.1312E+01  0.9865E+01
   6.000  0.1314E+01  0.9879E+01
   6.010  0.1314E+01  0.9892E+01
   6.020  0.1313E+01  0.9905E+01
   6.030  0.1310E+01  0.9918E+01
   6.040  0.1307E+01  0.9931E+01
   6.050  0.1302E+01  0.9944E+01
   6.060  0.1297E+01  0.9957E+01
   6.070  0.1291E+01  0.9970E+01
   6.080  0.1285E+01  0.9983E+01
   6.090  0.1278E+01  0.9996E+01
   6.100  0.1272E+01  0.1001E+02
   6.110  0.1265E+01  0.1002E+02
   6.120  0.1258E+01  0.1003E+02
   6.130  0.1251E+01  0.1005E+02
   6.140  0.1243E+01  0.1006E+02
   6.150  0.1235E+01  0.1007E+02
   6.160  0.1226E+01  0.1008E+02
   6.170  0.1217E+01  0.1010E+02
   6.180  0.1207E+01  0.1011E+02
   6.190  0.1197E+01  0.1012E+02
   6.200  0.1185E+01  0.1013E+02
   6.210  0.1174E+01  0.1014E+02
   6.220  0.1162E+01  0.1015E+02
   6.230  0.1149E+01  0.1017E+02
   6.240  0.1137E+01  0.1018E+02
   6.250  0.1124E+01  0.1019E+02
   6.260  0.1112E+01  0.1020E+02
   6.270  0.1101E+01  0.1021E+02
   6.280  0.1091E+01  0.1022E+02
   6.290  0.1081E+01  0.1023E+02
   6.300  0.1074E+01  0.1024E+02
   6.310  0.1068E+01  0.1025E+02
   6.320  0.1064E+01  0.1026E+02
   6.330  0.1062E+01  0.1028E+02
   6.340  0.1062E+01  0.1029E+02
   6.350  0.1065E+01  0.1030E+02
   6.360  0.1070E+01  0.1031E+02
   6.370  0.1078E+01  0.1032E+02
   6.380  0.1088E+01  0.1033E+02
   6.390  0.1100E+01  0.1034E+02
   6.400  0.1114E+01  0.1035E+02
   6.410  0.1129E+01  0.1036E+02
   6.420  0.1145E+01  0.1037E+02
   6.430  0.1161E+01  0.1039E+02
   6.440  0.1177E+01  0.1040E+02
   6.450  0.1193E+01  0.1041E+02
   6.460  0.1208E+01  0.1042E+02
   6.470  0.1220E+01  0.1043E+02
   6.480  0.1231E+01  0.1045E+02
   6.490  0.1240E+01  0.1046E+02
   6.500  0.1245E+01  0.1047E+02
   6.510  0.1248E+01  0.1048E+02
   6.520  0.1248E+01  0.1050E+02
   6.530  0.1245E+01  0.1051E+02
   6.540  0.1238E+01  0.1052E+02
   6.550  0.1230E+01  0.1053E+02
   6.560  0.1219E+01  0.1054E+02
   6.570  0.1207E+01  0.1056E+02
   6.580  0.1193E+01  0.1057E+02
   6.590  0.1179E+01  0.1058E+02
   6.600  0.1166E+01  0.1059E+02
   6.610  0.1153E+01  0.1060E+02
   6.620  0.1142E+01  0.1062E+02
   6.630  0.1133E+01  0.1063E+02
   6.640  0.1126E+01  0.1064E+02
   6.650  0.1123E+01  0.1065E+02
   6.660  0.1124E+01  0.1066E+02
   6.670  0.1128E+01  0.1067E+02
   6.680  0.1137E+01  0.1068E+02
   6.690  0.1149E+01  0.1069E+02
   6.700  0.1166E+01  0.1071E+02
   6.710  0.1187E+01  0.1072E+02
   6.720  0.1212E+01  0.1073E+02
   6.730  0.1240E+01  0.1074E+02
   6.740  0.1271E+01  0.1075E+02
   6.750  0.1306E+01  0.1077E+02
   6.760  0.1343E+01  0.1078E+02
   6.770  0.1382E+01  0.1080E+02
   6.780  0.1424E+01  0.1081E+02
   6.790  0.1467E+01  0.1082E+02
   6.800  0.1512E+01  0.1084E+02
   6.810  0.1559E+01  0.1085E+02
   6.820  0.1606E+01  0.1087E+02
   6.830  0.1654E+01  0.1089E+02
   6.840  0.1704E+01  0.1090E+02
   6.850  0.1754E+01  0.1092E+02
   6.860  0.1804E+01  0.1094E+02
   6.870  0.1855E+01  0.1096E+02
   6.880  0.1906E+01  0.1098E+02
   6.890  0.1956E+01  0.1100E+02
   6.900  0.2006E+01  0.1102E+02
   6.910  0.2055E+01  0.1104E+02
   6.920  0.2104E+01  0.1106E+02
   6.930  0.2150E+01  0.1108E+02
   6.940  0.2195E+01  0.1110E+02
   6.950  0.2237E+01  0.1112E+02
   6.960  0.2277E+01  0.1115E+02
   6.970  0.2313E+01  0.1117E+02
   6.980  0.2347E+01  0.1119E+02
   6.990  0.2376E+01  0.1122E+02
   7.000  0.2401E+01  0.1124E+02
   7.010  0.2423E+01  0.1127E+02
   7.020  0.2439E+01  0.1129E+02
   7.030  0.2451E+01  0.1132E+02
   7.040  0.2458E+01  0.1134E+02
   7.050  0.2460E+01  0.1136E+02
   7.060  0.2458E+01  0.1139E+02
   7.070  0.2450E+01  0.1141E+02
   7.080  0.2437E+01  0.1144E+02
   7.090  0.2419E+01  0.1146E+02
   7.100  0.2396E+01  0.1149E+02
   7.110  0.2369E+01  0.1151E+02
   7.120  0.2337E+01  0.1153E+02
   7.130  0.2302E+01  0.1156E+02
   7.140  0.2263E+01  0.1158E+02
   7.150  0.2222E+01  0.1160E+02
   7.160  0.2178E+01  0.1162E+02
   7.170  0.2133E+01  0.1164E+02
   7.180  0.2088E+01  0.1166E+02
   7.190  0.2042E+01  0.1169E+02
   7.200  0.1998E+01  0.1171E+02
   7.210  0.1955E+01  0.1172E+02
   7.220  0.1915E+01  0.1174E+02
   7.230  0.1878E+01  0.1176E+02
   7.240  0.1845E+01  0.1178E+02
   7.250  0.1815E+01  0.1180E+02
   7.260  0.1791E+01  0.1182E+02
   7.270  0.1771E+01  0.1183E+02
   7.280  0.1756E+01  0.1185E+02
   7.290  0.1746E+01  0.1187E+02
   7.300  0.1740E+01  0.1189E+02
   7.310  0.1738E+01  0.1190E+02
   7.320  0.1740E+01  0.1192E+02
   7.330  0.1745E+01  0.1194E+02
   7.340  0.1753E+01  0.1196E+02
   7.350  0.1763E+01  0.1197E+02
   7.360  0.1775E+01  0.1199E+02
   7.370  0.1787E+01  0.1201E+02
   7.380  0.1801E+01  0.1203E+02
   7.390  0.1814E+01  0.1205E+02
   7.400  0.1828E+01  0.1206E+02
   7.410  0.1843E+01  0.1208E+02
   7.420  0.1857E+01  0.1210E+02
   7.430  0.1873E+01  0.1212E+02
   7.440  0.1889E+01  0.1214E+02
   7.450  0.1906E+01  0.1216E+02
   7.460  0.1925E+01  0.1218E+02
   7.470  0.1946E+01  0.1220E+02
   7.480  0.1970E+01  0.1222E+02
   7.490  0.1997E+01  0.1224E+02
   7.500  0.2027E+01  0.1226E+02
   7.510  0.2061E+01  0.1228E+02
   7.520  0.2098E+01  0.1230E+02
   7.530  0.2140E+01  0.1232E+02
   7.540  0.2184E+01  0.1234E+02
   7.550  0.2232E+01  0.1236E+02
   7.560  0.2282E+01  0.1239E+02
   7.570  0.2334E+01  0.1241E+02
   7.580  0.2387E+01  0.1243E+02
   7.590  0.2440E+01  0.1246E+02
   7.600  0.2492E+01  0.1248E+02
   7.610  0.2541E+01  0.1251E+02
   7.620  0.2588E+01  0.1253E+02
   7.630  0.2630E+01  0.1256E+02
   7.640  0.2667E+01  0.1259E+02
   7.650  0.2699E+01  0.1261E+02
   7.660  0.2725E+01  0.1264E+02
   7.670  0.2745E+01  0.1267E+02
   7.680  0.2758E+01  0.1270E+02
   7.690  0.2765E+01  0.1272E+02
   7.700  0.2766E+01  0.1275E+02
   7.710  0.2762E+01  0.1278E+02
   7.720  0.2753E+01  0.1281E+02
   7.730  0.2741E+01  0.1283E+02
   7.740  0.2725E+01  0.1286E+02
   7.750  0.2708E+01  0.1289E+02
   7.760  0.2690E+01  0.1292E+02
   7.770  0.2671E+01  0.1294E+02
   7.780  0.2653E+01  0.1297E+02
   7.790  0.2636E+01  0.1300E+02
   7.800  0.2621E+01  0.1302E+02
   7.810  0.2607E+01  0.1305E+02
   7.820  0.2596E+01  0.1307E+02
   7.830  0.2586E+01  0.1310E+02
   7.840  0.2579E+01  0.1313E+02
   7.850  0.2573E+01  0.1315E+02
   7.860  0.2569E+01  0.1318E+02
   7.870  0.2565E+01  0.1320E+02
   7.880  0.2561E+01  0.1323E+02
   7.890  0.2557E+01  0.1325E+02
   7.900  0.2553E+01  0.1328E+02
   7.910  0.2547E+01  0.1330E+02
   7.920  0.2540E+01  0.1333E+02
   7.930  0.2530E+01  0.1336E+02
   7.940  0.2519E+01  0.1338E+02
   7.950  0.2506E+01  0.1341E+02
   7.960  0.2491E+01  0.1343E+02
   7.970  0.2473E+01  0.1346E+02
   7.980  0.2454E+01  0.1348E+02
   7.990  0.2434E+01  0.1350E+02
   8.000  0.2413E+01  0.1353E+02
   8.010  0.2391E+01  0.1355E+02
   8.020  0.2369E+01  0.1358E+02
   8.030  0.2347E+01  0.1360E+02
   8.040  0.2325E+01  0.1362E+02
   8.050  0.2304E+01  0.1365E+02
   8.060  0.2284E+01  0.1367E+02
   8.070  0.2264E+01  0.1369E+02
   8.080  0.2245E+01  0.1371E+02
   8.090  0.2227E+01  0.1374E+02
   8.100  0.2209E+01  0.1376E+02
   8.110  0.2191E+01  0.1378E+02
   8.120  0.2172E+01  0.1380E+02
   8.130  0.2154E+01  0.1382E+02
   8.140  0.2134E+01  0.1384E+02
   8.150  0.2114E+01  0.1387E+02
   8.160  0.2093E+01  0.1389E+02
   8.170  0.2071E+01  0.1391E+02
   8.180  0.2047E+01  0.1393E+02
   8.190  0.2023E+01  0.1395E+02
   8.200  0.1999E+01  0.1397E+02
   8.210  0.1974E+01  0.1399E+02
   8.220  0.1950E+01  0.1401E+02
   8.230  0.1926E+01  0.1403E+02
   8.240  0.1904E+01  0.1405E+02
   8.250  0.1883E+01  0.1406E+02
   8.260  0.1865E+01  0.1408E+02
   8.270  0.1849E+01  0.1410E+02
   8.280  0.1836E+01  0.1412E+02
   8.290  0.1826E+01  0.1414E+02
   8.300  0.1820E+01  0.1416E+02
   8.310  0.1816E+01  0.1417E+02
   8.320  0.1817E+01  0.1419E+02
   8.330  0.1820E+01  0.1421E+02
   8.340  0.1827E+01  0.1423E+02
   8.350  0.1837E+01  0.1425E+02
   8.360  0.1850E+01  0.1427E+02
   8.370  0.1865E+01  0.1428E+02
   8.380  0.1884E+01  0.1430E+02
   8.390  0.1905E+01  0.1432E+02
   8.400  0.1928E+01  0.1434E+02
   8.410  0.1954E+01  0.1436E+02
   8.420  0.1982E+01  0.1438E+02
   8.430  0.2012E+01  0.1440E+02
   8.440  0.2044E+01  0.1442E+02
   8.450  0.2078E+01  0.1444E+02
   8.460  0.2113E+01  0.1446E+02
   8.470  0.2149E+01  0.1449E+02
   8.480  0.2186E+01  0.1451E+02
   8.490  0.2222E+01  0.1453E+02
   8.500  0.2258E+01  0.1455E+02
   8.510  0.2292E+01  0.1457E+02
   8.520  0.2325E+01  0.1460E+02
   8.530  0.2356E+01  0.1462E+02
   8.540  0.2383E+01  0.1465E+02
   8.550  0.2408E+01  0.1467E+02
   8.560  0.2428E+01  0.1469E+02
   8.570  0.2444E+01  0.1472E+02
   8.580  0.2455E+01  0.1474E+02
   8.590  0.2461E+01  0.1477E+02
   8.600  0.2463E+01  0.1479E+02
   8.610  0.2460E+01  0.1482E+02
   8.620  0.2451E+01  0.1484E+02
   8.630  0.2438E+01  0.1487E+02
   8.640  0.2421E+01  0.1489E+02
   8.650  0.2401E+01  0.1491E+02
   8.660  0.2377E+01  0.1494E+02
   8.670  0.2350E+01  0.1496E+02
   8.680  0.2321E+01  0.1498E+02
   8.690  0.2291E+01  0.1501E+02
   8.700  0.2260E+01  0.1503E+02
   8.710  0.2229E+01  0.1505E+02
   8.720  0.2198E+01  0.1507E+02
   8.730  0.2169E+01  0.1510E+02
   8.740  0.2141E+01  0.1512E+02
   8.750  0.2115E+01  0.1514E+02
   8.760  0.2091E+01  0.1516E+02
   8.770  0.2070E+01  0.1518E+02
   8.780  0.2050E+01  0.1520E+02
   8.790  0.2033E+01  0.1522E+02
   8.800  0.2018E+01  0.1524E+02
   8.810  0.2005E+01  0.1526E+02
   8.820  0.1993E+01  0.1528E+02
   8.830  0.1983E+01  0.1530E+02
   8.840  0.1975E+01  0.1532E+02
   8.850  0.1967E+01  0.1534E+02
   8.860  0.1960E+01  0.1536E+02
   8.870  0.1955E+01  0.1538E+02
   8.880  0.1950E+01  0.1540E+02
   8.890  0.1946E+01  0.1542E+02
   8.900  0.1944E+01  0.1544E+02
   8.910  0.1943E+01  0.1546E+02
   8.920  0.1943E+01  0.1548E+02
   8.930  0.1945E+01  0.1550E+02
   8.940  0.1949E+01  0.1552E+02
   8.950  0.1955E+01  0.1554E+02
   8.960  0.1962E+01  0.1555E+02
   8.970  0.1972E+01  0.1557E+02
   8.980  0.1984E+01  0.1559E+02
   8.990  0.1997E+01  0.1561E+02
   9.000  0.2012E+01  0.1563E+02
   9.010  0.2028E+01  0.1565E+02
   9.020  0.2045E+01  0.1568E+02
   9.030  0.2062E+01  0.1570E+02
   9.040  0.2079E+01  0.1572E+02
   9.050  0.2095E+01  0.1574E+02
   9.060  0.2109E+01  0.1576E+02
   9.070  0.2121E+01  0.1578E+02
   9.080  0.2131E+01  0.1580E+02
   9.090  0.2137E+01  0.1582E+02
   9.100  0.2140E+01  0.1584E+02
   9.110  0.2138E+01  0.1587E+02
   9.120  0.2133E+01  0.1589E+02
   9.130  0.2123E+01  0.1591E+02
   9.140  0.2109E+01  0.1593E+02
   9.150  0.2091E+01  0.1595E+02
   9.160  0.2069E+01  0.1597E+02
   9.170  0.2044E+01  0.1599E+02
   9.180  0.2015E+01  0.1601E+02
   9.190  0.1985E+01  0.1603E+02
   9.200  0.1953E+01  0.1605E+02
   9.210  0.1920E+01  0.1607E+02
   9.220  0.1886E+01  0.1609E+02
   9.230  0.1853E+01  0.1611E+02
   9.240  0.1821E+01  0.1613E+02
   9.250  0.1790E+01  0.1614E+02
   9.260  0.1760E+01  0.1616E+02
   9.270  0.1733E+01  0.1618E+02
   9.280  0.1709E+01  0.1620E+02
   9.290  0.1686E+01  0.1621E+02
   9.300  0.1667E+01  0.1623E+02
   9.310  0.1649E+01  0.1625E+02
   9.320  0.1635E+01  0.1626E+02
   9.330  0.1622E+01  0.1628E+02
   9.340  0.1613E+01  0.1629E+02
   9.350  0.1605E+01  0.1631E+02
   9.360  0.1599E+01  0.1633E+02
   9.370  0.1595E+01  0.1634E+02
   9.380  0.1593E+01  0.1636E+02
   9.390  0.1593E+01  0.1637E+02
   9.400  0.1594E+01  0.1639E+02
   9.410  0.1597E+01  0.1641E+02
   9.420  0.1602E+01  0.1642E+02
   9.430  0.1608E+01  0.1644E+02
   9.440  0.1615E+01  0.1645E+02
   9.450  0.1624E+01  0.1647E+02
   9.460  0.1633E+01  0.1649E+02
   9.470  0.1644E+01  0.1650E+02
   9.480  0.1655E+01  0.1652E+02
   9.490  0.1667E+01  0.1654E+02
   9.500  0.1679E+01  0.1655E+02
   9.510  0.1691E+01  0.1657E+02
   9.520  0.1703E+01  0.1659E+02
   9.530  0.1715E+01  0.1660E+02
   9.540  0.1727E+01  0.1662E+02
   9.550  0.1738E+01  0.1664E+02
   9.560  0.1749E+01  0.1666E+02
   9.570  0.1759E+01  0.1667E+02
   9.580  0.1768E+01  0.1669E+02
   9.590  0.1778E+01  0.1671E+02
   9.600  0.1787E+01  0.1673E+02
   9.610  0.1795E+01  0.1674E+02
   9.620  0.1804E+01  0.1676E+02
   9.630  0.1813E+01  0.1678E+02
   9.640  0.1823E+01  0.1680E+02
   9.650  0.1834E+01  0.1682E+02
   9.660  0.1846E+01  0.1684E+02
   9.670  0.1860E+01  0.1685E+02
   9.680  0.1875E+01  0.1687E+02
   9.690  0.1893E+01  0.1689E+02
   9.700  0.1914E+01  0.1691E+02
   9.710  0.1937E+01  0.1693E+02
   9.720  0.1962E+01  0.1695E+02
   9.730  0.1991E+01  0.1697E+02
   9.740  0.2022E+01  0.1699E+02
   9.750  0.2056E+01  0.1701E+02
   9.760  0.2092E+01  0.1703E+02
   9.770  0.2130E+01  0.1705E+02
   9.780  0.2170E+01  0.1708E+02
   9.790  0.2212E+01  0.1710E+02
   9.800  0.2254E+01  0.1712E+02
   9.810  0.2296E+01  0.1714E+02
   9.820  0.2339E+01  0.1717E+02
   9.830  0.2381E+01  0.1719E+02
   9.840  0.2422E+01  0.1721E+02
   9.850  0.2462E+01  0.1724E+02
   9.860  0.2501E+01  0.1726E+02
   9.870  0.2537E+01  0.1729E+02
   9.880  0.2571E+01  0.1731E+02
   9.890  0.2602E+01  0.1734E+02
   9.900  0.2631E+01  0.1737E+02
   9.910  0.2656E+01  0.1739E+02
   9.920  0.2678E+01  0.1742E+02
   9.930  0.2696E+01  0.1745E+02
   9.940  0.2711E+01  0.1747E+02
   9.950  0.2721E+01  0.1750E+02
   9.960  0.2728E+01  0.1753E+02
   9.970  0.2731E+01  0.1756E+02
   9.980  0.2729E+01  0.1758E+02
   9.990  0.2724E+01  0.1761E+02
  10.000  0.2714E+01  0.1764E+02
