#  E (eV)   dos(E)     Int dos(E) EFermi =   -1.096 eV
 -10.000  0.3824E+00  0.3824E-02
  -9.990  0.3837E+00  0.7661E-02
  -9.980  0.3880E+00  0.1154E-01
  -9.970  0.3949E+00  0.1549E-01
  -9.960  0.4042E+00  0.1953E-01
  -9.950  0.4156E+00  0.2369E-01
  -9.940  0.4286E+00  0.2797E-01
  -9.930  0.4429E+00  0.3240E-01
  -9.920  0.4578E+00  0.3698E-01
  -9.910  0.4730E+00  0.4171E-01
  -9.900  0.4878E+00  0.4659E-01
  -9.890  0.5019E+00  0.5161E-01
  -9.880  0.5147E+00  0.5675E-01
  -9.870  0.5259E+00  0.6201E-01
  -9.860  0.5352E+00  0.6737E-01
  -9.850  0.5423E+00  0.7279E-01
  -9.840  0.5471E+00  0.7826E-01
  -9.830  0.5495E+00  0.8376E-01
  -9.820  0.5495E+00  0.8925E-01
  -9.810  0.5471E+00  0.9472E-01
  -9.800  0.5425E+00  0.1001E+00
  -9.790  0.5359E+00  0.1055E+00
  -9.780  0.5274E+00  0.1108E+00
  -9.770  0.5175E+00  0.1160E+00
  -9.760  0.5063E+00  0.1210E+00
  -9.750  0.4942E+00  0.1260E+00
  -9.740  0.4815E+00  0.1308E+00
  -9.730  0.4687E+00  0.1355E+00
  -9.720  0.4560E+00  0.1400E+00
  -9.710  0.4438E+00  0.1445E+00
  -9.700  0.4324E+00  0.1488E+00
  -9.690  0.4223E+00  0.1530E+00
  -9.680  0.4137E+00  0.1571E+00
  -9.670  0.4069E+00  0.1612E+00
  -9.660  0.4022E+00  0.1652E+00
  -9.650  0.3999E+00  0.1692E+00
  -9.640  0.4001E+00  0.1732E+00
  -9.630  0.4030E+00  0.1773E+00
  -9.620  0.4086E+00  0.1814E+00
  -9.610  0.4169E+00  0.1855E+00
  -9.600  0.4277E+00  0.1898E+00
  -9.590  0.4408E+00  0.1942E+00
  -9.580  0.4559E+00  0.1988E+00
  -9.570  0.4726E+00  0.2035E+00
  -9.560  0.4903E+00  0.2084E+00
  -9.550  0.5084E+00  0.2135E+00
  -9.540  0.5264E+00  0.2187E+00
  -9.530  0.5435E+00  0.2242E+00
  -9.520  0.5591E+00  0.2298E+00
  -9.510  0.5727E+00  0.2355E+00
  -9.500  0.5836E+00  0.2413E+00
  -9.490  0.5915E+00  0.2472E+00
  -9.480  0.5959E+00  0.2532E+00
  -9.470  0.5968E+00  0.2592E+00
  -9.460  0.5940E+00  0.2651E+00
  -9.450  0.5876E+00  0.2710E+00
  -9.440  0.5780E+00  0.2768E+00
  -9.430  0.5654E+00  0.2824E+00
  -9.420  0.5504E+00  0.2879E+00
  -9.410  0.5335E+00  0.2933E+00
  -9.400  0.5155E+00  0.2984E+00
  -9.390  0.4969E+00  0.3034E+00
  -9.380  0.4784E+00  0.3082E+00
  -9.370  0.4607E+00  0.3128E+00
  -9.360  0.4443E+00  0.3172E+00
  -9.350  0.4299E+00  0.3215E+00
  -9.340  0.4178E+00  0.3257E+00
  -9.330  0.4083E+00  0.3298E+00
  -9.320  0.4016E+00  0.3338E+00
  -9.310  0.3980E+00  0.3378E+00
  -9.300  0.3973E+00  0.3417E+00
  -9.290  0.3996E+00  0.3457E+00
  -9.280  0.4047E+00  0.3498E+00
  -9.270  0.4125E+00  0.3539E+00
  -9.260  0.4226E+00  0.3581E+00
  -9.250  0.4350E+00  0.3625E+00
  -9.240  0.4491E+00  0.3670E+00
  -9.230  0.4648E+00  0.3716E+00
  -9.220  0.4818E+00  0.3765E+00
  -9.210  0.4997E+00  0.3814E+00
  -9.200  0.5181E+00  0.3866E+00
  -9.190  0.5367E+00  0.3920E+00
  -9.180  0.5551E+00  0.3975E+00
  -9.170  0.5729E+00  0.4033E+00
  -9.160  0.5898E+00  0.4092E+00
  -9.150  0.6053E+00  0.4152E+00
  -9.140  0.6191E+00  0.4214E+00
  -9.130  0.6308E+00  0.4277E+00
  -9.120  0.6401E+00  0.4341E+00
  -9.110  0.6467E+00  0.4406E+00
  -9.100  0.6505E+00  0.4471E+00
  -9.090  0.6512E+00  0.4536E+00
  -9.080  0.6489E+00  0.4601E+00
  -9.070  0.6437E+00  0.4665E+00
  -9.060  0.6355E+00  0.4729E+00
  -9.050  0.6248E+00  0.4791E+00
  -9.040  0.6119E+00  0.4853E+00
  -9.030  0.5971E+00  0.4912E+00
  -9.020  0.5810E+00  0.4970E+00
  -9.010  0.5641E+00  0.5027E+00
  -9.000  0.5470E+00  0.5082E+00
  -8.990  0.5302E+00  0.5135E+00
  -8.980  0.5145E+00  0.5186E+00
  -8.970  0.5003E+00  0.5236E+00
  -8.960  0.4881E+00  0.5285E+00
  -8.950  0.4786E+00  0.5333E+00
  -8.940  0.4721E+00  0.5380E+00
  -8.930  0.4690E+00  0.5427E+00
  -8.920  0.4696E+00  0.5474E+00
  -8.910  0.4739E+00  0.5521E+00
  -8.900  0.4822E+00  0.5569E+00
  -8.890  0.4944E+00  0.5619E+00
  -8.880  0.5105E+00  0.5670E+00
  -8.870  0.5300E+00  0.5723E+00
  -8.860  0.5529E+00  0.5778E+00
  -8.850  0.5788E+00  0.5836E+00
  -8.840  0.6070E+00  0.5897E+00
  -8.830  0.6373E+00  0.5960E+00
  -8.820  0.6690E+00  0.6027E+00
  -8.810  0.7015E+00  0.6098E+00
  -8.800  0.7342E+00  0.6171E+00
  -8.790  0.7666E+00  0.6248E+00
  -8.780  0.7981E+00  0.6327E+00
  -8.770  0.8280E+00  0.6410E+00
  -8.760  0.8560E+00  0.6496E+00
  -8.750  0.8815E+00  0.6584E+00
  -8.740  0.9043E+00  0.6674E+00
  -8.730  0.9239E+00  0.6767E+00
  -8.720  0.9402E+00  0.6861E+00
  -8.710  0.9531E+00  0.6956E+00
  -8.700  0.9625E+00  0.7052E+00
  -8.690  0.9684E+00  0.7149E+00
  -8.680  0.9709E+00  0.7246E+00
  -8.670  0.9702E+00  0.7343E+00
  -8.660  0.9666E+00  0.7440E+00
  -8.650  0.9602E+00  0.7536E+00
  -8.640  0.9516E+00  0.7631E+00
  -8.630  0.9410E+00  0.7725E+00
  -8.620  0.9288E+00  0.7818E+00
  -8.610  0.9154E+00  0.7910E+00
  -8.600  0.9013E+00  0.8000E+00
  -8.590  0.8869E+00  0.8089E+00
  -8.580  0.8725E+00  0.8176E+00
  -8.570  0.8586E+00  0.8262E+00
  -8.560  0.8454E+00  0.8346E+00
  -8.550  0.8333E+00  0.8429E+00
  -8.540  0.8225E+00  0.8512E+00
  -8.530  0.8134E+00  0.8593E+00
  -8.520  0.8060E+00  0.8674E+00
  -8.510  0.8006E+00  0.8754E+00
  -8.500  0.7973E+00  0.8833E+00
  -8.490  0.7962E+00  0.8913E+00
  -8.480  0.7973E+00  0.8993E+00
  -8.470  0.8006E+00  0.9073E+00
  -8.460  0.8061E+00  0.9153E+00
  -8.450  0.8137E+00  0.9235E+00
  -8.440  0.8234E+00  0.9317E+00
  -8.430  0.8349E+00  0.9401E+00
  -8.420  0.8480E+00  0.9485E+00
  -8.410  0.8626E+00  0.9572E+00
  -8.400  0.8782E+00  0.9660E+00
  -8.390  0.8946E+00  0.9749E+00
  -8.380  0.9114E+00  0.9840E+00
  -8.370  0.9281E+00  0.9933E+00
  -8.360  0.9444E+00  0.1003E+01
  -8.350  0.9597E+00  0.1012E+01
  -8.340  0.9736E+00  0.1022E+01
  -8.330  0.9859E+00  0.1032E+01
  -8.320  0.9960E+00  0.1042E+01
  -8.310  0.1004E+01  0.1052E+01
  -8.300  0.1009E+01  0.1062E+01
  -8.290  0.1012E+01  0.1072E+01
  -8.280  0.1013E+01  0.1082E+01
  -8.270  0.1011E+01  0.1092E+01
  -8.260  0.1007E+01  0.1102E+01
  -8.250  0.1002E+01  0.1112E+01
  -8.240  0.9954E+00  0.1122E+01
  -8.230  0.9885E+00  0.1132E+01
  -8.220  0.9817E+00  0.1142E+01
  -8.210  0.9755E+00  0.1152E+01
  -8.200  0.9705E+00  0.1162E+01
  -8.190  0.9671E+00  0.1171E+01
  -8.180  0.9659E+00  0.1181E+01
  -8.170  0.9671E+00  0.1191E+01
  -8.160  0.9709E+00  0.1200E+01
  -8.150  0.9773E+00  0.1210E+01
  -8.140  0.9862E+00  0.1220E+01
  -8.130  0.9975E+00  0.1230E+01
  -8.120  0.1011E+01  0.1240E+01
  -8.110  0.1025E+01  0.1250E+01
  -8.100  0.1041E+01  0.1261E+01
  -8.090  0.1057E+01  0.1271E+01
  -8.080  0.1073E+01  0.1282E+01
  -8.070  0.1088E+01  0.1293E+01
  -8.060  0.1102E+01  0.1304E+01
  -8.050  0.1115E+01  0.1315E+01
  -8.040  0.1126E+01  0.1326E+01
  -8.030  0.1134E+01  0.1338E+01
  -8.020  0.1141E+01  0.1349E+01
  -8.010  0.1145E+01  0.1360E+01
  -8.000  0.1148E+01  0.1372E+01
  -7.990  0.1149E+01  0.1383E+01
  -7.980  0.1150E+01  0.1395E+01
  -7.970  0.1150E+01  0.1406E+01
  -7.960  0.1150E+01  0.1418E+01
  -7.950  0.1151E+01  0.1429E+01
  -7.940  0.1152E+01  0.1441E+01
  -7.930  0.1156E+01  0.1453E+01
  -7.920  0.1161E+01  0.1464E+01
  -7.910  0.1168E+01  0.1476E+01
  -7.900  0.1177E+01  0.1488E+01
  -7.890  0.1188E+01  0.1499E+01
  -7.880  0.1200E+01  0.1511E+01
  -7.870  0.1214E+01  0.1524E+01
  -7.860  0.1229E+01  0.1536E+01
  -7.850  0.1244E+01  0.1548E+01
  -7.840  0.1258E+01  0.1561E+01
  -7.830  0.1272E+01  0.1574E+01
  -7.820  0.1285E+01  0.1587E+01
  -7.810  0.1295E+01  0.1599E+01
  -7.800  0.1304E+01  0.1613E+01
  -7.790  0.1310E+01  0.1626E+01
  -7.780  0.1314E+01  0.1639E+01
  -7.770  0.1315E+01  0.1652E+01
  -7.760  0.1314E+01  0.1665E+01
  -7.750  0.1310E+01  0.1678E+01
  -7.740  0.1304E+01  0.1691E+01
  -7.730  0.1296E+01  0.1704E+01
  -7.720  0.1286E+01  0.1717E+01
  -7.710  0.1275E+01  0.1730E+01
  -7.700  0.1263E+01  0.1742E+01
  -7.690  0.1251E+01  0.1755E+01
  -7.680  0.1239E+01  0.1767E+01
  -7.670  0.1226E+01  0.1780E+01
  -7.660  0.1215E+01  0.1792E+01
  -7.650  0.1203E+01  0.1804E+01
  -7.640  0.1193E+01  0.1816E+01
  -7.630  0.1183E+01  0.1827E+01
  -7.620  0.1174E+01  0.1839E+01
  -7.610  0.1166E+01  0.1851E+01
  -7.600  0.1159E+01  0.1862E+01
  -7.590  0.1153E+01  0.1874E+01
  -7.580  0.1147E+01  0.1885E+01
  -7.570  0.1141E+01  0.1897E+01
  -7.560  0.1136E+01  0.1908E+01
  -7.550  0.1131E+01  0.1920E+01
  -7.540  0.1125E+01  0.1931E+01
  -7.530  0.1119E+01  0.1942E+01
  -7.520  0.1113E+01  0.1953E+01
  -7.510  0.1105E+01  0.1964E+01
  -7.500  0.1097E+01  0.1975E+01
  -7.490  0.1087E+01  0.1986E+01
  -7.480  0.1076E+01  0.1997E+01
  -7.470  0.1064E+01  0.2007E+01
  -7.460  0.1051E+01  0.2018E+01
  -7.450  0.1037E+01  0.2028E+01
  -7.440  0.1021E+01  0.2038E+01
  -7.430  0.1005E+01  0.2049E+01
  -7.420  0.9877E+00  0.2058E+01
  -7.410  0.9703E+00  0.2068E+01
  -7.400  0.9528E+00  0.2078E+01
  -7.390  0.9354E+00  0.2087E+01
  -7.380  0.9185E+00  0.2096E+01
  -7.370  0.9023E+00  0.2105E+01
  -7.360  0.8872E+00  0.2114E+01
  -7.350  0.8735E+00  0.2123E+01
  -7.340  0.8614E+00  0.2131E+01
  -7.330  0.8511E+00  0.2140E+01
  -7.320  0.8428E+00  0.2148E+01
  -7.310  0.8366E+00  0.2157E+01
  -7.300  0.8326E+00  0.2165E+01
  -7.290  0.8307E+00  0.2173E+01
  -7.280  0.8310E+00  0.2182E+01
  -7.270  0.8333E+00  0.2190E+01
  -7.260  0.8375E+00  0.2198E+01
  -7.250  0.8435E+00  0.2207E+01
  -7.240  0.8509E+00  0.2215E+01
  -7.230  0.8596E+00  0.2224E+01
  -7.220  0.8693E+00  0.2233E+01
  -7.210  0.8797E+00  0.2241E+01
  -7.200  0.8905E+00  0.2250E+01
  -7.190  0.9014E+00  0.2259E+01
  -7.180  0.9122E+00  0.2268E+01
  -7.170  0.9226E+00  0.2278E+01
  -7.160  0.9322E+00  0.2287E+01
  -7.150  0.9410E+00  0.2296E+01
  -7.140  0.9487E+00  0.2306E+01
  -7.130  0.9551E+00  0.2315E+01
  -7.120  0.9600E+00  0.2325E+01
  -7.110  0.9633E+00  0.2335E+01
  -7.100  0.9650E+00  0.2344E+01
  -7.090  0.9648E+00  0.2354E+01
  -7.080  0.9627E+00  0.2364E+01
  -7.070  0.9588E+00  0.2373E+01
  -7.060  0.9528E+00  0.2383E+01
  -7.050  0.9449E+00  0.2392E+01
  -7.040  0.9351E+00  0.2402E+01
  -7.030  0.9234E+00  0.2411E+01
  -7.020  0.9099E+00  0.2420E+01
  -7.010  0.8949E+00  0.2429E+01
  -7.000  0.8784E+00  0.2438E+01
  -6.990  0.8607E+00  0.2446E+01
  -6.980  0.8423E+00  0.2455E+01
  -6.970  0.8233E+00  0.2463E+01
  -6.960  0.8043E+00  0.2471E+01
  -6.950  0.7857E+00  0.2479E+01
  -6.940  0.7679E+00  0.2486E+01
  -6.930  0.7515E+00  0.2494E+01
  -6.920  0.7369E+00  0.2501E+01
  -6.910  0.7246E+00  0.2509E+01
  -6.900  0.7149E+00  0.2516E+01
  -6.890  0.7083E+00  0.2523E+01
  -6.880  0.7049E+00  0.2530E+01
  -6.870  0.7049E+00  0.2537E+01
  -6.860  0.7084E+00  0.2544E+01
  -6.850  0.7152E+00  0.2551E+01
  -6.840  0.7251E+00  0.2558E+01
  -6.830  0.7378E+00  0.2566E+01
  -6.820  0.7529E+00  0.2573E+01
  -6.810  0.7698E+00  0.2581E+01
  -6.800  0.7879E+00  0.2589E+01
  -6.790  0.8065E+00  0.2597E+01
  -6.780  0.8250E+00  0.2605E+01
  -6.770  0.8425E+00  0.2614E+01
  -6.760  0.8585E+00  0.2622E+01
  -6.750  0.8721E+00  0.2631E+01
  -6.740  0.8830E+00  0.2640E+01
  -6.730  0.8906E+00  0.2649E+01
  -6.720  0.8945E+00  0.2658E+01
  -6.710  0.8945E+00  0.2667E+01
  -6.700  0.8906E+00  0.2675E+01
  -6.690  0.8827E+00  0.2684E+01
  -6.680  0.8711E+00  0.2693E+01
  -6.670  0.8562E+00  0.2702E+01
  -6.660  0.8384E+00  0.2710E+01
  -6.650  0.8184E+00  0.2718E+01
  -6.640  0.7967E+00  0.2726E+01
  -6.630  0.7743E+00  0.2734E+01
  -6.620  0.7518E+00  0.2741E+01
  -6.610  0.7301E+00  0.2749E+01
  -6.600  0.7100E+00  0.2756E+01
  -6.590  0.6922E+00  0.2763E+01
  -6.580  0.6774E+00  0.2769E+01
  -6.570  0.6662E+00  0.2776E+01
  -6.560  0.6588E+00  0.2783E+01
  -6.550  0.6557E+00  0.2789E+01
  -6.540  0.6570E+00  0.2796E+01
  -6.530  0.6626E+00  0.2802E+01
  -6.520  0.6723E+00  0.2809E+01
  -6.510  0.6858E+00  0.2816E+01
  -6.500  0.7026E+00  0.2823E+01
  -6.490  0.7219E+00  0.2830E+01
  -6.480  0.7431E+00  0.2838E+01
  -6.470  0.7653E+00  0.2845E+01
  -6.460  0.7876E+00  0.2853E+01
  -6.450  0.8091E+00  0.2861E+01
  -6.440  0.8290E+00  0.2870E+01
  -6.430  0.8464E+00  0.2878E+01
  -6.420  0.8606E+00  0.2887E+01
  -6.410  0.8709E+00  0.2895E+01
  -6.400  0.8770E+00  0.2904E+01
  -6.390  0.8785E+00  0.2913E+01
  -6.380  0.8754E+00  0.2922E+01
  -6.370  0.8677E+00  0.2930E+01
  -6.360  0.8556E+00  0.2939E+01
  -6.350  0.8397E+00  0.2947E+01
  -6.340  0.8206E+00  0.2956E+01
  -6.330  0.7988E+00  0.2964E+01
  -6.320  0.7753E+00  0.2971E+01
  -6.310  0.7508E+00  0.2979E+01
  -6.300  0.7262E+00  0.2986E+01
  -6.290  0.7023E+00  0.2993E+01
  -6.280  0.6800E+00  0.3000E+01
  -6.270  0.6600E+00  0.3006E+01
  -6.260  0.6428E+00  0.3013E+01
  -6.250  0.6289E+00  0.3019E+01
  -6.240  0.6186E+00  0.3025E+01
  -6.230  0.6122E+00  0.3031E+01
  -6.220  0.6096E+00  0.3038E+01
  -6.210  0.6109E+00  0.3044E+01
  -6.200  0.6157E+00  0.3050E+01
  -6.190  0.6238E+00  0.3056E+01
  -6.180  0.6347E+00  0.3062E+01
  -6.170  0.6479E+00  0.3069E+01
  -6.160  0.6628E+00  0.3076E+01
  -6.150  0.6789E+00  0.3082E+01
  -6.140  0.6956E+00  0.3089E+01
  -6.130  0.7123E+00  0.3096E+01
  -6.120  0.7285E+00  0.3104E+01
  -6.110  0.7436E+00  0.3111E+01
  -6.100  0.7573E+00  0.3119E+01
  -6.090  0.7693E+00  0.3126E+01
  -6.080  0.7793E+00  0.3134E+01
  -6.070  0.7872E+00  0.3142E+01
  -6.060  0.7929E+00  0.3150E+01
  -6.050  0.7964E+00  0.3158E+01
  -6.040  0.7977E+00  0.3166E+01
  -6.030  0.7971E+00  0.3174E+01
  -6.020  0.7948E+00  0.3182E+01
  -6.010  0.7909E+00  0.3190E+01
  -6.000  0.7856E+00  0.3198E+01
  -5.990  0.7794E+00  0.3205E+01
  -5.980  0.7724E+00  0.3213E+01
  -5.970  0.7648E+00  0.3221E+01
  -5.960  0.7570E+00  0.3228E+01
  -5.950  0.7491E+00  0.3236E+01
  -5.940  0.7414E+00  0.3243E+01
  -5.930  0.7340E+00  0.3251E+01
  -5.920  0.7271E+00  0.3258E+01
  -5.910  0.7208E+00  0.3265E+01
  -5.900  0.7150E+00  0.3272E+01
  -5.890  0.7099E+00  0.3279E+01
  -5.880  0.7053E+00  0.3286E+01
  -5.870  0.7013E+00  0.3293E+01
  -5.860  0.6978E+00  0.3300E+01
  -5.850  0.6945E+00  0.3307E+01
  -5.840  0.6914E+00  0.3314E+01
  -5.830  0.6884E+00  0.3321E+01
  -5.820  0.6853E+00  0.3328E+01
  -5.810  0.6820E+00  0.3335E+01
  -5.800  0.6785E+00  0.3342E+01
  -5.790  0.6748E+00  0.3348E+01
  -5.780  0.6708E+00  0.3355E+01
  -5.770  0.6668E+00  0.3362E+01
  -5.760  0.6627E+00  0.3368E+01
  -5.750  0.6589E+00  0.3375E+01
  -5.740  0.6556E+00  0.3381E+01
  -5.730  0.6530E+00  0.3388E+01
  -5.720  0.6513E+00  0.3395E+01
  -5.710  0.6509E+00  0.3401E+01
  -5.700  0.6518E+00  0.3408E+01
  -5.690  0.6544E+00  0.3414E+01
  -5.680  0.6586E+00  0.3421E+01
  -5.670  0.6645E+00  0.3427E+01
  -5.660  0.6721E+00  0.3434E+01
  -5.650  0.6812E+00  0.3441E+01
  -5.640  0.6917E+00  0.3448E+01
  -5.630  0.7031E+00  0.3455E+01
  -5.620  0.7153E+00  0.3462E+01
  -5.610  0.7277E+00  0.3469E+01
  -5.600  0.7400E+00  0.3477E+01
  -5.590  0.7518E+00  0.3484E+01
  -5.580  0.7626E+00  0.3492E+01
  -5.570  0.7720E+00  0.3499E+01
  -5.560  0.7798E+00  0.3507E+01
  -5.550  0.7856E+00  0.3515E+01
  -5.540  0.7892E+00  0.3523E+01
  -5.530  0.7906E+00  0.3531E+01
  -5.520  0.7897E+00  0.3539E+01
  -5.510  0.7866E+00  0.3547E+01
  -5.500  0.7814E+00  0.3555E+01
  -5.490  0.7745E+00  0.3562E+01
  -5.480  0.7660E+00  0.3570E+01
  -5.470  0.7563E+00  0.3577E+01
  -5.460  0.7458E+00  0.3585E+01
  -5.450  0.7349E+00  0.3592E+01
  -5.440  0.7238E+00  0.3600E+01
  -5.430  0.7130E+00  0.3607E+01
  -5.420  0.7026E+00  0.3614E+01
  -5.410  0.6930E+00  0.3621E+01
  -5.400  0.6842E+00  0.3627E+01
  -5.390  0.6765E+00  0.3634E+01
  -5.380  0.6697E+00  0.3641E+01
  -5.370  0.6641E+00  0.3648E+01
  -5.360  0.6594E+00  0.3654E+01
  -5.350  0.6558E+00  0.3661E+01
  -5.340  0.6531E+00  0.3667E+01
  -5.330  0.6513E+00  0.3674E+01
  -5.320  0.6503E+00  0.3680E+01
  -5.310  0.6502E+00  0.3687E+01
  -5.300  0.6510E+00  0.3693E+01
  -5.290  0.6526E+00  0.3700E+01
  -5.280  0.6552E+00  0.3706E+01
  -5.270  0.6588E+00  0.3713E+01
  -5.260  0.6634E+00  0.3720E+01
  -5.250  0.6692E+00  0.3726E+01
  -5.240  0.6760E+00  0.3733E+01
  -5.230  0.6839E+00  0.3740E+01
  -5.220  0.6928E+00  0.3747E+01
  -5.210  0.7025E+00  0.3754E+01
  -5.200  0.7128E+00  0.3761E+01
  -5.190  0.7235E+00  0.3768E+01
  -5.180  0.7342E+00  0.3776E+01
  -5.170  0.7445E+00  0.3783E+01
  -5.160  0.7541E+00  0.3791E+01
  -5.150  0.7625E+00  0.3798E+01
  -5.140  0.7694E+00  0.3806E+01
  -5.130  0.7743E+00  0.3814E+01
  -5.120  0.7769E+00  0.3821E+01
  -5.110  0.7769E+00  0.3829E+01
  -5.100  0.7742E+00  0.3837E+01
  -5.090  0.7686E+00  0.3845E+01
  -5.080  0.7601E+00  0.3852E+01
  -5.070  0.7488E+00  0.3860E+01
  -5.060  0.7348E+00  0.3867E+01
  -5.050  0.7184E+00  0.3874E+01
  -5.040  0.7000E+00  0.3881E+01
  -5.030  0.6799E+00  0.3888E+01
  -5.020  0.6586E+00  0.3895E+01
  -5.010  0.6365E+00  0.3901E+01
  -5.000  0.6141E+00  0.3907E+01
  -4.990  0.5918E+00  0.3913E+01
  -4.980  0.5702E+00  0.3919E+01
  -4.970  0.5496E+00  0.3924E+01
  -4.960  0.5304E+00  0.3929E+01
  -4.950  0.5130E+00  0.3935E+01
  -4.940  0.4976E+00  0.3940E+01
  -4.930  0.4845E+00  0.3944E+01
  -4.920  0.4740E+00  0.3949E+01
  -4.910  0.4661E+00  0.3954E+01
  -4.900  0.4611E+00  0.3958E+01
  -4.890  0.4590E+00  0.3963E+01
  -4.880  0.4599E+00  0.3968E+01
  -4.870  0.4637E+00  0.3972E+01
  -4.860  0.4704E+00  0.3977E+01
  -4.850  0.4800E+00  0.3982E+01
  -4.840  0.4922E+00  0.3987E+01
  -4.830  0.5070E+00  0.3992E+01
  -4.820  0.5240E+00  0.3997E+01
  -4.810  0.5429E+00  0.4002E+01
  -4.800  0.5634E+00  0.4008E+01
  -4.790  0.5851E+00  0.4014E+01
  -4.780  0.6076E+00  0.4020E+01
  -4.770  0.6303E+00  0.4026E+01
  -4.760  0.6529E+00  0.4033E+01
  -4.750  0.6749E+00  0.4040E+01
  -4.740  0.6958E+00  0.4047E+01
  -4.730  0.7151E+00  0.4054E+01
  -4.720  0.7326E+00  0.4061E+01
  -4.710  0.7479E+00  0.4068E+01
  -4.700  0.7608E+00  0.4076E+01
  -4.690  0.7710E+00  0.4084E+01
  -4.680  0.7786E+00  0.4092E+01
  -4.670  0.7835E+00  0.4099E+01
  -4.660  0.7858E+00  0.4107E+01
  -4.650  0.7856E+00  0.4115E+01
  -4.640  0.7832E+00  0.4123E+01
  -4.630  0.7787E+00  0.4131E+01
  -4.620  0.7726E+00  0.4138E+01
  -4.610  0.7651E+00  0.4146E+01
  -4.600  0.7567E+00  0.4154E+01
  -4.590  0.7479E+00  0.4161E+01
  -4.580  0.7389E+00  0.4169E+01
  -4.570  0.7304E+00  0.4176E+01
  -4.560  0.7225E+00  0.4183E+01
  -4.550  0.7159E+00  0.4190E+01
  -4.540  0.7107E+00  0.4197E+01
  -4.530  0.7073E+00  0.4204E+01
  -4.520  0.7058E+00  0.4211E+01
  -4.510  0.7063E+00  0.4219E+01
  -4.500  0.7089E+00  0.4226E+01
  -4.490  0.7133E+00  0.4233E+01
  -4.480  0.7194E+00  0.4240E+01
  -4.470  0.7268E+00  0.4247E+01
  -4.460  0.7350E+00  0.4255E+01
  -4.450  0.7435E+00  0.4262E+01
  -4.440  0.7517E+00  0.4270E+01
  -4.430  0.7589E+00  0.4277E+01
  -4.420  0.7644E+00  0.4285E+01
  -4.410  0.7678E+00  0.4292E+01
  -4.400  0.7684E+00  0.4300E+01
  -4.390  0.7659E+00  0.4308E+01
  -4.380  0.7598E+00  0.4315E+01
  -4.370  0.7502E+00  0.4323E+01
  -4.360  0.7370E+00  0.4330E+01
  -4.350  0.7203E+00  0.4337E+01
  -4.340  0.7006E+00  0.4344E+01
  -4.330  0.6782E+00  0.4351E+01
  -4.320  0.6538E+00  0.4358E+01
  -4.310  0.6281E+00  0.4364E+01
  -4.300  0.6018E+00  0.4370E+01
  -4.290  0.5755E+00  0.4376E+01
  -4.280  0.5501E+00  0.4381E+01
  -4.270  0.5262E+00  0.4387E+01
  -4.260  0.5044E+00  0.4392E+01
  -4.250  0.4851E+00  0.4397E+01
  -4.240  0.4687E+00  0.4401E+01
  -4.230  0.4554E+00  0.4406E+01
  -4.220  0.4453E+00  0.4410E+01
  -4.210  0.4383E+00  0.4415E+01
  -4.200  0.4343E+00  0.4419E+01
  -4.190  0.4329E+00  0.4423E+01
  -4.180  0.4339E+00  0.4428E+01
  -4.170  0.4366E+00  0.4432E+01
  -4.160  0.4408E+00  0.4436E+01
  -4.150  0.4458E+00  0.4441E+01
  -4.140  0.4511E+00  0.4445E+01
  -4.130  0.4562E+00  0.4450E+01
  -4.120  0.4608E+00  0.4455E+01
  -4.110  0.4644E+00  0.4459E+01
  -4.100  0.4666E+00  0.4464E+01
  -4.090  0.4674E+00  0.4468E+01
  -4.080  0.4664E+00  0.4473E+01
  -4.070  0.4637E+00  0.4478E+01
  -4.060  0.4594E+00  0.4482E+01
  -4.050  0.4535E+00  0.4487E+01
  -4.040  0.4462E+00  0.4491E+01
  -4.030  0.4379E+00  0.4496E+01
  -4.020  0.4288E+00  0.4500E+01
  -4.010  0.4192E+00  0.4504E+01
  -4.000  0.4096E+00  0.4508E+01
  -3.990  0.4001E+00  0.4512E+01
  -3.980  0.3910E+00  0.4516E+01
  -3.970  0.3828E+00  0.4520E+01
  -3.960  0.3754E+00  0.4524E+01
  -3.950  0.3690E+00  0.4528E+01
  -3.940  0.3637E+00  0.4531E+01
  -3.930  0.3595E+00  0.4535E+01
  -3.920  0.3563E+00  0.4538E+01
  -3.910  0.3539E+00  0.4542E+01
  -3.900  0.3522E+00  0.4545E+01
  -3.890  0.3511E+00  0.4549E+01
  -3.880  0.3502E+00  0.4552E+01
  -3.870  0.3494E+00  0.4556E+01
  -3.860  0.3484E+00  0.4559E+01
  -3.850  0.3472E+00  0.4563E+01
  -3.840  0.3455E+00  0.4566E+01
  -3.830  0.3431E+00  0.4570E+01
  -3.820  0.3401E+00  0.4573E+01
  -3.810  0.3363E+00  0.4576E+01
  -3.800  0.3316E+00  0.4580E+01
  -3.790  0.3261E+00  0.4583E+01
  -3.780  0.3198E+00  0.4586E+01
  -3.770  0.3127E+00  0.4589E+01
  -3.760  0.3049E+00  0.4592E+01
  -3.750  0.2962E+00  0.4595E+01
  -3.740  0.2869E+00  0.4598E+01
  -3.730  0.2770E+00  0.4601E+01
  -3.720  0.2664E+00  0.4604E+01
  -3.710  0.2553E+00  0.4606E+01
  -3.700  0.2437E+00  0.4609E+01
  -3.690  0.2316E+00  0.4611E+01
  -3.680  0.2191E+00  0.4613E+01
  -3.670  0.2063E+00  0.4615E+01
  -3.660  0.1932E+00  0.4617E+01
  -3.650  0.1800E+00  0.4619E+01
  -3.640  0.1666E+00  0.4621E+01
  -3.630  0.1533E+00  0.4622E+01
  -3.620  0.1401E+00  0.4624E+01
  -3.610  0.1272E+00  0.4625E+01
  -3.600  0.1147E+00  0.4626E+01
  -3.590  0.1026E+00  0.4627E+01
  -3.580  0.9106E-01  0.4628E+01
  -3.570  0.8019E-01  0.4629E+01
  -3.560  0.7005E-01  0.4629E+01
  -3.550  0.6068E-01  0.4630E+01
  -3.540  0.5211E-01  0.4631E+01
  -3.530  0.4437E-01  0.4631E+01
  -3.520  0.3744E-01  0.4631E+01
  -3.510  0.3131E-01  0.4632E+01
  -3.500  0.2595E-01  0.4632E+01
  -3.490  0.2131E-01  0.4632E+01
  -3.480  0.1734E-01  0.4632E+01
  -3.470  0.1397E-01  0.4633E+01
  -3.460  0.1116E-01  0.4633E+01
  -3.450  0.8825E-02  0.4633E+01
  -3.440  0.6914E-02  0.4633E+01
  -3.430  0.5365E-02  0.4633E+01
  -3.420  0.4123E-02  0.4633E+01
  -3.410  0.3138E-02  0.4633E+01
  -3.400  0.2366E-02  0.4633E+01
  -3.390  0.1766E-02  0.4633E+01
  -3.380  0.1306E-02  0.4633E+01
  -3.370  0.9559E-03  0.4633E+01
  -3.360  0.6930E-03  0.4633E+01
  -3.350  0.4975E-03  0.4633E+01
  -3.340  0.3537E-03  0.4633E+01
  -3.330  0.2490E-03  0.4633E+01
  -3.320  0.1735E-03  0.4633E+01
  -3.310  0.1198E-03  0.4633E+01
  -3.300  0.8185E-04  0.4633E+01
  -3.290  0.5538E-04  0.4633E+01
  -3.280  0.3711E-04  0.4633E+01
  -3.270  0.2461E-04  0.4633E+01
  -3.260  0.1617E-04  0.4633E+01
  -3.250  0.1051E-04  0.4633E+01
  -3.240  0.6767E-05  0.4633E+01
  -3.230  0.4313E-05  0.4633E+01
  -3.220  0.2722E-05  0.4633E+01
  -3.210  0.1700E-05  0.4633E+01
  -3.200  0.1051E-05  0.4633E+01
  -3.190  0.6437E-06  0.4633E+01
  -3.180  0.3902E-06  0.4633E+01
  -3.170  0.2341E-06  0.4633E+01
  -3.160  0.1390E-06  0.4633E+01
  -3.150  0.8173E-07  0.4633E+01
  -3.140  0.4757E-07  0.4633E+01
  -3.130  0.2740E-07  0.4633E+01
  -3.120  0.1562E-07  0.4633E+01
  -3.110  0.8817E-08  0.4633E+01
  -3.100  0.4926E-08  0.4633E+01
  -3.090  0.2723E-08  0.4633E+01
  -3.080  0.1490E-08  0.4633E+01
  -3.070  0.8072E-09  0.4633E+01
  -3.060  0.4327E-09  0.4633E+01
  -3.050  0.2296E-09  0.4633E+01
  -3.040  0.1205E-09  0.4633E+01
  -3.030  0.6264E-10  0.4633E+01
  -3.020  0.3221E-10  0.4633E+01
  -3.010  0.1639E-10  0.4633E+01
  -3.000  0.8257E-11  0.4633E+01
  -2.990  0.4115E-11  0.4633E+01
  -2.980  0.2030E-11  0.4633E+01
  -2.970  0.9907E-12  0.4633E+01
  -2.960  0.4785E-12  0.4633E+01
  -2.950  0.2287E-12  0.4633E+01
  -2.940  0.1082E-12  0.4633E+01
  -2.930  0.5061E-13  0.4633E+01
  -2.920  0.2344E-13  0.4633E+01
  -2.910  0.1074E-13  0.4633E+01
  -2.900  0.4869E-14  0.4633E+01
  -2.890  0.2184E-14  0.4633E+01
  -2.880  0.9695E-15  0.4633E+01
  -2.870  0.4258E-15  0.4633E+01
  -2.860  0.1850E-15  0.4633E+01
  -2.850  0.7956E-16  0.4633E+01
  -2.840  0.3385E-16  0.4633E+01
  -2.830  0.1425E-16  0.4633E+01
  -2.820  0.5933E-17  0.4633E+01
  -2.810  0.2445E-17  0.4633E+01
  -2.800  0.9967E-18  0.4633E+01
  -2.790  0.4020E-18  0.4633E+01
  -2.780  0.1604E-18  0.4633E+01
  -2.770  0.6334E-19  0.4633E+01
  -2.760  0.2474E-19  0.4633E+01
  -2.750  0.9562E-20  0.4633E+01
  -2.740  0.3656E-20  0.4633E+01
  -2.730  0.1383E-20  0.4633E+01
  -2.720  0.5176E-21  0.4633E+01
  -2.710  0.1917E-21  0.4633E+01
  -2.700  0.7021E-22  0.4633E+01
  -2.690  0.2544E-22  0.4633E+01
  -2.680  0.9123E-23  0.4633E+01
  -2.670  0.3236E-23  0.4633E+01
  -2.660  0.1136E-23  0.4633E+01
  -2.650  0.3943E-24  0.4633E+01
  -2.640  0.1354E-24  0.4633E+01
  -2.630  0.4601E-25  0.4633E+01
  -2.620  0.1547E-25  0.4633E+01
  -2.610  0.5144E-26  0.4633E+01
  -2.600  0.1692E-26  0.4633E+01
  -2.590  0.5509E-27  0.4633E+01
  -2.580  0.1774E-27  0.4633E+01
  -2.570  0.5650E-28  0.4633E+01
  -2.560  0.1781E-28  0.4633E+01
  -2.550  0.5552E-29  0.4633E+01
  -2.540  0.1712E-29  0.4633E+01
  -2.530  0.5225E-30  0.4633E+01
  -2.520  0.1577E-30  0.4633E+01
  -2.510  0.4709E-31  0.4633E+01
  -2.500  0.1391E-31  0.4633E+01
  -2.490  0.4066E-32  0.4633E+01
  -2.480  0.1176E-32  0.4633E+01
  -2.470  0.3362E-33  0.4633E+01
  -2.460  0.9514E-34  0.4633E+01
  -2.450  0.2663E-34  0.4633E+01
  -2.440  0.7374E-35  0.4633E+01
  -2.430  0.2020E-35  0.4633E+01
  -2.420  0.5475E-36  0.4633E+01
  -2.410  0.1468E-36  0.4633E+01
  -2.400  0.3893E-37  0.4633E+01
  -2.390  0.1021E-37  0.4633E+01
  -2.380  0.2651E-38  0.4633E+01
  -2.370  0.6807E-39  0.4633E+01
  -2.360  0.1729E-39  0.4633E+01
  -2.350  0.4345E-40  0.4633E+01
  -2.340  0.1080E-40  0.4633E+01
  -2.330  0.2656E-41  0.4633E+01
  -2.320  0.6462E-42  0.4633E+01
  -2.310  0.1555E-42  0.4633E+01
  -2.300  0.3703E-43  0.4633E+01
  -2.290  0.8721E-44  0.4633E+01
  -2.280  0.2032E-44  0.4633E+01
  -2.270  0.4684E-45  0.4633E+01
  -2.260  0.1068E-45  0.4633E+01
  -2.250  0.2409E-46  0.4633E+01
  -2.240  0.5376E-47  0.4633E+01
  -2.230  0.1187E-47  0.4633E+01
  -2.220  0.2592E-48  0.4633E+01
  -2.210  0.5599E-49  0.4633E+01
  -2.200  0.1197E-49  0.4633E+01
  -2.190  0.2530E-50  0.4633E+01
  -2.180  0.5291E-51  0.4633E+01
  -2.170  0.1095E-51  0.4633E+01
  -2.160  0.2241E-52  0.4633E+01
  -2.150  0.4537E-53  0.4633E+01
  -2.140  0.9089E-54  0.4633E+01
  -2.130  0.1801E-54  0.4633E+01
  -2.120  0.3530E-55  0.4633E+01
  -2.110  0.6846E-56  0.4633E+01
  -2.100  0.1313E-56  0.4633E+01
  -2.090  0.2493E-57  0.4633E+01
  -2.080  0.4679E-58  0.4633E+01
  -2.070  0.8691E-59  0.4633E+01
  -2.060  0.1597E-59  0.4633E+01
  -2.050  0.2902E-60  0.4633E+01
  -2.040  0.5218E-61  0.4633E+01
  -2.030  0.9281E-62  0.4633E+01
  -2.020  0.1633E-62  0.4633E+01
  -2.010  0.2843E-63  0.4633E+01
  -2.000  0.4895E-64  0.4633E+01
  -1.990  0.8338E-65  0.4633E+01
  -1.980  0.1405E-65  0.4633E+01
  -1.970  0.2342E-66  0.4633E+01
  -1.960  0.3863E-67  0.4633E+01
  -1.950  0.6302E-68  0.4633E+01
  -1.940  0.1017E-68  0.4633E+01
  -1.930  0.1624E-69  0.4633E+01
  -1.920  0.2565E-70  0.4633E+01
  -1.910  0.4007E-71  0.4633E+01
  -1.900  0.6193E-72  0.4633E+01
  -1.890  0.9470E-73  0.4633E+01
  -1.880  0.1432E-73  0.4633E+01
  -1.870  0.2143E-74  0.4633E+01
  -1.860  0.3173E-75  0.4633E+01
  -1.850  0.4646E-76  0.4633E+01
  -1.840  0.6730E-77  0.4633E+01
  -1.830  0.9645E-78  0.4633E+01
  -1.820  0.1367E-78  0.4633E+01
  -1.810  0.1918E-79  0.4633E+01
  -1.800  0.2660E-80  0.4633E+01
  -1.790  0.3652E-81  0.4633E+01
  -1.780  0.4966E-82  0.4633E+01
  -1.770  0.6750E-83  0.4633E+01
  -1.760  0.9763E-84  0.4633E+01
  -1.750  0.2081E-84  0.4633E+01
  -1.740  0.1069E-84  0.4633E+01
  -1.730  0.9374E-85  0.4633E+01
  -1.720  0.9204E-85  0.4633E+01
  -1.710  0.9182E-85  0.4633E+01
  -1.700  0.9182E-85  0.4633E+01
  -1.690  0.9182E-85  0.4633E+01
  -1.680  0.9182E-85  0.4633E+01
  -1.670  0.9182E-85  0.4633E+01
  -1.660  0.9182E-85  0.4633E+01
  -1.650  0.9182E-85  0.4633E+01
  -1.640  0.9182E-85  0.4633E+01
  -1.630  0.9182E-85  0.4633E+01
  -1.620  0.9182E-85  0.4633E+01
  -1.610  0.9182E-85  0.4633E+01
  -1.600  0.9182E-85  0.4633E+01
  -1.590  0.9182E-85  0.4633E+01
  -1.580  0.9182E-85  0.4633E+01
  -1.570  0.9182E-85  0.4633E+01
  -1.560  0.9182E-85  0.4633E+01
  -1.550  0.9182E-85  0.4633E+01
  -1.540  0.9182E-85  0.4633E+01
  -1.530  0.9182E-85  0.4633E+01
  -1.520  0.9182E-85  0.4633E+01
  -1.510  0.9182E-85  0.4633E+01
  -1.500  0.9182E-85  0.4633E+01
  -1.490  0.9182E-85  0.4633E+01
  -1.480  0.9182E-85  0.4633E+01
  -1.470  0.9182E-85  0.4633E+01
  -1.460  0.9182E-85  0.4633E+01
  -1.450  0.9182E-85  0.4633E+01
  -1.440  0.9182E-85  0.4633E+01
  -1.430  0.9182E-85  0.4633E+01
  -1.420  0.9182E-85  0.4633E+01
  -1.410  0.9182E-85  0.4633E+01
  -1.400  0.9182E-85  0.4633E+01
  -1.390  0.9182E-85  0.4633E+01
  -1.380  0.9182E-85  0.4633E+01
  -1.370  0.9182E-85  0.4633E+01
  -1.360  0.9182E-85  0.4633E+01
  -1.350  0.9182E-85  0.4633E+01
  -1.340  0.9182E-85  0.4633E+01
  -1.330  0.9182E-85  0.4633E+01
  -1.320  0.9182E-85  0.4633E+01
  -1.310  0.9182E-85  0.4633E+01
  -1.300  0.9182E-85  0.4633E+01
  -1.290  0.9182E-85  0.4633E+01
  -1.280  0.9182E-85  0.4633E+01
  -1.270  0.9182E-85  0.4633E+01
  -1.260  0.9182E-85  0.4633E+01
  -1.250  0.9182E-85  0.4633E+01
  -1.240  0.9182E-85  0.4633E+01
  -1.230  0.9182E-85  0.4633E+01
  -1.220  0.9182E-85  0.4633E+01
  -1.210  0.9182E-85  0.4633E+01
  -1.200  0.9182E-85  0.4633E+01
  -1.190  0.9182E-85  0.4633E+01
  -1.180  0.9182E-85  0.4633E+01
  -1.170  0.9183E-85  0.4633E+01
  -1.160  0.9200E-85  0.4633E+01
  -1.150  0.9331E-85  0.4633E+01
  -1.140  0.1035E-84  0.4633E+01
  -1.130  0.1814E-84  0.4633E+01
  -1.120  0.7722E-84  0.4633E+01
  -1.110  0.5202E-83  0.4633E+01
  -1.100  0.3806E-82  0.4633E+01
  -1.090  0.2791E-81  0.4633E+01
  -1.080  0.2029E-80  0.4633E+01
  -1.070  0.1459E-79  0.4633E+01
  -1.060  0.1038E-78  0.4633E+01
  -1.050  0.7308E-78  0.4633E+01
  -1.040  0.5089E-77  0.4633E+01
  -1.030  0.3505E-76  0.4633E+01
  -1.020  0.2389E-75  0.4633E+01
  -1.010  0.1610E-74  0.4633E+01
  -1.000  0.1074E-73  0.4633E+01
  -0.990  0.7085E-73  0.4633E+01
  -0.980  0.4624E-72  0.4633E+01
  -0.970  0.2985E-71  0.4633E+01
  -0.960  0.1907E-70  0.4633E+01
  -0.950  0.1205E-69  0.4633E+01
  -0.940  0.7531E-69  0.4633E+01
  -0.930  0.4657E-68  0.4633E+01
  -0.920  0.2849E-67  0.4633E+01
  -0.910  0.1724E-66  0.4633E+01
  -0.900  0.1032E-65  0.4633E+01
  -0.890  0.6111E-65  0.4633E+01
  -0.880  0.3581E-64  0.4633E+01
  -0.870  0.2075E-63  0.4633E+01
  -0.860  0.1190E-62  0.4633E+01
  -0.850  0.6749E-62  0.4633E+01
  -0.840  0.3787E-61  0.4633E+01
  -0.830  0.2102E-60  0.4633E+01
  -0.820  0.1154E-59  0.4633E+01
  -0.810  0.6271E-59  0.4633E+01
  -0.800  0.3370E-58  0.4633E+01
  -0.790  0.1792E-57  0.4633E+01
  -0.780  0.9424E-57  0.4633E+01
  -0.770  0.4903E-56  0.4633E+01
  -0.760  0.2524E-55  0.4633E+01
  -0.750  0.1285E-54  0.4633E+01
  -0.740  0.6474E-54  0.4633E+01
  -0.730  0.3226E-53  0.4633E+01
  -0.720  0.1591E-52  0.4633E+01
  -0.710  0.7758E-52  0.4633E+01
  -0.700  0.3743E-51  0.4633E+01
  -0.690  0.1787E-50  0.4633E+01
  -0.680  0.8436E-50  0.4633E+01
  -0.670  0.3941E-49  0.4633E+01
  -0.660  0.1821E-48  0.4633E+01
  -0.650  0.8326E-48  0.4633E+01
  -0.640  0.3766E-47  0.4633E+01
  -0.630  0.1685E-46  0.4633E+01
  -0.620  0.7458E-46  0.4633E+01
  -0.610  0.3266E-45  0.4633E+01
  -0.600  0.1415E-44  0.4633E+01
  -0.590  0.6063E-44  0.4633E+01
  -0.580  0.2571E-43  0.4633E+01
  -0.570  0.1078E-42  0.4633E+01
  -0.560  0.4474E-42  0.4633E+01
  -0.550  0.1837E-41  0.4633E+01
  -0.540  0.7459E-41  0.4633E+01
  -0.530  0.2997E-40  0.4633E+01
  -0.520  0.1191E-39  0.4633E+01
  -0.510  0.4684E-39  0.4633E+01
  -0.500  0.1822E-38  0.4633E+01
  -0.490  0.7013E-38  0.4633E+01
  -0.480  0.2670E-37  0.4633E+01
  -0.470  0.1006E-36  0.4633E+01
  -0.460  0.3748E-36  0.4633E+01
  -0.450  0.1382E-35  0.4633E+01
  -0.440  0.5040E-35  0.4633E+01
  -0.430  0.1819E-34  0.4633E+01
  -0.420  0.6492E-34  0.4633E+01
  -0.410  0.2293E-33  0.4633E+01
  -0.400  0.8012E-33  0.4633E+01
  -0.390  0.2770E-32  0.4633E+01
  -0.380  0.9472E-32  0.4633E+01
  -0.370  0.3205E-31  0.4633E+01
  -0.360  0.1073E-30  0.4633E+01
  -0.350  0.3553E-30  0.4633E+01
  -0.340  0.1164E-29  0.4633E+01
  -0.330  0.3773E-29  0.4633E+01
  -0.320  0.1210E-28  0.4633E+01
  -0.310  0.3840E-28  0.4633E+01
  -0.300  0.1205E-27  0.4633E+01
  -0.290  0.3744E-27  0.4633E+01
  -0.280  0.1150E-26  0.4633E+01
  -0.270  0.3497E-26  0.4633E+01
  -0.260  0.1052E-25  0.4633E+01
  -0.250  0.3131E-25  0.4633E+01
  -0.240  0.9218E-25  0.4633E+01
  -0.230  0.2685E-24  0.4633E+01
  -0.220  0.7739E-24  0.4633E+01
  -0.210  0.2207E-23  0.4633E+01
  -0.200  0.6227E-23  0.4633E+01
  -0.190  0.1738E-22  0.4633E+01
  -0.180  0.4801E-22  0.4633E+01
  -0.170  0.1312E-21  0.4633E+01
  -0.160  0.3548E-21  0.4633E+01
  -0.150  0.9491E-21  0.4633E+01
  -0.140  0.2512E-20  0.4633E+01
  -0.130  0.6580E-20  0.4633E+01
  -0.120  0.1705E-19  0.4633E+01
  -0.110  0.4373E-19  0.4633E+01
  -0.100  0.1109E-18  0.4633E+01
  -0.090  0.2785E-18  0.4633E+01
  -0.080  0.6918E-18  0.4633E+01
  -0.070  0.1700E-17  0.4633E+01
  -0.060  0.4135E-17  0.4633E+01
  -0.050  0.9950E-17  0.4633E+01
  -0.040  0.2369E-16  0.4633E+01
  -0.030  0.5582E-16  0.4633E+01
  -0.020  0.1301E-15  0.4633E+01
  -0.010  0.3002E-15  0.4633E+01
   0.000  0.6853E-15  0.4633E+01
   0.010  0.1548E-14  0.4633E+01
   0.020  0.3460E-14  0.4633E+01
   0.030  0.7653E-14  0.4633E+01
   0.040  0.1675E-13  0.4633E+01
   0.050  0.3628E-13  0.4633E+01
   0.060  0.7775E-13  0.4633E+01
   0.070  0.1649E-12  0.4633E+01
   0.080  0.3461E-12  0.4633E+01
   0.090  0.7188E-12  0.4633E+01
   0.100  0.1477E-11  0.4633E+01
   0.110  0.3005E-11  0.4633E+01
   0.120  0.6047E-11  0.4633E+01
   0.130  0.1204E-10  0.4633E+01
   0.140  0.2374E-10  0.4633E+01
   0.150  0.4631E-10  0.4633E+01
   0.160  0.8940E-10  0.4633E+01
   0.170  0.1708E-09  0.4633E+01
   0.180  0.3229E-09  0.4633E+01
   0.190  0.6041E-09  0.4633E+01
   0.200  0.1119E-08  0.4633E+01
   0.210  0.2050E-08  0.4633E+01
   0.220  0.3718E-08  0.4633E+01
   0.230  0.6672E-08  0.4633E+01
   0.240  0.1185E-07  0.4633E+01
   0.250  0.2084E-07  0.4633E+01
   0.260  0.3625E-07  0.4633E+01
   0.270  0.6243E-07  0.4633E+01
   0.280  0.1064E-06  0.4633E+01
   0.290  0.1794E-06  0.4633E+01
   0.300  0.2996E-06  0.4633E+01
   0.310  0.4950E-06  0.4633E+01
   0.320  0.8094E-06  0.4633E+01
   0.330  0.1310E-05  0.4633E+01
   0.340  0.2099E-05  0.4633E+01
   0.350  0.3328E-05  0.4633E+01
   0.360  0.5222E-05  0.4633E+01
   0.370  0.8112E-05  0.4633E+01
   0.380  0.1247E-04  0.4633E+01
   0.390  0.1898E-04  0.4633E+01
   0.400  0.2860E-04  0.4633E+01
   0.410  0.4264E-04  0.4633E+01
   0.420  0.6295E-04  0.4633E+01
   0.430  0.9197E-04  0.4633E+01
   0.440  0.1330E-03  0.4633E+01
   0.450  0.1905E-03  0.4633E+01
   0.460  0.2700E-03  0.4633E+01
   0.470  0.3790E-03  0.4633E+01
   0.480  0.5265E-03  0.4633E+01
   0.490  0.7242E-03  0.4633E+01
   0.500  0.9864E-03  0.4633E+01
   0.510  0.1330E-02  0.4633E+01
   0.520  0.1776E-02  0.4633E+01
   0.530  0.2349E-02  0.4633E+01
   0.540  0.3075E-02  0.4633E+01
   0.550  0.3988E-02  0.4633E+01
   0.560  0.5123E-02  0.4633E+01
   0.570  0.6517E-02  0.4633E+01
   0.580  0.8212E-02  0.4633E+01
   0.590  0.1025E-01  0.4633E+01
   0.600  0.1268E-01  0.4634E+01
   0.610  0.1554E-01  0.4634E+01
   0.620  0.1886E-01  0.4634E+01
   0.630  0.2270E-01  0.4634E+01
   0.640  0.2707E-01  0.4634E+01
   0.650  0.3201E-01  0.4635E+01
   0.660  0.3751E-01  0.4635E+01
   0.670  0.4359E-01  0.4636E+01
   0.680  0.5023E-01  0.4636E+01
   0.690  0.5740E-01  0.4637E+01
   0.700  0.6507E-01  0.4637E+01
   0.710  0.7319E-01  0.4638E+01
   0.720  0.8168E-01  0.4639E+01
   0.730  0.9048E-01  0.4640E+01
   0.740  0.9949E-01  0.4641E+01
   0.750  0.1086E+00  0.4642E+01
   0.760  0.1178E+00  0.4643E+01
   0.770  0.1269E+00  0.4644E+01
   0.780  0.1359E+00  0.4646E+01
   0.790  0.1446E+00  0.4647E+01
   0.800  0.1531E+00  0.4649E+01
   0.810  0.1612E+00  0.4650E+01
   0.820  0.1689E+00  0.4652E+01
   0.830  0.1762E+00  0.4654E+01
   0.840  0.1832E+00  0.4655E+01
   0.850  0.1898E+00  0.4657E+01
   0.860  0.1962E+00  0.4659E+01
   0.870  0.2023E+00  0.4661E+01
   0.880  0.2085E+00  0.4663E+01
   0.890  0.2147E+00  0.4666E+01
   0.900  0.2211E+00  0.4668E+01
   0.910  0.2279E+00  0.4670E+01
   0.920  0.2354E+00  0.4672E+01
   0.930  0.2437E+00  0.4675E+01
   0.940  0.2530E+00  0.4677E+01
   0.950  0.2636E+00  0.4680E+01
   0.960  0.2758E+00  0.4683E+01
   0.970  0.2897E+00  0.4686E+01
   0.980  0.3057E+00  0.4689E+01
   0.990  0.3241E+00  0.4692E+01
   1.000  0.3450E+00  0.4695E+01
   1.010  0.3689E+00  0.4699E+01
   1.020  0.3959E+00  0.4703E+01
   1.030  0.4262E+00  0.4707E+01
   1.040  0.4601E+00  0.4712E+01
   1.050  0.4976E+00  0.4717E+01
   1.060  0.5389E+00  0.4722E+01
   1.070  0.5839E+00  0.4728E+01
   1.080  0.6325E+00  0.4734E+01
   1.090  0.6846E+00  0.4741E+01
   1.100  0.7396E+00  0.4749E+01
   1.110  0.7972E+00  0.4757E+01
   1.120  0.8568E+00  0.4765E+01
   1.130  0.9177E+00  0.4774E+01
   1.140  0.9790E+00  0.4784E+01
   1.150  0.1040E+01  0.4795E+01
   1.160  0.1099E+01  0.4806E+01
   1.170  0.1156E+01  0.4817E+01
   1.180  0.1210E+01  0.4829E+01
   1.190  0.1259E+01  0.4842E+01
   1.200  0.1304E+01  0.4855E+01
   1.210  0.1343E+01  0.4868E+01
   1.220  0.1375E+01  0.4882E+01
   1.230  0.1401E+01  0.4896E+01
   1.240  0.1420E+01  0.4910E+01
   1.250  0.1433E+01  0.4925E+01
   1.260  0.1439E+01  0.4939E+01
   1.270  0.1439E+01  0.4953E+01
   1.280  0.1434E+01  0.4968E+01
   1.290  0.1424E+01  0.4982E+01
   1.300  0.1410E+01  0.4996E+01
   1.310  0.1392E+01  0.5010E+01
   1.320  0.1372E+01  0.5024E+01
   1.330  0.1350E+01  0.5037E+01
   1.340  0.1327E+01  0.5051E+01
   1.350  0.1303E+01  0.5064E+01
   1.360  0.1278E+01  0.5076E+01
   1.370  0.1254E+01  0.5089E+01
   1.380  0.1230E+01  0.5101E+01
   1.390  0.1207E+01  0.5113E+01
   1.400  0.1183E+01  0.5125E+01
   1.410  0.1160E+01  0.5137E+01
   1.420  0.1137E+01  0.5148E+01
   1.430  0.1113E+01  0.5159E+01
   1.440  0.1089E+01  0.5170E+01
   1.450  0.1065E+01  0.5181E+01
   1.460  0.1040E+01  0.5191E+01
   1.470  0.1015E+01  0.5201E+01
   1.480  0.9903E+00  0.5211E+01
   1.490  0.9653E+00  0.5221E+01
   1.500  0.9408E+00  0.5230E+01
   1.510  0.9171E+00  0.5239E+01
   1.520  0.8947E+00  0.5248E+01
   1.530  0.8740E+00  0.5257E+01
   1.540  0.8556E+00  0.5266E+01
   1.550  0.8397E+00  0.5274E+01
   1.560  0.8266E+00  0.5282E+01
   1.570  0.8165E+00  0.5290E+01
   1.580  0.8094E+00  0.5299E+01
   1.590  0.8052E+00  0.5307E+01
   1.600  0.8037E+00  0.5315E+01
   1.610  0.8046E+00  0.5323E+01
   1.620  0.8074E+00  0.5331E+01
   1.630  0.8115E+00  0.5339E+01
   1.640  0.8164E+00  0.5347E+01
   1.650  0.8216E+00  0.5355E+01
   1.660  0.8264E+00  0.5364E+01
   1.670  0.8305E+00  0.5372E+01
   1.680  0.8335E+00  0.5380E+01
   1.690  0.8351E+00  0.5389E+01
   1.700  0.8351E+00  0.5397E+01
   1.710  0.8336E+00  0.5405E+01
   1.720  0.8306E+00  0.5414E+01
   1.730  0.8264E+00  0.5422E+01
   1.740  0.8212E+00  0.5430E+01
   1.750  0.8154E+00  0.5438E+01
   1.760  0.8095E+00  0.5446E+01
   1.770  0.8036E+00  0.5454E+01
   1.780  0.7983E+00  0.5462E+01
   1.790  0.7938E+00  0.5470E+01
   1.800  0.7904E+00  0.5478E+01
   1.810  0.7881E+00  0.5486E+01
   1.820  0.7870E+00  0.5494E+01
   1.830  0.7872E+00  0.5502E+01
   1.840  0.7886E+00  0.5510E+01
   1.850  0.7910E+00  0.5518E+01
   1.860  0.7943E+00  0.5525E+01
   1.870  0.7982E+00  0.5533E+01
   1.880  0.8028E+00  0.5541E+01
   1.890  0.8077E+00  0.5550E+01
   1.900  0.8130E+00  0.5558E+01
   1.910  0.8185E+00  0.5566E+01
   1.920  0.8243E+00  0.5574E+01
   1.930  0.8303E+00  0.5582E+01
   1.940  0.8366E+00  0.5591E+01
   1.950  0.8434E+00  0.5599E+01
   1.960  0.8507E+00  0.5608E+01
   1.970  0.8586E+00  0.5616E+01
   1.980  0.8671E+00  0.5625E+01
   1.990  0.8762E+00  0.5634E+01
   2.000  0.8859E+00  0.5643E+01
   2.010  0.8960E+00  0.5652E+01
   2.020  0.9065E+00  0.5661E+01
   2.030  0.9171E+00  0.5670E+01
   2.040  0.9274E+00  0.5679E+01
   2.050  0.9372E+00  0.5688E+01
   2.060  0.9461E+00  0.5698E+01
   2.070  0.9539E+00  0.5707E+01
   2.080  0.9600E+00  0.5717E+01
   2.090  0.9643E+00  0.5727E+01
   2.100  0.9665E+00  0.5736E+01
   2.110  0.9662E+00  0.5746E+01
   2.120  0.9636E+00  0.5756E+01
   2.130  0.9583E+00  0.5765E+01
   2.140  0.9506E+00  0.5775E+01
   2.150  0.9404E+00  0.5784E+01
   2.160  0.9279E+00  0.5793E+01
   2.170  0.9134E+00  0.5803E+01
   2.180  0.8973E+00  0.5812E+01
   2.190  0.8798E+00  0.5820E+01
   2.200  0.8614E+00  0.5829E+01
   2.210  0.8425E+00  0.5837E+01
   2.220  0.8236E+00  0.5846E+01
   2.230  0.8052E+00  0.5854E+01
   2.240  0.7877E+00  0.5862E+01
   2.250  0.7717E+00  0.5869E+01
   2.260  0.7575E+00  0.5877E+01
   2.270  0.7457E+00  0.5884E+01
   2.280  0.7367E+00  0.5892E+01
   2.290  0.7307E+00  0.5899E+01
   2.300  0.7281E+00  0.5906E+01
   2.310  0.7291E+00  0.5914E+01
   2.320  0.7338E+00  0.5921E+01
   2.330  0.7423E+00  0.5928E+01
   2.340  0.7545E+00  0.5936E+01
   2.350  0.7701E+00  0.5944E+01
   2.360  0.7889E+00  0.5951E+01
   2.370  0.8103E+00  0.5960E+01
   2.380  0.8339E+00  0.5968E+01
   2.390  0.8589E+00  0.5976E+01
   2.400  0.8846E+00  0.5985E+01
   2.410  0.9102E+00  0.5994E+01
   2.420  0.9349E+00  0.6004E+01
   2.430  0.9579E+00  0.6013E+01
   2.440  0.9783E+00  0.6023E+01
   2.450  0.9957E+00  0.6033E+01
   2.460  0.1009E+01  0.6043E+01
   2.470  0.1019E+01  0.6053E+01
   2.480  0.1024E+01  0.6064E+01
   2.490  0.1025E+01  0.6074E+01
   2.500  0.1022E+01  0.6084E+01
   2.510  0.1015E+01  0.6094E+01
   2.520  0.1005E+01  0.6104E+01
   2.530  0.9916E+00  0.6114E+01
   2.540  0.9767E+00  0.6124E+01
   2.550  0.9606E+00  0.6134E+01
   2.560  0.9443E+00  0.6143E+01
   2.570  0.9285E+00  0.6152E+01
   2.580  0.9140E+00  0.6161E+01
   2.590  0.9015E+00  0.6170E+01
   2.600  0.8915E+00  0.6179E+01
   2.610  0.8844E+00  0.6188E+01
   2.620  0.8806E+00  0.6197E+01
   2.630  0.8800E+00  0.6206E+01
   2.640  0.8826E+00  0.6215E+01
   2.650  0.8881E+00  0.6223E+01
   2.660  0.8963E+00  0.6232E+01
   2.670  0.9068E+00  0.6242E+01
   2.680  0.9189E+00  0.6251E+01
   2.690  0.9322E+00  0.6260E+01
   2.700  0.9461E+00  0.6269E+01
   2.710  0.9602E+00  0.6279E+01
   2.720  0.9739E+00  0.6289E+01
   2.730  0.9869E+00  0.6299E+01
   2.740  0.9989E+00  0.6309E+01
   2.750  0.1010E+01  0.6319E+01
   2.760  0.1019E+01  0.6329E+01
   2.770  0.1027E+01  0.6339E+01
   2.780  0.1034E+01  0.6350E+01
   2.790  0.1039E+01  0.6360E+01
   2.800  0.1044E+01  0.6370E+01
   2.810  0.1048E+01  0.6381E+01
   2.820  0.1052E+01  0.6391E+01
   2.830  0.1056E+01  0.6402E+01
   2.840  0.1059E+01  0.6413E+01
   2.850  0.1064E+01  0.6423E+01
   2.860  0.1068E+01  0.6434E+01
   2.870  0.1074E+01  0.6445E+01
   2.880  0.1081E+01  0.6455E+01
   2.890  0.1088E+01  0.6466E+01
   2.900  0.1097E+01  0.6477E+01
   2.910  0.1106E+01  0.6488E+01
   2.920  0.1115E+01  0.6499E+01
   2.930  0.1125E+01  0.6511E+01
   2.940  0.1135E+01  0.6522E+01
   2.950  0.1144E+01  0.6534E+01
   2.960  0.1152E+01  0.6545E+01
   2.970  0.1158E+01  0.6557E+01
   2.980  0.1163E+01  0.6568E+01
   2.990  0.1166E+01  0.6580E+01
   3.000  0.1165E+01  0.6592E+01
   3.010  0.1162E+01  0.6603E+01
   3.020  0.1155E+01  0.6615E+01
   3.030  0.1146E+01  0.6626E+01
   3.040  0.1133E+01  0.6638E+01
   3.050  0.1117E+01  0.6649E+01
   3.060  0.1098E+01  0.6660E+01
   3.070  0.1077E+01  0.6670E+01
   3.080  0.1054E+01  0.6681E+01
   3.090  0.1031E+01  0.6691E+01
   3.100  0.1008E+01  0.6701E+01
   3.110  0.9846E+00  0.6711E+01
   3.120  0.9632E+00  0.6721E+01
   3.130  0.9439E+00  0.6730E+01
   3.140  0.9276E+00  0.6740E+01
   3.150  0.9147E+00  0.6749E+01
   3.160  0.9058E+00  0.6758E+01
   3.170  0.9012E+00  0.6767E+01
   3.180  0.9011E+00  0.6776E+01
   3.190  0.9056E+00  0.6785E+01
   3.200  0.9145E+00  0.6794E+01
   3.210  0.9277E+00  0.6803E+01
   3.220  0.9447E+00  0.6813E+01
   3.230  0.9652E+00  0.6822E+01
   3.240  0.9884E+00  0.6832E+01
   3.250  0.1014E+01  0.6842E+01
   3.260  0.1041E+01  0.6853E+01
   3.270  0.1068E+01  0.6863E+01
   3.280  0.1096E+01  0.6874E+01
   3.290  0.1123E+01  0.6886E+01
   3.300  0.1149E+01  0.6897E+01
   3.310  0.1173E+01  0.6909E+01
   3.320  0.1194E+01  0.6921E+01
   3.330  0.1213E+01  0.6933E+01
   3.340  0.1228E+01  0.6945E+01
   3.350  0.1240E+01  0.6958E+01
   3.360  0.1249E+01  0.6970E+01
   3.370  0.1254E+01  0.6983E+01
   3.380  0.1256E+01  0.6995E+01
   3.390  0.1255E+01  0.7008E+01
   3.400  0.1251E+01  0.7020E+01
   3.410  0.1246E+01  0.7033E+01
   3.420  0.1239E+01  0.7045E+01
   3.430  0.1231E+01  0.7057E+01
   3.440  0.1223E+01  0.7070E+01
   3.450  0.1215E+01  0.7082E+01
   3.460  0.1208E+01  0.7094E+01
   3.470  0.1202E+01  0.7106E+01
   3.480  0.1198E+01  0.7118E+01
   3.490  0.1195E+01  0.7130E+01
   3.500  0.1194E+01  0.7142E+01
   3.510  0.1196E+01  0.7154E+01
   3.520  0.1200E+01  0.7166E+01
   3.530  0.1206E+01  0.7178E+01
   3.540  0.1214E+01  0.7190E+01
   3.550  0.1224E+01  0.7202E+01
   3.560  0.1236E+01  0.7215E+01
   3.570  0.1249E+01  0.7227E+01
   3.580  0.1264E+01  0.7240E+01
   3.590  0.1279E+01  0.7252E+01
   3.600  0.1295E+01  0.7265E+01
   3.610  0.1311E+01  0.7279E+01
   3.620  0.1327E+01  0.7292E+01
   3.630  0.1343E+01  0.7305E+01
   3.640  0.1358E+01  0.7319E+01
   3.650  0.1371E+01  0.7333E+01
   3.660  0.1384E+01  0.7346E+01
   3.670  0.1394E+01  0.7360E+01
   3.680  0.1402E+01  0.7374E+01
   3.690  0.1408E+01  0.7388E+01
   3.700  0.1411E+01  0.7403E+01
   3.710  0.1411E+01  0.7417E+01
   3.720  0.1409E+01  0.7431E+01
   3.730  0.1404E+01  0.7445E+01
   3.740  0.1396E+01  0.7459E+01
   3.750  0.1385E+01  0.7473E+01
   3.760  0.1371E+01  0.7486E+01
   3.770  0.1354E+01  0.7500E+01
   3.780  0.1336E+01  0.7513E+01
   3.790  0.1314E+01  0.7526E+01
   3.800  0.1291E+01  0.7539E+01
   3.810  0.1265E+01  0.7552E+01
   3.820  0.1237E+01  0.7564E+01
   3.830  0.1208E+01  0.7576E+01
   3.840  0.1177E+01  0.7588E+01
   3.850  0.1144E+01  0.7600E+01
   3.860  0.1110E+01  0.7611E+01
   3.870  0.1075E+01  0.7621E+01
   3.880  0.1039E+01  0.7632E+01
   3.890  0.1002E+01  0.7642E+01
   3.900  0.9654E+00  0.7651E+01
   3.910  0.9281E+00  0.7661E+01
   3.920  0.8909E+00  0.7670E+01
   3.930  0.8541E+00  0.7678E+01
   3.940  0.8179E+00  0.7686E+01
   3.950  0.7826E+00  0.7694E+01
   3.960  0.7484E+00  0.7702E+01
   3.970  0.7157E+00  0.7709E+01
   3.980  0.6845E+00  0.7716E+01
   3.990  0.6551E+00  0.7722E+01
   4.000  0.6276E+00  0.7728E+01
   4.010  0.6020E+00  0.7735E+01
   4.020  0.5783E+00  0.7740E+01
   4.030  0.5565E+00  0.7746E+01
   4.040  0.5367E+00  0.7751E+01
   4.050  0.5186E+00  0.7756E+01
   4.060  0.5022E+00  0.7761E+01
   4.070  0.4876E+00  0.7766E+01
   4.080  0.4745E+00  0.7771E+01
   4.090  0.4629E+00  0.7776E+01
   4.100  0.4529E+00  0.7780E+01
   4.110  0.4445E+00  0.7785E+01
   4.120  0.4376E+00  0.7789E+01
   4.130  0.4325E+00  0.7793E+01
   4.140  0.4290E+00  0.7798E+01
   4.150  0.4274E+00  0.7802E+01
   4.160  0.4276E+00  0.7806E+01
   4.170  0.4297E+00  0.7810E+01
   4.180  0.4338E+00  0.7815E+01
   4.190  0.4398E+00  0.7819E+01
   4.200  0.4476E+00  0.7824E+01
   4.210  0.4571E+00  0.7828E+01
   4.220  0.4681E+00  0.7833E+01
   4.230  0.4804E+00  0.7838E+01
   4.240  0.4938E+00  0.7843E+01
   4.250  0.5081E+00  0.7848E+01
   4.260  0.5229E+00  0.7853E+01
   4.270  0.5381E+00  0.7858E+01
   4.280  0.5534E+00  0.7864E+01
   4.290  0.5686E+00  0.7870E+01
   4.300  0.5837E+00  0.7875E+01
   4.310  0.5985E+00  0.7881E+01
   4.320  0.6129E+00  0.7888E+01
   4.330  0.6270E+00  0.7894E+01
   4.340  0.6407E+00  0.7900E+01
   4.350  0.6541E+00  0.7907E+01
   4.360  0.6671E+00  0.7913E+01
   4.370  0.6799E+00  0.7920E+01
   4.380  0.6924E+00  0.7927E+01
   4.390  0.7047E+00  0.7934E+01
   4.400  0.7166E+00  0.7941E+01
   4.410  0.7281E+00  0.7949E+01
   4.420  0.7391E+00  0.7956E+01
   4.430  0.7495E+00  0.7964E+01
   4.440  0.7591E+00  0.7971E+01
   4.450  0.7679E+00  0.7979E+01
   4.460  0.7755E+00  0.7987E+01
   4.470  0.7820E+00  0.7994E+01
   4.480  0.7872E+00  0.8002E+01
   4.490  0.7909E+00  0.8010E+01
   4.500  0.7933E+00  0.8018E+01
   4.510  0.7942E+00  0.8026E+01
   4.520  0.7938E+00  0.8034E+01
   4.530  0.7923E+00  0.8042E+01
   4.540  0.7897E+00  0.8050E+01
   4.550  0.7863E+00  0.8058E+01
   4.560  0.7824E+00  0.8066E+01
   4.570  0.7781E+00  0.8073E+01
   4.580  0.7739E+00  0.8081E+01
   4.590  0.7699E+00  0.8089E+01
   4.600  0.7664E+00  0.8096E+01
   4.610  0.7636E+00  0.8104E+01
   4.620  0.7616E+00  0.8112E+01
   4.630  0.7606E+00  0.8119E+01
   4.640  0.7606E+00  0.8127E+01
   4.650  0.7615E+00  0.8134E+01
   4.660  0.7632E+00  0.8142E+01
   4.670  0.7658E+00  0.8150E+01
   4.680  0.7688E+00  0.8157E+01
   4.690  0.7723E+00  0.8165E+01
   4.700  0.7759E+00  0.8173E+01
   4.710  0.7794E+00  0.8181E+01
   4.720  0.7826E+00  0.8189E+01
   4.730  0.7854E+00  0.8196E+01
   4.740  0.7874E+00  0.8204E+01
   4.750  0.7887E+00  0.8212E+01
   4.760  0.7892E+00  0.8220E+01
   4.770  0.7886E+00  0.8228E+01
   4.780  0.7871E+00  0.8236E+01
   4.790  0.7845E+00  0.8244E+01
   4.800  0.7808E+00  0.8251E+01
   4.810  0.7762E+00  0.8259E+01
   4.820  0.7705E+00  0.8267E+01
   4.830  0.7638E+00  0.8275E+01
   4.840  0.7562E+00  0.8282E+01
   4.850  0.7476E+00  0.8290E+01
   4.860  0.7382E+00  0.8297E+01
   4.870  0.7281E+00  0.8304E+01
   4.880  0.7174E+00  0.8311E+01
   4.890  0.7064E+00  0.8319E+01
   4.900  0.6952E+00  0.8325E+01
   4.910  0.6841E+00  0.8332E+01
   4.920  0.6736E+00  0.8339E+01
   4.930  0.6641E+00  0.8346E+01
   4.940  0.6558E+00  0.8352E+01
   4.950  0.6494E+00  0.8359E+01
   4.960  0.6452E+00  0.8365E+01
   4.970  0.6436E+00  0.8372E+01
   4.980  0.6450E+00  0.8378E+01
   4.990  0.6497E+00  0.8385E+01
   5.000  0.6577E+00  0.8391E+01
   5.010  0.6692E+00  0.8398E+01
   5.020  0.6840E+00  0.8405E+01
   5.030  0.7021E+00  0.8412E+01
   5.040  0.7230E+00  0.8419E+01
   5.050  0.7464E+00  0.8426E+01
   5.060  0.7719E+00  0.8434E+01
   5.070  0.7989E+00  0.8442E+01
   5.080  0.8269E+00  0.8450E+01
   5.090  0.8554E+00  0.8459E+01
   5.100  0.8841E+00  0.8468E+01
   5.110  0.9126E+00  0.8477E+01
   5.120  0.9408E+00  0.8486E+01
   5.130  0.9686E+00  0.8496E+01
   5.140  0.9962E+00  0.8506E+01
   5.150  0.1024E+01  0.8516E+01
   5.160  0.1052E+01  0.8527E+01
   5.170  0.1081E+01  0.8538E+01
   5.180  0.1111E+01  0.8549E+01
   5.190  0.1144E+01  0.8560E+01
   5.200  0.1179E+01  0.8572E+01
   5.210  0.1218E+01  0.8584E+01
   5.220  0.1261E+01  0.8597E+01
   5.230  0.1308E+01  0.8610E+01
   5.240  0.1359E+01  0.8623E+01
   5.250  0.1415E+01  0.8637E+01
   5.260  0.1475E+01  0.8652E+01
   5.270  0.1539E+01  0.8668E+01
   5.280  0.1605E+01  0.8684E+01
   5.290  0.1674E+01  0.8700E+01
   5.300  0.1744E+01  0.8718E+01
   5.310  0.1813E+01  0.8736E+01
   5.320  0.1881E+01  0.8755E+01
   5.330  0.1946E+01  0.8774E+01
   5.340  0.2007E+01  0.8794E+01
   5.350  0.2062E+01  0.8815E+01
   5.360  0.2110E+01  0.8836E+01
   5.370  0.2150E+01  0.8858E+01
   5.380  0.2181E+01  0.8879E+01
   5.390  0.2203E+01  0.8901E+01
   5.400  0.2214E+01  0.8924E+01
   5.410  0.2215E+01  0.8946E+01
   5.420  0.2205E+01  0.8968E+01
   5.430  0.2185E+01  0.8990E+01
   5.440  0.2155E+01  0.9011E+01
   5.450  0.2115E+01  0.9032E+01
   5.460  0.2066E+01  0.9053E+01
   5.470  0.2009E+01  0.9073E+01
   5.480  0.1945E+01  0.9092E+01
   5.490  0.1875E+01  0.9111E+01
   5.500  0.1800E+01  0.9129E+01
   5.510  0.1722E+01  0.9146E+01
   5.520  0.1642E+01  0.9163E+01
   5.530  0.1561E+01  0.9178E+01
   5.540  0.1480E+01  0.9193E+01
   5.550  0.1401E+01  0.9207E+01
   5.560  0.1324E+01  0.9221E+01
   5.570  0.1251E+01  0.9233E+01
   5.580  0.1182E+01  0.9245E+01
   5.590  0.1120E+01  0.9256E+01
   5.600  0.1063E+01  0.9267E+01
   5.610  0.1012E+01  0.9277E+01
   5.620  0.9690E+00  0.9286E+01
   5.630  0.9327E+00  0.9296E+01
   5.640  0.9034E+00  0.9305E+01
   5.650  0.8809E+00  0.9314E+01
   5.660  0.8650E+00  0.9322E+01
   5.670  0.8552E+00  0.9331E+01
   5.680  0.8509E+00  0.9339E+01
   5.690  0.8515E+00  0.9348E+01
   5.700  0.8562E+00  0.9356E+01
   5.710  0.8645E+00  0.9365E+01
   5.720  0.8754E+00  0.9374E+01
   5.730  0.8883E+00  0.9383E+01
   5.740  0.9025E+00  0.9392E+01
   5.750  0.9173E+00  0.9401E+01
   5.760  0.9324E+00  0.9410E+01
   5.770  0.9471E+00  0.9420E+01
   5.780  0.9613E+00  0.9429E+01
   5.790  0.9746E+00  0.9439E+01
   5.800  0.9870E+00  0.9449E+01
   5.810  0.9984E+00  0.9459E+01
   5.820  0.1009E+01  0.9469E+01
   5.830  0.1019E+01  0.9479E+01
   5.840  0.1028E+01  0.9489E+01
   5.850  0.1037E+01  0.9500E+01
   5.860  0.1046E+01  0.9510E+01
   5.870  0.1056E+01  0.9521E+01
   5.880  0.1065E+01  0.9532E+01
   5.890  0.1075E+01  0.9542E+01
   5.900  0.1085E+01  0.9553E+01
   5.910  0.1095E+01  0.9564E+01
   5.920  0.1105E+01  0.9575E+01
   5.930  0.1115E+01  0.9586E+01
   5.940  0.1124E+01  0.9598E+01
   5.950  0.1133E+01  0.9609E+01
   5.960  0.1139E+01  0.9620E+01
   5.970  0.1144E+01  0.9632E+01
   5.980  0.1147E+01  0.9643E+01
   5.990  0.1147E+01  0.9655E+01
   6.000  0.1144E+01  0.9666E+01
   6.010  0.1138E+01  0.9677E+01
   6.020  0.1128E+01  0.9689E+01
   6.030  0.1115E+01  0.9700E+01
   6.040  0.1099E+01  0.9711E+01
   6.050  0.1079E+01  0.9722E+01
   6.060  0.1056E+01  0.9732E+01
   6.070  0.1030E+01  0.9742E+01
   6.080  0.1001E+01  0.9753E+01
   6.090  0.9705E+00  0.9762E+01
   6.100  0.9382E+00  0.9772E+01
   6.110  0.9047E+00  0.9781E+01
   6.120  0.8705E+00  0.9789E+01
   6.130  0.8361E+00  0.9798E+01
   6.140  0.8020E+00  0.9806E+01
   6.150  0.7688E+00  0.9813E+01
   6.160  0.7370E+00  0.9821E+01
   6.170  0.7071E+00  0.9828E+01
   6.180  0.6796E+00  0.9835E+01
   6.190  0.6551E+00  0.9841E+01
   6.200  0.6340E+00  0.9848E+01
   6.210  0.6167E+00  0.9854E+01
   6.220  0.6037E+00  0.9860E+01
   6.230  0.5953E+00  0.9866E+01
   6.240  0.5917E+00  0.9872E+01
   6.250  0.5930E+00  0.9878E+01
   6.260  0.5992E+00  0.9884E+01
   6.270  0.6103E+00  0.9890E+01
   6.280  0.6260E+00  0.9896E+01
   6.290  0.6460E+00  0.9902E+01
   6.300  0.6698E+00  0.9909E+01
   6.310  0.6970E+00  0.9916E+01
   6.320  0.7268E+00  0.9923E+01
   6.330  0.7586E+00  0.9931E+01
   6.340  0.7918E+00  0.9939E+01
   6.350  0.8256E+00  0.9947E+01
   6.360  0.8595E+00  0.9956E+01
   6.370  0.8926E+00  0.9965E+01
   6.380  0.9247E+00  0.9974E+01
   6.390  0.9551E+00  0.9983E+01
   6.400  0.9836E+00  0.9993E+01
   6.410  0.1010E+01  0.1000E+02
   6.420  0.1034E+01  0.1001E+02
   6.430  0.1055E+01  0.1002E+02
   6.440  0.1074E+01  0.1003E+02
   6.450  0.1091E+01  0.1005E+02
   6.460  0.1105E+01  0.1006E+02
   6.470  0.1117E+01  0.1007E+02
   6.480  0.1127E+01  0.1008E+02
   6.490  0.1135E+01  0.1009E+02
   6.500  0.1140E+01  0.1010E+02
   6.510  0.1144E+01  0.1011E+02
   6.520  0.1145E+01  0.1012E+02
   6.530  0.1144E+01  0.1014E+02
   6.540  0.1141E+01  0.1015E+02
   6.550  0.1136E+01  0.1016E+02
   6.560  0.1127E+01  0.1017E+02
   6.570  0.1116E+01  0.1018E+02
   6.580  0.1102E+01  0.1019E+02
   6.590  0.1085E+01  0.1020E+02
   6.600  0.1065E+01  0.1021E+02
   6.610  0.1042E+01  0.1022E+02
   6.620  0.1017E+01  0.1023E+02
   6.630  0.9901E+00  0.1024E+02
   6.640  0.9610E+00  0.1025E+02
   6.650  0.9307E+00  0.1026E+02
   6.660  0.8997E+00  0.1027E+02
   6.670  0.8685E+00  0.1028E+02
   6.680  0.8378E+00  0.1029E+02
   6.690  0.8080E+00  0.1030E+02
   6.700  0.7798E+00  0.1031E+02
   6.710  0.7533E+00  0.1031E+02
   6.720  0.7291E+00  0.1032E+02
   6.730  0.7071E+00  0.1033E+02
   6.740  0.6875E+00  0.1033E+02
   6.750  0.6702E+00  0.1034E+02
   6.760  0.6551E+00  0.1035E+02
   6.770  0.6418E+00  0.1035E+02
   6.780  0.6302E+00  0.1036E+02
   6.790  0.6198E+00  0.1037E+02
   6.800  0.6105E+00  0.1037E+02
   6.810  0.6018E+00  0.1038E+02
   6.820  0.5938E+00  0.1038E+02
   6.830  0.5861E+00  0.1039E+02
   6.840  0.5790E+00  0.1040E+02
   6.850  0.5724E+00  0.1040E+02
   6.860  0.5665E+00  0.1041E+02
   6.870  0.5617E+00  0.1041E+02
   6.880  0.5582E+00  0.1042E+02
   6.890  0.5565E+00  0.1042E+02
   6.900  0.5570E+00  0.1043E+02
   6.910  0.5599E+00  0.1044E+02
   6.920  0.5656E+00  0.1044E+02
   6.930  0.5743E+00  0.1045E+02
   6.940  0.5863E+00  0.1045E+02
   6.950  0.6016E+00  0.1046E+02
   6.960  0.6201E+00  0.1046E+02
   6.970  0.6416E+00  0.1047E+02
   6.980  0.6661E+00  0.1048E+02
   6.990  0.6930E+00  0.1048E+02
   7.000  0.7220E+00  0.1049E+02
   7.010  0.7527E+00  0.1050E+02
   7.020  0.7846E+00  0.1051E+02
   7.030  0.8171E+00  0.1052E+02
   7.040  0.8499E+00  0.1052E+02
   7.050  0.8824E+00  0.1053E+02
   7.060  0.9142E+00  0.1054E+02
   7.070  0.9450E+00  0.1055E+02
   7.080  0.9745E+00  0.1056E+02
   7.090  0.1002E+01  0.1057E+02
   7.100  0.1028E+01  0.1058E+02
   7.110  0.1053E+01  0.1059E+02
   7.120  0.1075E+01  0.1060E+02
   7.130  0.1094E+01  0.1061E+02
   7.140  0.1112E+01  0.1063E+02
   7.150  0.1128E+01  0.1064E+02
   7.160  0.1141E+01  0.1065E+02
   7.170  0.1151E+01  0.1066E+02
   7.180  0.1160E+01  0.1067E+02
   7.190  0.1165E+01  0.1068E+02
   7.200  0.1168E+01  0.1069E+02
   7.210  0.1168E+01  0.1071E+02
   7.220  0.1165E+01  0.1072E+02
   7.230  0.1159E+01  0.1073E+02
   7.240  0.1149E+01  0.1074E+02
   7.250  0.1135E+01  0.1075E+02
   7.260  0.1118E+01  0.1076E+02
   7.270  0.1097E+01  0.1077E+02
   7.280  0.1073E+01  0.1078E+02
   7.290  0.1044E+01  0.1080E+02
   7.300  0.1013E+01  0.1081E+02
   7.310  0.9784E+00  0.1082E+02
   7.320  0.9411E+00  0.1082E+02
   7.330  0.9019E+00  0.1083E+02
   7.340  0.8611E+00  0.1084E+02
   7.350  0.8195E+00  0.1085E+02
   7.360  0.7777E+00  0.1086E+02
   7.370  0.7366E+00  0.1087E+02
   7.380  0.6968E+00  0.1087E+02
   7.390  0.6591E+00  0.1088E+02
   7.400  0.6240E+00  0.1089E+02
   7.410  0.5921E+00  0.1089E+02
   7.420  0.5639E+00  0.1090E+02
   7.430  0.5397E+00  0.1090E+02
   7.440  0.5199E+00  0.1091E+02
   7.450  0.5045E+00  0.1091E+02
   7.460  0.4936E+00  0.1092E+02
   7.470  0.4871E+00  0.1092E+02
   7.480  0.4848E+00  0.1093E+02
   7.490  0.4864E+00  0.1093E+02
   7.500  0.4918E+00  0.1094E+02
   7.510  0.5003E+00  0.1094E+02
   7.520  0.5117E+00  0.1095E+02
   7.530  0.5255E+00  0.1095E+02
   7.540  0.5412E+00  0.1096E+02
   7.550  0.5584E+00  0.1096E+02
   7.560  0.5767E+00  0.1097E+02
   7.570  0.5957E+00  0.1098E+02
   7.580  0.6150E+00  0.1098E+02
   7.590  0.6343E+00  0.1099E+02
   7.600  0.6535E+00  0.1099E+02
   7.610  0.6722E+00  0.1100E+02
   7.620  0.6905E+00  0.1101E+02
   7.630  0.7082E+00  0.1101E+02
   7.640  0.7253E+00  0.1102E+02
   7.650  0.7417E+00  0.1103E+02
   7.660  0.7577E+00  0.1104E+02
   7.670  0.7730E+00  0.1104E+02
   7.680  0.7879E+00  0.1105E+02
   7.690  0.8024E+00  0.1106E+02
   7.700  0.8164E+00  0.1107E+02
   7.710  0.8301E+00  0.1108E+02
   7.720  0.8433E+00  0.1109E+02
   7.730  0.8561E+00  0.1109E+02
   7.740  0.8683E+00  0.1110E+02
   7.750  0.8799E+00  0.1111E+02
   7.760  0.8908E+00  0.1112E+02
   7.770  0.9008E+00  0.1113E+02
   7.780  0.9098E+00  0.1114E+02
   7.790  0.9177E+00  0.1115E+02
   7.800  0.9244E+00  0.1116E+02
   7.810  0.9299E+00  0.1117E+02
   7.820  0.9341E+00  0.1118E+02
   7.830  0.9370E+00  0.1119E+02
   7.840  0.9387E+00  0.1119E+02
   7.850  0.9393E+00  0.1120E+02
   7.860  0.9388E+00  0.1121E+02
   7.870  0.9374E+00  0.1122E+02
   7.880  0.9352E+00  0.1123E+02
   7.890  0.9322E+00  0.1124E+02
   7.900  0.9286E+00  0.1125E+02
   7.910  0.9244E+00  0.1126E+02
   7.920  0.9196E+00  0.1127E+02
   7.930  0.9142E+00  0.1128E+02
   7.940  0.9081E+00  0.1129E+02
   7.950  0.9012E+00  0.1130E+02
   7.960  0.8935E+00  0.1131E+02
   7.970  0.8847E+00  0.1131E+02
   7.980  0.8748E+00  0.1132E+02
   7.990  0.8636E+00  0.1133E+02
   8.000  0.8512E+00  0.1134E+02
   8.010  0.8376E+00  0.1135E+02
   8.020  0.8229E+00  0.1136E+02
   8.030  0.8072E+00  0.1136E+02
   8.040  0.7908E+00  0.1137E+02
   8.050  0.7740E+00  0.1138E+02
   8.060  0.7570E+00  0.1139E+02
   8.070  0.7404E+00  0.1140E+02
   8.080  0.7245E+00  0.1140E+02
   8.090  0.7096E+00  0.1141E+02
   8.100  0.6960E+00  0.1142E+02
   8.110  0.6841E+00  0.1142E+02
   8.120  0.6741E+00  0.1143E+02
   8.130  0.6659E+00  0.1144E+02
   8.140  0.6598E+00  0.1144E+02
   8.150  0.6554E+00  0.1145E+02
   8.160  0.6529E+00  0.1146E+02
   8.170  0.6518E+00  0.1146E+02
   8.180  0.6519E+00  0.1147E+02
   8.190  0.6529E+00  0.1148E+02
   8.200  0.6546E+00  0.1148E+02
   8.210  0.6565E+00  0.1149E+02
   8.220  0.6585E+00  0.1150E+02
   8.230  0.6602E+00  0.1150E+02
   8.240  0.6615E+00  0.1151E+02
   8.250  0.6623E+00  0.1152E+02
   8.260  0.6625E+00  0.1152E+02
   8.270  0.6622E+00  0.1153E+02
   8.280  0.6615E+00  0.1154E+02
   8.290  0.6604E+00  0.1154E+02
   8.300  0.6594E+00  0.1155E+02
   8.310  0.6587E+00  0.1156E+02
   8.320  0.6586E+00  0.1156E+02
   8.330  0.6596E+00  0.1157E+02
   8.340  0.6621E+00  0.1157E+02
   8.350  0.6665E+00  0.1158E+02
   8.360  0.6733E+00  0.1159E+02
   8.370  0.6829E+00  0.1160E+02
   8.380  0.6956E+00  0.1160E+02
   8.390  0.7118E+00  0.1161E+02
   8.400  0.7315E+00  0.1162E+02
   8.410  0.7550E+00  0.1162E+02
   8.420  0.7822E+00  0.1163E+02
   8.430  0.8128E+00  0.1164E+02
   8.440  0.8467E+00  0.1165E+02
   8.450  0.8834E+00  0.1166E+02
   8.460  0.9223E+00  0.1167E+02
   8.470  0.9628E+00  0.1168E+02
   8.480  0.1004E+01  0.1169E+02
   8.490  0.1046E+01  0.1170E+02
   8.500  0.1087E+01  0.1171E+02
   8.510  0.1126E+01  0.1172E+02
   8.520  0.1164E+01  0.1173E+02
   8.530  0.1198E+01  0.1174E+02
   8.540  0.1230E+01  0.1175E+02
   8.550  0.1257E+01  0.1177E+02
   8.560  0.1281E+01  0.1178E+02
   8.570  0.1300E+01  0.1179E+02
   8.580  0.1315E+01  0.1181E+02
   8.590  0.1325E+01  0.1182E+02
   8.600  0.1330E+01  0.1183E+02
   8.610  0.1332E+01  0.1185E+02
   8.620  0.1328E+01  0.1186E+02
   8.630  0.1321E+01  0.1187E+02
   8.640  0.1310E+01  0.1189E+02
   8.650  0.1295E+01  0.1190E+02
   8.660  0.1277E+01  0.1191E+02
   8.670  0.1255E+01  0.1192E+02
   8.680  0.1231E+01  0.1194E+02
   8.690  0.1205E+01  0.1195E+02
   8.700  0.1177E+01  0.1196E+02
   8.710  0.1147E+01  0.1197E+02
   8.720  0.1117E+01  0.1198E+02
   8.730  0.1085E+01  0.1199E+02
   8.740  0.1053E+01  0.1200E+02
   8.750  0.1021E+01  0.1201E+02
   8.760  0.9889E+00  0.1202E+02
   8.770  0.9574E+00  0.1203E+02
   8.780  0.9267E+00  0.1204E+02
   8.790  0.8968E+00  0.1205E+02
   8.800  0.8680E+00  0.1206E+02
   8.810  0.8403E+00  0.1207E+02
   8.820  0.8138E+00  0.1208E+02
   8.830  0.7885E+00  0.1209E+02
   8.840  0.7645E+00  0.1209E+02
   8.850  0.7418E+00  0.1210E+02
   8.860  0.7204E+00  0.1211E+02
   8.870  0.7005E+00  0.1211E+02
   8.880  0.6822E+00  0.1212E+02
   8.890  0.6655E+00  0.1213E+02
   8.900  0.6505E+00  0.1213E+02
   8.910  0.6375E+00  0.1214E+02
   8.920  0.6265E+00  0.1215E+02
   8.930  0.6177E+00  0.1215E+02
   8.940  0.6111E+00  0.1216E+02
   8.950  0.6069E+00  0.1217E+02
   8.960  0.6049E+00  0.1217E+02
   8.970  0.6052E+00  0.1218E+02
   8.980  0.6076E+00  0.1218E+02
   8.990  0.6118E+00  0.1219E+02
   9.000  0.6177E+00  0.1220E+02
   9.010  0.6249E+00  0.1220E+02
   9.020  0.6330E+00  0.1221E+02
   9.030  0.6418E+00  0.1221E+02
   9.040  0.6507E+00  0.1222E+02
   9.050  0.6595E+00  0.1223E+02
   9.060  0.6679E+00  0.1223E+02
   9.070  0.6755E+00  0.1224E+02
   9.080  0.6821E+00  0.1225E+02
   9.090  0.6876E+00  0.1226E+02
   9.100  0.6919E+00  0.1226E+02
   9.110  0.6949E+00  0.1227E+02
   9.120  0.6968E+00  0.1228E+02
   9.130  0.6975E+00  0.1228E+02
   9.140  0.6973E+00  0.1229E+02
   9.150  0.6963E+00  0.1230E+02
   9.160  0.6947E+00  0.1230E+02
   9.170  0.6927E+00  0.1231E+02
   9.180  0.6902E+00  0.1232E+02
   9.190  0.6875E+00  0.1232E+02
   9.200  0.6846E+00  0.1233E+02
   9.210  0.6813E+00  0.1234E+02
   9.220  0.6776E+00  0.1235E+02
   9.230  0.6733E+00  0.1235E+02
   9.240  0.6681E+00  0.1236E+02
   9.250  0.6619E+00  0.1237E+02
   9.260  0.6542E+00  0.1237E+02
   9.270  0.6449E+00  0.1238E+02
   9.280  0.6337E+00  0.1238E+02
   9.290  0.6203E+00  0.1239E+02
   9.300  0.6046E+00  0.1240E+02
   9.310  0.5864E+00  0.1240E+02
   9.320  0.5659E+00  0.1241E+02
   9.330  0.5431E+00  0.1241E+02
   9.340  0.5180E+00  0.1242E+02
   9.350  0.4911E+00  0.1242E+02
   9.360  0.4625E+00  0.1243E+02
   9.370  0.4328E+00  0.1243E+02
   9.380  0.4022E+00  0.1244E+02
   9.390  0.3712E+00  0.1244E+02
   9.400  0.3403E+00  0.1244E+02
   9.410  0.3099E+00  0.1245E+02
   9.420  0.2803E+00  0.1245E+02
   9.430  0.2520E+00  0.1245E+02
   9.440  0.2252E+00  0.1245E+02
   9.450  0.2002E+00  0.1246E+02
   9.460  0.1772E+00  0.1246E+02
   9.470  0.1563E+00  0.1246E+02
   9.480  0.1376E+00  0.1246E+02
   9.490  0.1211E+00  0.1246E+02
   9.500  0.1069E+00  0.1246E+02
   9.510  0.9490E-01  0.1246E+02
   9.520  0.8505E-01  0.1247E+02
   9.530  0.7730E-01  0.1247E+02
   9.540  0.7155E-01  0.1247E+02
   9.550  0.6771E-01  0.1247E+02
   9.560  0.6569E-01  0.1247E+02
   9.570  0.6539E-01  0.1247E+02
   9.580  0.6672E-01  0.1247E+02
   9.590  0.6957E-01  0.1247E+02
   9.600  0.7383E-01  0.1247E+02
   9.610  0.7937E-01  0.1247E+02
   9.620  0.8607E-01  0.1247E+02
   9.630  0.9377E-01  0.1247E+02
   9.640  0.1023E+00  0.1247E+02
   9.650  0.1115E+00  0.1248E+02
   9.660  0.1212E+00  0.1248E+02
   9.670  0.1311E+00  0.1248E+02
   9.680  0.1411E+00  0.1248E+02
   9.690  0.1510E+00  0.1248E+02
   9.700  0.1604E+00  0.1248E+02
   9.710  0.1692E+00  0.1248E+02
   9.720  0.1773E+00  0.1249E+02
   9.730  0.1843E+00  0.1249E+02
   9.740  0.1903E+00  0.1249E+02
   9.750  0.1950E+00  0.1249E+02
   9.760  0.1985E+00  0.1249E+02
   9.770  0.2006E+00  0.1250E+02
   9.780  0.2014E+00  0.1250E+02
   9.790  0.2009E+00  0.1250E+02
   9.800  0.1993E+00  0.1250E+02
   9.810  0.1967E+00  0.1250E+02
   9.820  0.1932E+00  0.1251E+02
   9.830  0.1891E+00  0.1251E+02
   9.840  0.1847E+00  0.1251E+02
   9.850  0.1801E+00  0.1251E+02
   9.860  0.1756E+00  0.1251E+02
   9.870  0.1715E+00  0.1251E+02
   9.880  0.1680E+00  0.1252E+02
   9.890  0.1653E+00  0.1252E+02
   9.900  0.1635E+00  0.1252E+02
   9.910  0.1627E+00  0.1252E+02
   9.920  0.1631E+00  0.1252E+02
   9.930  0.1646E+00  0.1252E+02
   9.940  0.1672E+00  0.1253E+02
   9.950  0.1708E+00  0.1253E+02
   9.960  0.1751E+00  0.1253E+02
   9.970  0.1802E+00  0.1253E+02
   9.980  0.1856E+00  0.1253E+02
   9.990  0.1913E+00  0.1254E+02
  10.000  0.1970E+00  0.1254E+02
