#  E (eV)   dos(E)     Int dos(E) EFermi =   -0.597 eV
 -10.000  0.7302E+00  0.7302E-02
  -9.990  0.7456E+00  0.1476E-01
  -9.980  0.7609E+00  0.2237E-01
  -9.970  0.7757E+00  0.3012E-01
  -9.960  0.7896E+00  0.3802E-01
  -9.950  0.8022E+00  0.4604E-01
  -9.940  0.8132E+00  0.5418E-01
  -9.930  0.8224E+00  0.6240E-01
  -9.920  0.8294E+00  0.7069E-01
  -9.910  0.8343E+00  0.7904E-01
  -9.900  0.8368E+00  0.8740E-01
  -9.890  0.8371E+00  0.9578E-01
  -9.880  0.8352E+00  0.1041E+00
  -9.870  0.8313E+00  0.1124E+00
  -9.860  0.8255E+00  0.1207E+00
  -9.850  0.8182E+00  0.1289E+00
  -9.840  0.8097E+00  0.1370E+00
  -9.830  0.8003E+00  0.1450E+00
  -9.820  0.7905E+00  0.1529E+00
  -9.810  0.7806E+00  0.1607E+00
  -9.800  0.7711E+00  0.1684E+00
  -9.790  0.7624E+00  0.1760E+00
  -9.780  0.7549E+00  0.1836E+00
  -9.770  0.7487E+00  0.1911E+00
  -9.760  0.7443E+00  0.1985E+00
  -9.750  0.7416E+00  0.2059E+00
  -9.740  0.7408E+00  0.2133E+00
  -9.730  0.7418E+00  0.2207E+00
  -9.720  0.7444E+00  0.2282E+00
  -9.710  0.7485E+00  0.2357E+00
  -9.700  0.7537E+00  0.2432E+00
  -9.690  0.7597E+00  0.2508E+00
  -9.680  0.7660E+00  0.2585E+00
  -9.670  0.7721E+00  0.2662E+00
  -9.660  0.7778E+00  0.2740E+00
  -9.650  0.7825E+00  0.2818E+00
  -9.640  0.7858E+00  0.2896E+00
  -9.630  0.7876E+00  0.2975E+00
  -9.620  0.7876E+00  0.3054E+00
  -9.610  0.7858E+00  0.3133E+00
  -9.600  0.7821E+00  0.3211E+00
  -9.590  0.7768E+00  0.3288E+00
  -9.580  0.7702E+00  0.3366E+00
  -9.570  0.7624E+00  0.3442E+00
  -9.560  0.7541E+00  0.3517E+00
  -9.550  0.7457E+00  0.3592E+00
  -9.540  0.7377E+00  0.3666E+00
  -9.530  0.7307E+00  0.3739E+00
  -9.520  0.7252E+00  0.3811E+00
  -9.510  0.7217E+00  0.3883E+00
  -9.500  0.7204E+00  0.3955E+00
  -9.490  0.7217E+00  0.4027E+00
  -9.480  0.7258E+00  0.4100E+00
  -9.470  0.7327E+00  0.4173E+00
  -9.460  0.7422E+00  0.4248E+00
  -9.450  0.7542E+00  0.4323E+00
  -9.440  0.7682E+00  0.4400E+00
  -9.430  0.7839E+00  0.4478E+00
  -9.420  0.8007E+00  0.4558E+00
  -9.410  0.8180E+00  0.4640E+00
  -9.400  0.8350E+00  0.4724E+00
  -9.390  0.8513E+00  0.4809E+00
  -9.380  0.8662E+00  0.4895E+00
  -9.370  0.8790E+00  0.4983E+00
  -9.360  0.8894E+00  0.5072E+00
  -9.350  0.8970E+00  0.5162E+00
  -9.340  0.9014E+00  0.5252E+00
  -9.330  0.9025E+00  0.5342E+00
  -9.320  0.9003E+00  0.5432E+00
  -9.310  0.8950E+00  0.5522E+00
  -9.300  0.8867E+00  0.5610E+00
  -9.290  0.8759E+00  0.5698E+00
  -9.280  0.8628E+00  0.5784E+00
  -9.270  0.8481E+00  0.5869E+00
  -9.260  0.8323E+00  0.5952E+00
  -9.250  0.8159E+00  0.6034E+00
  -9.240  0.7994E+00  0.6114E+00
  -9.230  0.7835E+00  0.6192E+00
  -9.220  0.7686E+00  0.6269E+00
  -9.210  0.7551E+00  0.6345E+00
  -9.200  0.7434E+00  0.6419E+00
  -9.190  0.7338E+00  0.6492E+00
  -9.180  0.7264E+00  0.6565E+00
  -9.170  0.7214E+00  0.6637E+00
  -9.160  0.7189E+00  0.6709E+00
  -9.150  0.7189E+00  0.6781E+00
  -9.140  0.7212E+00  0.6853E+00
  -9.130  0.7257E+00  0.6926E+00
  -9.120  0.7324E+00  0.6999E+00
  -9.110  0.7410E+00  0.7073E+00
  -9.100  0.7513E+00  0.7148E+00
  -9.090  0.7630E+00  0.7224E+00
  -9.080  0.7758E+00  0.7302E+00
  -9.070  0.7895E+00  0.7381E+00
  -9.060  0.8037E+00  0.7461E+00
  -9.050  0.8181E+00  0.7543E+00
  -9.040  0.8323E+00  0.7626E+00
  -9.030  0.8459E+00  0.7711E+00
  -9.020  0.8586E+00  0.7797E+00
  -9.010  0.8700E+00  0.7884E+00
  -9.000  0.8799E+00  0.7972E+00
  -8.990  0.8878E+00  0.8060E+00
  -8.980  0.8938E+00  0.8150E+00
  -8.970  0.8975E+00  0.8240E+00
  -8.960  0.8990E+00  0.8330E+00
  -8.950  0.8982E+00  0.8419E+00
  -8.940  0.8955E+00  0.8509E+00
  -8.930  0.8909E+00  0.8598E+00
  -8.920  0.8849E+00  0.8686E+00
  -8.910  0.8780E+00  0.8774E+00
  -8.900  0.8705E+00  0.8861E+00
  -8.890  0.8630E+00  0.8948E+00
  -8.880  0.8561E+00  0.9033E+00
  -8.870  0.8504E+00  0.9118E+00
  -8.860  0.8463E+00  0.9203E+00
  -8.850  0.8443E+00  0.9287E+00
  -8.840  0.8448E+00  0.9372E+00
  -8.830  0.8480E+00  0.9457E+00
  -8.820  0.8540E+00  0.9542E+00
  -8.810  0.8628E+00  0.9628E+00
  -8.800  0.8744E+00  0.9716E+00
  -8.790  0.8884E+00  0.9805E+00
  -8.780  0.9045E+00  0.9895E+00
  -8.770  0.9222E+00  0.9987E+00
  -8.760  0.9409E+00  0.1008E+01
  -8.750  0.9601E+00  0.1018E+01
  -8.740  0.9792E+00  0.1028E+01
  -8.730  0.9975E+00  0.1038E+01
  -8.720  0.1014E+01  0.1048E+01
  -8.710  0.1029E+01  0.1058E+01
  -8.700  0.1042E+01  0.1068E+01
  -8.690  0.1053E+01  0.1079E+01
  -8.680  0.1060E+01  0.1089E+01
  -8.670  0.1065E+01  0.1100E+01
  -8.660  0.1067E+01  0.1111E+01
  -8.650  0.1067E+01  0.1121E+01
  -8.640  0.1065E+01  0.1132E+01
  -8.630  0.1061E+01  0.1143E+01
  -8.620  0.1056E+01  0.1153E+01
  -8.610  0.1050E+01  0.1164E+01
  -8.600  0.1045E+01  0.1174E+01
  -8.590  0.1040E+01  0.1185E+01
  -8.580  0.1037E+01  0.1195E+01
  -8.570  0.1036E+01  0.1205E+01
  -8.560  0.1036E+01  0.1216E+01
  -8.550  0.1040E+01  0.1226E+01
  -8.540  0.1046E+01  0.1237E+01
  -8.530  0.1055E+01  0.1247E+01
  -8.520  0.1066E+01  0.1258E+01
  -8.510  0.1080E+01  0.1269E+01
  -8.500  0.1096E+01  0.1280E+01
  -8.490  0.1114E+01  0.1291E+01
  -8.480  0.1132E+01  0.1302E+01
  -8.470  0.1151E+01  0.1314E+01
  -8.460  0.1170E+01  0.1325E+01
  -8.450  0.1189E+01  0.1337E+01
  -8.440  0.1206E+01  0.1349E+01
  -8.430  0.1221E+01  0.1361E+01
  -8.420  0.1233E+01  0.1374E+01
  -8.410  0.1243E+01  0.1386E+01
  -8.400  0.1250E+01  0.1399E+01
  -8.390  0.1253E+01  0.1411E+01
  -8.380  0.1253E+01  0.1424E+01
  -8.370  0.1250E+01  0.1436E+01
  -8.360  0.1244E+01  0.1449E+01
  -8.350  0.1235E+01  0.1461E+01
  -8.340  0.1224E+01  0.1473E+01
  -8.330  0.1212E+01  0.1485E+01
  -8.320  0.1197E+01  0.1497E+01
  -8.310  0.1182E+01  0.1509E+01
  -8.300  0.1167E+01  0.1521E+01
  -8.290  0.1151E+01  0.1532E+01
  -8.280  0.1137E+01  0.1544E+01
  -8.270  0.1123E+01  0.1555E+01
  -8.260  0.1111E+01  0.1566E+01
  -8.250  0.1101E+01  0.1577E+01
  -8.240  0.1093E+01  0.1588E+01
  -8.230  0.1088E+01  0.1599E+01
  -8.220  0.1085E+01  0.1610E+01
  -8.210  0.1085E+01  0.1621E+01
  -8.200  0.1088E+01  0.1631E+01
  -8.190  0.1094E+01  0.1642E+01
  -8.180  0.1103E+01  0.1653E+01
  -8.170  0.1114E+01  0.1665E+01
  -8.160  0.1127E+01  0.1676E+01
  -8.150  0.1143E+01  0.1687E+01
  -8.140  0.1160E+01  0.1699E+01
  -8.130  0.1178E+01  0.1711E+01
  -8.120  0.1198E+01  0.1723E+01
  -8.110  0.1217E+01  0.1735E+01
  -8.100  0.1236E+01  0.1747E+01
  -8.090  0.1254E+01  0.1760E+01
  -8.080  0.1270E+01  0.1772E+01
  -8.070  0.1284E+01  0.1785E+01
  -8.060  0.1296E+01  0.1798E+01
  -8.050  0.1305E+01  0.1811E+01
  -8.040  0.1311E+01  0.1824E+01
  -8.030  0.1314E+01  0.1838E+01
  -8.020  0.1313E+01  0.1851E+01
  -8.010  0.1309E+01  0.1864E+01
  -8.000  0.1303E+01  0.1877E+01
  -7.990  0.1293E+01  0.1890E+01
  -7.980  0.1281E+01  0.1902E+01
  -7.970  0.1267E+01  0.1915E+01
  -7.960  0.1253E+01  0.1928E+01
  -7.950  0.1237E+01  0.1940E+01
  -7.940  0.1222E+01  0.1952E+01
  -7.930  0.1207E+01  0.1964E+01
  -7.920  0.1193E+01  0.1976E+01
  -7.910  0.1182E+01  0.1988E+01
  -7.900  0.1173E+01  0.2000E+01
  -7.890  0.1166E+01  0.2012E+01
  -7.880  0.1163E+01  0.2023E+01
  -7.870  0.1164E+01  0.2035E+01
  -7.860  0.1168E+01  0.2046E+01
  -7.850  0.1176E+01  0.2058E+01
  -7.840  0.1188E+01  0.2070E+01
  -7.830  0.1203E+01  0.2082E+01
  -7.820  0.1221E+01  0.2094E+01
  -7.810  0.1243E+01  0.2107E+01
  -7.800  0.1266E+01  0.2119E+01
  -7.790  0.1292E+01  0.2132E+01
  -7.780  0.1318E+01  0.2146E+01
  -7.770  0.1346E+01  0.2159E+01
  -7.760  0.1373E+01  0.2173E+01
  -7.750  0.1399E+01  0.2187E+01
  -7.740  0.1423E+01  0.2201E+01
  -7.730  0.1446E+01  0.2215E+01
  -7.720  0.1466E+01  0.2230E+01
  -7.710  0.1484E+01  0.2245E+01
  -7.700  0.1497E+01  0.2260E+01
  -7.690  0.1508E+01  0.2275E+01
  -7.680  0.1515E+01  0.2290E+01
  -7.670  0.1519E+01  0.2305E+01
  -7.660  0.1520E+01  0.2320E+01
  -7.650  0.1518E+01  0.2336E+01
  -7.640  0.1514E+01  0.2351E+01
  -7.630  0.1508E+01  0.2366E+01
  -7.620  0.1502E+01  0.2381E+01
  -7.610  0.1495E+01  0.2396E+01
  -7.600  0.1489E+01  0.2411E+01
  -7.590  0.1484E+01  0.2426E+01
  -7.580  0.1481E+01  0.2440E+01
  -7.570  0.1481E+01  0.2455E+01
  -7.560  0.1483E+01  0.2470E+01
  -7.550  0.1489E+01  0.2485E+01
  -7.540  0.1498E+01  0.2500E+01
  -7.530  0.1510E+01  0.2515E+01
  -7.520  0.1525E+01  0.2530E+01
  -7.510  0.1544E+01  0.2546E+01
  -7.500  0.1565E+01  0.2561E+01
  -7.490  0.1588E+01  0.2577E+01
  -7.480  0.1612E+01  0.2593E+01
  -7.470  0.1637E+01  0.2610E+01
  -7.460  0.1662E+01  0.2626E+01
  -7.450  0.1687E+01  0.2643E+01
  -7.440  0.1710E+01  0.2660E+01
  -7.430  0.1732E+01  0.2678E+01
  -7.420  0.1751E+01  0.2695E+01
  -7.410  0.1768E+01  0.2713E+01
  -7.400  0.1783E+01  0.2731E+01
  -7.390  0.1795E+01  0.2749E+01
  -7.380  0.1805E+01  0.2767E+01
  -7.370  0.1813E+01  0.2785E+01
  -7.360  0.1818E+01  0.2803E+01
  -7.350  0.1822E+01  0.2821E+01
  -7.340  0.1825E+01  0.2839E+01
  -7.330  0.1827E+01  0.2858E+01
  -7.320  0.1829E+01  0.2876E+01
  -7.310  0.1831E+01  0.2894E+01
  -7.300  0.1833E+01  0.2913E+01
  -7.290  0.1836E+01  0.2931E+01
  -7.280  0.1840E+01  0.2949E+01
  -7.270  0.1846E+01  0.2968E+01
  -7.260  0.1853E+01  0.2986E+01
  -7.250  0.1861E+01  0.3005E+01
  -7.240  0.1872E+01  0.3024E+01
  -7.230  0.1884E+01  0.3043E+01
  -7.220  0.1898E+01  0.3061E+01
  -7.210  0.1913E+01  0.3081E+01
  -7.200  0.1930E+01  0.3100E+01
  -7.190  0.1948E+01  0.3119E+01
  -7.180  0.1967E+01  0.3139E+01
  -7.170  0.1988E+01  0.3159E+01
  -7.160  0.2009E+01  0.3179E+01
  -7.150  0.2031E+01  0.3199E+01
  -7.140  0.2053E+01  0.3220E+01
  -7.130  0.2076E+01  0.3241E+01
  -7.120  0.2098E+01  0.3262E+01
  -7.110  0.2119E+01  0.3283E+01
  -7.100  0.2139E+01  0.3304E+01
  -7.090  0.2158E+01  0.3326E+01
  -7.080  0.2175E+01  0.3348E+01
  -7.070  0.2190E+01  0.3369E+01
  -7.060  0.2202E+01  0.3391E+01
  -7.050  0.2212E+01  0.3414E+01
  -7.040  0.2218E+01  0.3436E+01
  -7.030  0.2221E+01  0.3458E+01
  -7.020  0.2222E+01  0.3480E+01
  -7.010  0.2219E+01  0.3502E+01
  -7.000  0.2213E+01  0.3525E+01
  -6.990  0.2204E+01  0.3547E+01
  -6.980  0.2194E+01  0.3568E+01
  -6.970  0.2182E+01  0.3590E+01
  -6.960  0.2169E+01  0.3612E+01
  -6.950  0.2155E+01  0.3634E+01
  -6.940  0.2141E+01  0.3655E+01
  -6.930  0.2128E+01  0.3676E+01
  -6.920  0.2115E+01  0.3697E+01
  -6.910  0.2104E+01  0.3718E+01
  -6.900  0.2093E+01  0.3739E+01
  -6.890  0.2084E+01  0.3760E+01
  -6.880  0.2076E+01  0.3781E+01
  -6.870  0.2068E+01  0.3802E+01
  -6.860  0.2061E+01  0.3822E+01
  -6.850  0.2053E+01  0.3843E+01
  -6.840  0.2045E+01  0.3863E+01
  -6.830  0.2036E+01  0.3884E+01
  -6.820  0.2025E+01  0.3904E+01
  -6.810  0.2011E+01  0.3924E+01
  -6.800  0.1995E+01  0.3944E+01
  -6.790  0.1977E+01  0.3964E+01
  -6.780  0.1955E+01  0.3983E+01
  -6.770  0.1931E+01  0.4003E+01
  -6.760  0.1904E+01  0.4022E+01
  -6.750  0.1875E+01  0.4040E+01
  -6.740  0.1844E+01  0.4059E+01
  -6.730  0.1812E+01  0.4077E+01
  -6.720  0.1779E+01  0.4095E+01
  -6.710  0.1746E+01  0.4112E+01
  -6.700  0.1714E+01  0.4129E+01
  -6.690  0.1683E+01  0.4146E+01
  -6.680  0.1655E+01  0.4163E+01
  -6.670  0.1629E+01  0.4179E+01
  -6.660  0.1606E+01  0.4195E+01
  -6.650  0.1586E+01  0.4211E+01
  -6.640  0.1570E+01  0.4227E+01
  -6.630  0.1558E+01  0.4242E+01
  -6.620  0.1549E+01  0.4258E+01
  -6.610  0.1545E+01  0.4273E+01
  -6.600  0.1544E+01  0.4289E+01
  -6.590  0.1546E+01  0.4304E+01
  -6.580  0.1551E+01  0.4319E+01
  -6.570  0.1559E+01  0.4335E+01
  -6.560  0.1569E+01  0.4351E+01
  -6.550  0.1581E+01  0.4367E+01
  -6.540  0.1594E+01  0.4383E+01
  -6.530  0.1607E+01  0.4399E+01
  -6.520  0.1621E+01  0.4415E+01
  -6.510  0.1634E+01  0.4431E+01
  -6.500  0.1647E+01  0.4448E+01
  -6.490  0.1658E+01  0.4464E+01
  -6.480  0.1667E+01  0.4481E+01
  -6.470  0.1674E+01  0.4498E+01
  -6.460  0.1679E+01  0.4514E+01
  -6.450  0.1681E+01  0.4531E+01
  -6.440  0.1679E+01  0.4548E+01
  -6.430  0.1675E+01  0.4565E+01
  -6.420  0.1668E+01  0.4581E+01
  -6.410  0.1658E+01  0.4598E+01
  -6.400  0.1645E+01  0.4614E+01
  -6.390  0.1629E+01  0.4631E+01
  -6.380  0.1611E+01  0.4647E+01
  -6.370  0.1591E+01  0.4663E+01
  -6.360  0.1570E+01  0.4678E+01
  -6.350  0.1547E+01  0.4694E+01
  -6.340  0.1523E+01  0.4709E+01
  -6.330  0.1500E+01  0.4724E+01
  -6.320  0.1476E+01  0.4739E+01
  -6.310  0.1454E+01  0.4753E+01
  -6.300  0.1432E+01  0.4768E+01
  -6.290  0.1413E+01  0.4782E+01
  -6.280  0.1395E+01  0.4796E+01
  -6.270  0.1381E+01  0.4810E+01
  -6.260  0.1369E+01  0.4823E+01
  -6.250  0.1360E+01  0.4837E+01
  -6.240  0.1355E+01  0.4850E+01
  -6.230  0.1353E+01  0.4864E+01
  -6.220  0.1354E+01  0.4878E+01
  -6.210  0.1359E+01  0.4891E+01
  -6.200  0.1366E+01  0.4905E+01
  -6.190  0.1376E+01  0.4919E+01
  -6.180  0.1388E+01  0.4932E+01
  -6.170  0.1402E+01  0.4946E+01
  -6.160  0.1417E+01  0.4961E+01
  -6.150  0.1431E+01  0.4975E+01
  -6.140  0.1446E+01  0.4989E+01
  -6.130  0.1459E+01  0.5004E+01
  -6.120  0.1471E+01  0.5019E+01
  -6.110  0.1480E+01  0.5034E+01
  -6.100  0.1487E+01  0.5048E+01
  -6.090  0.1491E+01  0.5063E+01
  -6.080  0.1493E+01  0.5078E+01
  -6.070  0.1490E+01  0.5093E+01
  -6.060  0.1485E+01  0.5108E+01
  -6.050  0.1477E+01  0.5123E+01
  -6.040  0.1467E+01  0.5137E+01
  -6.030  0.1454E+01  0.5152E+01
  -6.020  0.1440E+01  0.5166E+01
  -6.010  0.1424E+01  0.5181E+01
  -6.000  0.1408E+01  0.5195E+01
  -5.990  0.1393E+01  0.5209E+01
  -5.980  0.1378E+01  0.5222E+01
  -5.970  0.1364E+01  0.5236E+01
  -5.960  0.1351E+01  0.5250E+01
  -5.950  0.1341E+01  0.5263E+01
  -5.940  0.1333E+01  0.5276E+01
  -5.930  0.1327E+01  0.5290E+01
  -5.920  0.1323E+01  0.5303E+01
  -5.910  0.1321E+01  0.5316E+01
  -5.900  0.1321E+01  0.5329E+01
  -5.890  0.1323E+01  0.5342E+01
  -5.880  0.1326E+01  0.5356E+01
  -5.870  0.1330E+01  0.5369E+01
  -5.860  0.1334E+01  0.5382E+01
  -5.850  0.1338E+01  0.5396E+01
  -5.840  0.1342E+01  0.5409E+01
  -5.830  0.1345E+01  0.5423E+01
  -5.820  0.1347E+01  0.5436E+01
  -5.810  0.1347E+01  0.5449E+01
  -5.800  0.1346E+01  0.5463E+01
  -5.790  0.1343E+01  0.5476E+01
  -5.780  0.1339E+01  0.5490E+01
  -5.770  0.1334E+01  0.5503E+01
  -5.760  0.1328E+01  0.5516E+01
  -5.750  0.1322E+01  0.5530E+01
  -5.740  0.1315E+01  0.5543E+01
  -5.730  0.1308E+01  0.5556E+01
  -5.720  0.1302E+01  0.5569E+01
  -5.710  0.1297E+01  0.5582E+01
  -5.700  0.1292E+01  0.5595E+01
  -5.690  0.1289E+01  0.5608E+01
  -5.680  0.1287E+01  0.5621E+01
  -5.670  0.1286E+01  0.5633E+01
  -5.660  0.1286E+01  0.5646E+01
  -5.650  0.1287E+01  0.5659E+01
  -5.640  0.1289E+01  0.5672E+01
  -5.630  0.1290E+01  0.5685E+01
  -5.620  0.1292E+01  0.5698E+01
  -5.610  0.1293E+01  0.5711E+01
  -5.600  0.1294E+01  0.5724E+01
  -5.590  0.1293E+01  0.5737E+01
  -5.580  0.1292E+01  0.5750E+01
  -5.570  0.1289E+01  0.5762E+01
  -5.560  0.1286E+01  0.5775E+01
  -5.550  0.1281E+01  0.5788E+01
  -5.540  0.1276E+01  0.5801E+01
  -5.530  0.1270E+01  0.5814E+01
  -5.520  0.1263E+01  0.5826E+01
  -5.510  0.1258E+01  0.5839E+01
  -5.500  0.1252E+01  0.5851E+01
  -5.490  0.1248E+01  0.5864E+01
  -5.480  0.1245E+01  0.5876E+01
  -5.470  0.1243E+01  0.5889E+01
  -5.460  0.1243E+01  0.5901E+01
  -5.450  0.1244E+01  0.5914E+01
  -5.440  0.1248E+01  0.5926E+01
  -5.430  0.1252E+01  0.5939E+01
  -5.420  0.1258E+01  0.5951E+01
  -5.410  0.1265E+01  0.5964E+01
  -5.400  0.1272E+01  0.5976E+01
  -5.390  0.1279E+01  0.5989E+01
  -5.380  0.1286E+01  0.6002E+01
  -5.370  0.1291E+01  0.6015E+01
  -5.360  0.1295E+01  0.6028E+01
  -5.350  0.1296E+01  0.6041E+01
  -5.340  0.1295E+01  0.6054E+01
  -5.330  0.1291E+01  0.6067E+01
  -5.320  0.1284E+01  0.6080E+01
  -5.310  0.1275E+01  0.6092E+01
  -5.300  0.1263E+01  0.6105E+01
  -5.290  0.1249E+01  0.6118E+01
  -5.280  0.1233E+01  0.6130E+01
  -5.270  0.1216E+01  0.6142E+01
  -5.260  0.1199E+01  0.6154E+01
  -5.250  0.1181E+01  0.6166E+01
  -5.240  0.1165E+01  0.6177E+01
  -5.230  0.1150E+01  0.6189E+01
  -5.220  0.1138E+01  0.6200E+01
  -5.210  0.1128E+01  0.6212E+01
  -5.200  0.1121E+01  0.6223E+01
  -5.190  0.1119E+01  0.6234E+01
  -5.180  0.1120E+01  0.6245E+01
  -5.170  0.1124E+01  0.6256E+01
  -5.160  0.1132E+01  0.6268E+01
  -5.150  0.1144E+01  0.6279E+01
  -5.140  0.1158E+01  0.6291E+01
  -5.130  0.1175E+01  0.6303E+01
  -5.120  0.1192E+01  0.6314E+01
  -5.110  0.1211E+01  0.6327E+01
  -5.100  0.1229E+01  0.6339E+01
  -5.090  0.1246E+01  0.6351E+01
  -5.080  0.1262E+01  0.6364E+01
  -5.070  0.1275E+01  0.6377E+01
  -5.060  0.1284E+01  0.6390E+01
  -5.050  0.1290E+01  0.6402E+01
  -5.040  0.1293E+01  0.6415E+01
  -5.030  0.1291E+01  0.6428E+01
  -5.020  0.1285E+01  0.6441E+01
  -5.010  0.1275E+01  0.6454E+01
  -5.000  0.1262E+01  0.6466E+01
  -4.990  0.1246E+01  0.6479E+01
  -4.980  0.1228E+01  0.6491E+01
  -4.970  0.1209E+01  0.6503E+01
  -4.960  0.1189E+01  0.6515E+01
  -4.950  0.1170E+01  0.6527E+01
  -4.940  0.1152E+01  0.6538E+01
  -4.930  0.1136E+01  0.6550E+01
  -4.920  0.1122E+01  0.6561E+01
  -4.910  0.1111E+01  0.6572E+01
  -4.900  0.1103E+01  0.6583E+01
  -4.890  0.1099E+01  0.6594E+01
  -4.880  0.1099E+01  0.6605E+01
  -4.870  0.1101E+01  0.6616E+01
  -4.860  0.1107E+01  0.6627E+01
  -4.850  0.1115E+01  0.6638E+01
  -4.840  0.1125E+01  0.6650E+01
  -4.830  0.1136E+01  0.6661E+01
  -4.820  0.1148E+01  0.6672E+01
  -4.810  0.1160E+01  0.6684E+01
  -4.800  0.1171E+01  0.6696E+01
  -4.790  0.1181E+01  0.6708E+01
  -4.780  0.1190E+01  0.6719E+01
  -4.770  0.1196E+01  0.6731E+01
  -4.760  0.1200E+01  0.6743E+01
  -4.750  0.1201E+01  0.6755E+01
  -4.740  0.1199E+01  0.6767E+01
  -4.730  0.1196E+01  0.6779E+01
  -4.720  0.1189E+01  0.6791E+01
  -4.710  0.1181E+01  0.6803E+01
  -4.700  0.1172E+01  0.6815E+01
  -4.690  0.1161E+01  0.6826E+01
  -4.680  0.1149E+01  0.6838E+01
  -4.670  0.1138E+01  0.6849E+01
  -4.660  0.1127E+01  0.6861E+01
  -4.650  0.1117E+01  0.6872E+01
  -4.640  0.1109E+01  0.6883E+01
  -4.630  0.1103E+01  0.6894E+01
  -4.620  0.1099E+01  0.6905E+01
  -4.610  0.1097E+01  0.6916E+01
  -4.600  0.1097E+01  0.6927E+01
  -4.590  0.1100E+01  0.6938E+01
  -4.580  0.1106E+01  0.6949E+01
  -4.570  0.1113E+01  0.6960E+01
  -4.560  0.1122E+01  0.6971E+01
  -4.550  0.1133E+01  0.6983E+01
  -4.540  0.1144E+01  0.6994E+01
  -4.530  0.1156E+01  0.7006E+01
  -4.520  0.1167E+01  0.7017E+01
  -4.510  0.1178E+01  0.7029E+01
  -4.500  0.1187E+01  0.7041E+01
  -4.490  0.1195E+01  0.7053E+01
  -4.480  0.1200E+01  0.7065E+01
  -4.470  0.1204E+01  0.7077E+01
  -4.460  0.1205E+01  0.7089E+01
  -4.450  0.1203E+01  0.7101E+01
  -4.440  0.1198E+01  0.7113E+01
  -4.430  0.1191E+01  0.7125E+01
  -4.420  0.1182E+01  0.7137E+01
  -4.410  0.1171E+01  0.7148E+01
  -4.400  0.1159E+01  0.7160E+01
  -4.390  0.1145E+01  0.7171E+01
  -4.380  0.1131E+01  0.7183E+01
  -4.370  0.1116E+01  0.7194E+01
  -4.360  0.1102E+01  0.7205E+01
  -4.350  0.1089E+01  0.7216E+01
  -4.340  0.1077E+01  0.7227E+01
  -4.330  0.1066E+01  0.7237E+01
  -4.320  0.1057E+01  0.7248E+01
  -4.310  0.1049E+01  0.7258E+01
  -4.300  0.1044E+01  0.7269E+01
  -4.290  0.1040E+01  0.7279E+01
  -4.280  0.1039E+01  0.7289E+01
  -4.270  0.1039E+01  0.7300E+01
  -4.260  0.1042E+01  0.7310E+01
  -4.250  0.1046E+01  0.7321E+01
  -4.240  0.1052E+01  0.7331E+01
  -4.230  0.1059E+01  0.7342E+01
  -4.220  0.1067E+01  0.7353E+01
  -4.210  0.1077E+01  0.7363E+01
  -4.200  0.1088E+01  0.7374E+01
  -4.190  0.1099E+01  0.7385E+01
  -4.180  0.1112E+01  0.7396E+01
  -4.170  0.1124E+01  0.7408E+01
  -4.160  0.1137E+01  0.7419E+01
  -4.150  0.1150E+01  0.7430E+01
  -4.140  0.1163E+01  0.7442E+01
  -4.130  0.1175E+01  0.7454E+01
  -4.120  0.1186E+01  0.7466E+01
  -4.110  0.1196E+01  0.7478E+01
  -4.100  0.1204E+01  0.7490E+01
  -4.090  0.1210E+01  0.7502E+01
  -4.080  0.1213E+01  0.7514E+01
  -4.070  0.1215E+01  0.7526E+01
  -4.060  0.1214E+01  0.7538E+01
  -4.050  0.1210E+01  0.7550E+01
  -4.040  0.1203E+01  0.7562E+01
  -4.030  0.1194E+01  0.7574E+01
  -4.020  0.1182E+01  0.7586E+01
  -4.010  0.1169E+01  0.7598E+01
  -4.000  0.1153E+01  0.7609E+01
  -3.990  0.1137E+01  0.7621E+01
  -3.980  0.1120E+01  0.7632E+01
  -3.970  0.1102E+01  0.7643E+01
  -3.960  0.1085E+01  0.7654E+01
  -3.950  0.1068E+01  0.7664E+01
  -3.940  0.1052E+01  0.7675E+01
  -3.930  0.1038E+01  0.7685E+01
  -3.920  0.1026E+01  0.7696E+01
  -3.910  0.1016E+01  0.7706E+01
  -3.900  0.1008E+01  0.7716E+01
  -3.890  0.1002E+01  0.7726E+01
  -3.880  0.9991E+00  0.7736E+01
  -3.870  0.9981E+00  0.7746E+01
  -3.860  0.9994E+00  0.7756E+01
  -3.850  0.1003E+01  0.7766E+01
  -3.840  0.1008E+01  0.7776E+01
  -3.830  0.1015E+01  0.7786E+01
  -3.820  0.1024E+01  0.7796E+01
  -3.810  0.1033E+01  0.7807E+01
  -3.800  0.1044E+01  0.7817E+01
  -3.790  0.1055E+01  0.7828E+01
  -3.780  0.1066E+01  0.7838E+01
  -3.770  0.1077E+01  0.7849E+01
  -3.760  0.1088E+01  0.7860E+01
  -3.750  0.1097E+01  0.7871E+01
  -3.740  0.1105E+01  0.7882E+01
  -3.730  0.1112E+01  0.7893E+01
  -3.720  0.1116E+01  0.7904E+01
  -3.710  0.1117E+01  0.7915E+01
  -3.700  0.1116E+01  0.7927E+01
  -3.690  0.1111E+01  0.7938E+01
  -3.680  0.1104E+01  0.7949E+01
  -3.670  0.1093E+01  0.7960E+01
  -3.660  0.1079E+01  0.7970E+01
  -3.650  0.1061E+01  0.7981E+01
  -3.640  0.1041E+01  0.7991E+01
  -3.630  0.1018E+01  0.8002E+01
  -3.620  0.9933E+00  0.8012E+01
  -3.610  0.9665E+00  0.8021E+01
  -3.600  0.9384E+00  0.8031E+01
  -3.590  0.9093E+00  0.8040E+01
  -3.580  0.8800E+00  0.8048E+01
  -3.570  0.8508E+00  0.8057E+01
  -3.560  0.8223E+00  0.8065E+01
  -3.550  0.7948E+00  0.8073E+01
  -3.540  0.7689E+00  0.8081E+01
  -3.530  0.7447E+00  0.8088E+01
  -3.520  0.7228E+00  0.8096E+01
  -3.510  0.7033E+00  0.8103E+01
  -3.500  0.6864E+00  0.8109E+01
  -3.490  0.6722E+00  0.8116E+01
  -3.480  0.6610E+00  0.8123E+01
  -3.470  0.6528E+00  0.8129E+01
  -3.460  0.6476E+00  0.8136E+01
  -3.450  0.6455E+00  0.8142E+01
  -3.440  0.6465E+00  0.8149E+01
  -3.430  0.6505E+00  0.8155E+01
  -3.420  0.6576E+00  0.8162E+01
  -3.410  0.6675E+00  0.8168E+01
  -3.400  0.6802E+00  0.8175E+01
  -3.390  0.6955E+00  0.8182E+01
  -3.380  0.7132E+00  0.8189E+01
  -3.370  0.7331E+00  0.8197E+01
  -3.360  0.7548E+00  0.8204E+01
  -3.350  0.7781E+00  0.8212E+01
  -3.340  0.8024E+00  0.8220E+01
  -3.330  0.8275E+00  0.8228E+01
  -3.320  0.8527E+00  0.8237E+01
  -3.310  0.8777E+00  0.8246E+01
  -3.300  0.9019E+00  0.8255E+01
  -3.290  0.9249E+00  0.8264E+01
  -3.280  0.9461E+00  0.8273E+01
  -3.270  0.9652E+00  0.8283E+01
  -3.260  0.9818E+00  0.8293E+01
  -3.250  0.9956E+00  0.8303E+01
  -3.240  0.1006E+01  0.8313E+01
  -3.230  0.1014E+01  0.8323E+01
  -3.220  0.1018E+01  0.8333E+01
  -3.210  0.1019E+01  0.8343E+01
  -3.200  0.1016E+01  0.8353E+01
  -3.190  0.1010E+01  0.8364E+01
  -3.180  0.1001E+01  0.8374E+01
  -3.170  0.9896E+00  0.8383E+01
  -3.160  0.9751E+00  0.8393E+01
  -3.150  0.9583E+00  0.8403E+01
  -3.140  0.9395E+00  0.8412E+01
  -3.130  0.9190E+00  0.8421E+01
  -3.120  0.8973E+00  0.8430E+01
  -3.110  0.8747E+00  0.8439E+01
  -3.100  0.8518E+00  0.8448E+01
  -3.090  0.8291E+00  0.8456E+01
  -3.080  0.8070E+00  0.8464E+01
  -3.070  0.7861E+00  0.8472E+01
  -3.060  0.7670E+00  0.8480E+01
  -3.050  0.7500E+00  0.8487E+01
  -3.040  0.7359E+00  0.8494E+01
  -3.030  0.7249E+00  0.8502E+01
  -3.020  0.7177E+00  0.8509E+01
  -3.010  0.7144E+00  0.8516E+01
  -3.000  0.7155E+00  0.8523E+01
  -2.990  0.7210E+00  0.8530E+01
  -2.980  0.7310E+00  0.8538E+01
  -2.970  0.7454E+00  0.8545E+01
  -2.960  0.7641E+00  0.8553E+01
  -2.950  0.7866E+00  0.8561E+01
  -2.940  0.8126E+00  0.8569E+01
  -2.930  0.8414E+00  0.8577E+01
  -2.920  0.8723E+00  0.8586E+01
  -2.910  0.9045E+00  0.8595E+01
  -2.900  0.9371E+00  0.8604E+01
  -2.890  0.9692E+00  0.8614E+01
  -2.880  0.9999E+00  0.8624E+01
  -2.870  0.1028E+01  0.8634E+01
  -2.860  0.1053E+01  0.8645E+01
  -2.850  0.1074E+01  0.8656E+01
  -2.840  0.1089E+01  0.8666E+01
  -2.830  0.1100E+01  0.8677E+01
  -2.820  0.1104E+01  0.8688E+01
  -2.810  0.1103E+01  0.8699E+01
  -2.800  0.1095E+01  0.8710E+01
  -2.790  0.1081E+01  0.8721E+01
  -2.780  0.1062E+01  0.8732E+01
  -2.770  0.1037E+01  0.8742E+01
  -2.760  0.1008E+01  0.8752E+01
  -2.750  0.9758E+00  0.8762E+01
  -2.740  0.9408E+00  0.8771E+01
  -2.730  0.9043E+00  0.8781E+01
  -2.720  0.8673E+00  0.8789E+01
  -2.710  0.8308E+00  0.8797E+01
  -2.700  0.7959E+00  0.8805E+01
  -2.690  0.7634E+00  0.8813E+01
  -2.680  0.7340E+00  0.8820E+01
  -2.670  0.7085E+00  0.8828E+01
  -2.660  0.6871E+00  0.8834E+01
  -2.650  0.6703E+00  0.8841E+01
  -2.640  0.6580E+00  0.8848E+01
  -2.630  0.6501E+00  0.8854E+01
  -2.620  0.6465E+00  0.8861E+01
  -2.610  0.6466E+00  0.8867E+01
  -2.600  0.6500E+00  0.8874E+01
  -2.590  0.6561E+00  0.8880E+01
  -2.580  0.6641E+00  0.8887E+01
  -2.570  0.6733E+00  0.8894E+01
  -2.560  0.6831E+00  0.8900E+01
  -2.550  0.6927E+00  0.8907E+01
  -2.540  0.7015E+00  0.8914E+01
  -2.530  0.7090E+00  0.8921E+01
  -2.520  0.7148E+00  0.8929E+01
  -2.510  0.7184E+00  0.8936E+01
  -2.500  0.7197E+00  0.8943E+01
  -2.490  0.7186E+00  0.8950E+01
  -2.480  0.7151E+00  0.8957E+01
  -2.470  0.7091E+00  0.8964E+01
  -2.460  0.7009E+00  0.8971E+01
  -2.450  0.6908E+00  0.8978E+01
  -2.440  0.6788E+00  0.8985E+01
  -2.430  0.6654E+00  0.8992E+01
  -2.420  0.6508E+00  0.8998E+01
  -2.410  0.6353E+00  0.9005E+01
  -2.400  0.6192E+00  0.9011E+01
  -2.390  0.6027E+00  0.9017E+01
  -2.380  0.5861E+00  0.9023E+01
  -2.370  0.5695E+00  0.9028E+01
  -2.360  0.5531E+00  0.9034E+01
  -2.350  0.5372E+00  0.9039E+01
  -2.340  0.5219E+00  0.9044E+01
  -2.330  0.5073E+00  0.9050E+01
  -2.320  0.4935E+00  0.9054E+01
  -2.310  0.4808E+00  0.9059E+01
  -2.300  0.4692E+00  0.9064E+01
  -2.290  0.4589E+00  0.9069E+01
  -2.280  0.4499E+00  0.9073E+01
  -2.270  0.4424E+00  0.9077E+01
  -2.260  0.4363E+00  0.9082E+01
  -2.250  0.4318E+00  0.9086E+01
  -2.240  0.4287E+00  0.9090E+01
  -2.230  0.4269E+00  0.9095E+01
  -2.220  0.4265E+00  0.9099E+01
  -2.210  0.4271E+00  0.9103E+01
  -2.200  0.4285E+00  0.9108E+01
  -2.190  0.4306E+00  0.9112E+01
  -2.180  0.4330E+00  0.9116E+01
  -2.170  0.4355E+00  0.9121E+01
  -2.160  0.4377E+00  0.9125E+01
  -2.150  0.4395E+00  0.9129E+01
  -2.140  0.4407E+00  0.9134E+01
  -2.130  0.4409E+00  0.9138E+01
  -2.120  0.4403E+00  0.9143E+01
  -2.110  0.4386E+00  0.9147E+01
  -2.100  0.4359E+00  0.9151E+01
  -2.090  0.4323E+00  0.9156E+01
  -2.080  0.4278E+00  0.9160E+01
  -2.070  0.4227E+00  0.9164E+01
  -2.060  0.4170E+00  0.9168E+01
  -2.050  0.4110E+00  0.9172E+01
  -2.040  0.4049E+00  0.9176E+01
  -2.030  0.3988E+00  0.9180E+01
  -2.020  0.3929E+00  0.9184E+01
  -2.010  0.3872E+00  0.9188E+01
  -2.000  0.3819E+00  0.9192E+01
  -1.990  0.3769E+00  0.9196E+01
  -1.980  0.3724E+00  0.9200E+01
  -1.970  0.3682E+00  0.9203E+01
  -1.960  0.3643E+00  0.9207E+01
  -1.950  0.3606E+00  0.9210E+01
  -1.940  0.3571E+00  0.9214E+01
  -1.930  0.3536E+00  0.9218E+01
  -1.920  0.3502E+00  0.9221E+01
  -1.910  0.3467E+00  0.9225E+01
  -1.900  0.3432E+00  0.9228E+01
  -1.890  0.3397E+00  0.9231E+01
  -1.880  0.3360E+00  0.9235E+01
  -1.870  0.3324E+00  0.9238E+01
  -1.860  0.3288E+00  0.9241E+01
  -1.850  0.3252E+00  0.9245E+01
  -1.840  0.3217E+00  0.9248E+01
  -1.830  0.3183E+00  0.9251E+01
  -1.820  0.3151E+00  0.9254E+01
  -1.810  0.3121E+00  0.9257E+01
  -1.800  0.3092E+00  0.9260E+01
  -1.790  0.3064E+00  0.9263E+01
  -1.780  0.3037E+00  0.9266E+01
  -1.770  0.3011E+00  0.9269E+01
  -1.760  0.2984E+00  0.9272E+01
  -1.750  0.2956E+00  0.9275E+01
  -1.740  0.2926E+00  0.9278E+01
  -1.730  0.2894E+00  0.9281E+01
  -1.720  0.2860E+00  0.9284E+01
  -1.710  0.2823E+00  0.9287E+01
  -1.700  0.2784E+00  0.9290E+01
  -1.690  0.2742E+00  0.9292E+01
  -1.680  0.2698E+00  0.9295E+01
  -1.670  0.2654E+00  0.9298E+01
  -1.660  0.2609E+00  0.9300E+01
  -1.650  0.2565E+00  0.9303E+01
  -1.640  0.2523E+00  0.9305E+01
  -1.630  0.2484E+00  0.9308E+01
  -1.620  0.2448E+00  0.9310E+01
  -1.610  0.2417E+00  0.9313E+01
  -1.600  0.2391E+00  0.9315E+01
  -1.590  0.2369E+00  0.9318E+01
  -1.580  0.2352E+00  0.9320E+01
  -1.570  0.2340E+00  0.9322E+01
  -1.560  0.2332E+00  0.9325E+01
  -1.550  0.2327E+00  0.9327E+01
  -1.540  0.2325E+00  0.9329E+01
  -1.530  0.2323E+00  0.9332E+01
  -1.520  0.2322E+00  0.9334E+01
  -1.510  0.2320E+00  0.9336E+01
  -1.500  0.2316E+00  0.9339E+01
  -1.490  0.2309E+00  0.9341E+01
  -1.480  0.2298E+00  0.9343E+01
  -1.470  0.2284E+00  0.9345E+01
  -1.460  0.2266E+00  0.9348E+01
  -1.450  0.2244E+00  0.9350E+01
  -1.440  0.2217E+00  0.9352E+01
  -1.430  0.2187E+00  0.9354E+01
  -1.420  0.2153E+00  0.9357E+01
  -1.410  0.2116E+00  0.9359E+01
  -1.400  0.2078E+00  0.9361E+01
  -1.390  0.2037E+00  0.9363E+01
  -1.380  0.1996E+00  0.9365E+01
  -1.370  0.1954E+00  0.9367E+01
  -1.360  0.1912E+00  0.9369E+01
  -1.350  0.1870E+00  0.9370E+01
  -1.340  0.1830E+00  0.9372E+01
  -1.330  0.1791E+00  0.9374E+01
  -1.320  0.1753E+00  0.9376E+01
  -1.310  0.1717E+00  0.9378E+01
  -1.300  0.1683E+00  0.9379E+01
  -1.290  0.1650E+00  0.9381E+01
  -1.280  0.1619E+00  0.9383E+01
  -1.270  0.1589E+00  0.9384E+01
  -1.260  0.1561E+00  0.9386E+01
  -1.250  0.1533E+00  0.9387E+01
  -1.240  0.1507E+00  0.9389E+01
  -1.230  0.1481E+00  0.9390E+01
  -1.220  0.1456E+00  0.9392E+01
  -1.210  0.1432E+00  0.9393E+01
  -1.200  0.1408E+00  0.9394E+01
  -1.190  0.1384E+00  0.9396E+01
  -1.180  0.1360E+00  0.9397E+01
  -1.170  0.1337E+00  0.9399E+01
  -1.160  0.1315E+00  0.9400E+01
  -1.150  0.1294E+00  0.9401E+01
  -1.140  0.1273E+00  0.9402E+01
  -1.130  0.1254E+00  0.9404E+01
  -1.120  0.1237E+00  0.9405E+01
  -1.110  0.1221E+00  0.9406E+01
  -1.100  0.1207E+00  0.9407E+01
  -1.090  0.1194E+00  0.9409E+01
  -1.080  0.1182E+00  0.9410E+01
  -1.070  0.1172E+00  0.9411E+01
  -1.060  0.1163E+00  0.9412E+01
  -1.050  0.1153E+00  0.9413E+01
  -1.040  0.1144E+00  0.9414E+01
  -1.030  0.1133E+00  0.9416E+01
  -1.020  0.1122E+00  0.9417E+01
  -1.010  0.1109E+00  0.9418E+01
  -1.000  0.1093E+00  0.9419E+01
  -0.990  0.1075E+00  0.9420E+01
  -0.980  0.1054E+00  0.9421E+01
  -0.970  0.1030E+00  0.9422E+01
  -0.960  0.1003E+00  0.9423E+01
  -0.950  0.9726E-01  0.9424E+01
  -0.940  0.9393E-01  0.9425E+01
  -0.930  0.9034E-01  0.9426E+01
  -0.920  0.8651E-01  0.9427E+01
  -0.910  0.8249E-01  0.9427E+01
  -0.900  0.7834E-01  0.9428E+01
  -0.890  0.7411E-01  0.9429E+01
  -0.880  0.6986E-01  0.9430E+01
  -0.870  0.6566E-01  0.9430E+01
  -0.860  0.6156E-01  0.9431E+01
  -0.850  0.5762E-01  0.9432E+01
  -0.840  0.5390E-01  0.9432E+01
  -0.830  0.5046E-01  0.9433E+01
  -0.820  0.4732E-01  0.9433E+01
  -0.810  0.4454E-01  0.9434E+01
  -0.800  0.4212E-01  0.9434E+01
  -0.790  0.4010E-01  0.9434E+01
  -0.780  0.3847E-01  0.9435E+01
  -0.770  0.3721E-01  0.9435E+01
  -0.760  0.3632E-01  0.9435E+01
  -0.750  0.3577E-01  0.9436E+01
  -0.740  0.3551E-01  0.9436E+01
  -0.730  0.3549E-01  0.9437E+01
  -0.720  0.3568E-01  0.9437E+01
  -0.710  0.3602E-01  0.9437E+01
  -0.700  0.3645E-01  0.9438E+01
  -0.690  0.3693E-01  0.9438E+01
  -0.680  0.3742E-01  0.9438E+01
  -0.670  0.3788E-01  0.9439E+01
  -0.660  0.3829E-01  0.9439E+01
  -0.650  0.3863E-01  0.9440E+01
  -0.640  0.3890E-01  0.9440E+01
  -0.630  0.3909E-01  0.9440E+01
  -0.620  0.3921E-01  0.9441E+01
  -0.610  0.3927E-01  0.9441E+01
  -0.600  0.3929E-01  0.9441E+01
  -0.590  0.3929E-01  0.9442E+01
  -0.580  0.3927E-01  0.9442E+01
  -0.570  0.3924E-01  0.9443E+01
  -0.560  0.3921E-01  0.9443E+01
  -0.550  0.3917E-01  0.9443E+01
  -0.540  0.3911E-01  0.9444E+01
  -0.530  0.3902E-01  0.9444E+01
  -0.520  0.3889E-01  0.9445E+01
  -0.510  0.3868E-01  0.9445E+01
  -0.500  0.3839E-01  0.9445E+01
  -0.490  0.3799E-01  0.9446E+01
  -0.480  0.3748E-01  0.9446E+01
  -0.470  0.3685E-01  0.9446E+01
  -0.460  0.3611E-01  0.9447E+01
  -0.450  0.3526E-01  0.9447E+01
  -0.440  0.3434E-01  0.9448E+01
  -0.430  0.3338E-01  0.9448E+01
  -0.420  0.3242E-01  0.9448E+01
  -0.410  0.3151E-01  0.9449E+01
  -0.400  0.3071E-01  0.9449E+01
  -0.390  0.3006E-01  0.9449E+01
  -0.380  0.2964E-01  0.9449E+01
  -0.370  0.2947E-01  0.9450E+01
  -0.360  0.2963E-01  0.9450E+01
  -0.350  0.3014E-01  0.9450E+01
  -0.340  0.3104E-01  0.9451E+01
  -0.330  0.3236E-01  0.9451E+01
  -0.320  0.3410E-01  0.9451E+01
  -0.310  0.3628E-01  0.9452E+01
  -0.300  0.3890E-01  0.9452E+01
  -0.290  0.4194E-01  0.9452E+01
  -0.280  0.4538E-01  0.9453E+01
  -0.270  0.4920E-01  0.9453E+01
  -0.260  0.5337E-01  0.9454E+01
  -0.250  0.5785E-01  0.9455E+01
  -0.240  0.6260E-01  0.9455E+01
  -0.230  0.6757E-01  0.9456E+01
  -0.220  0.7270E-01  0.9457E+01
  -0.210  0.7794E-01  0.9457E+01
  -0.200  0.8321E-01  0.9458E+01
  -0.190  0.8846E-01  0.9459E+01
  -0.180  0.9360E-01  0.9460E+01
  -0.170  0.9857E-01  0.9461E+01
  -0.160  0.1033E+00  0.9462E+01
  -0.150  0.1077E+00  0.9463E+01
  -0.140  0.1117E+00  0.9464E+01
  -0.130  0.1153E+00  0.9465E+01
  -0.120  0.1185E+00  0.9467E+01
  -0.110  0.1211E+00  0.9468E+01
  -0.100  0.1233E+00  0.9469E+01
  -0.090  0.1249E+00  0.9470E+01
  -0.080  0.1262E+00  0.9471E+01
  -0.070  0.1270E+00  0.9473E+01
  -0.060  0.1274E+00  0.9474E+01
  -0.050  0.1276E+00  0.9475E+01
  -0.040  0.1275E+00  0.9477E+01
  -0.030  0.1274E+00  0.9478E+01
  -0.020  0.1271E+00  0.9479E+01
  -0.010  0.1269E+00  0.9480E+01
   0.000  0.1268E+00  0.9482E+01
   0.010  0.1267E+00  0.9483E+01
   0.020  0.1269E+00  0.9484E+01
   0.030  0.1272E+00  0.9485E+01
   0.040  0.1278E+00  0.9487E+01
   0.050  0.1287E+00  0.9488E+01
   0.060  0.1298E+00  0.9489E+01
   0.070  0.1314E+00  0.9491E+01
   0.080  0.1332E+00  0.9492E+01
   0.090  0.1355E+00  0.9493E+01
   0.100  0.1383E+00  0.9495E+01
   0.110  0.1417E+00  0.9496E+01
   0.120  0.1456E+00  0.9498E+01
   0.130  0.1502E+00  0.9499E+01
   0.140  0.1555E+00  0.9501E+01
   0.150  0.1615E+00  0.9502E+01
   0.160  0.1683E+00  0.9504E+01
   0.170  0.1759E+00  0.9506E+01
   0.180  0.1841E+00  0.9508E+01
   0.190  0.1929E+00  0.9509E+01
   0.200  0.2022E+00  0.9512E+01
   0.210  0.2118E+00  0.9514E+01
   0.220  0.2216E+00  0.9516E+01
   0.230  0.2314E+00  0.9518E+01
   0.240  0.2409E+00  0.9521E+01
   0.250  0.2500E+00  0.9523E+01
   0.260  0.2583E+00  0.9526E+01
   0.270  0.2658E+00  0.9528E+01
   0.280  0.2722E+00  0.9531E+01
   0.290  0.2773E+00  0.9534E+01
   0.300  0.2812E+00  0.9537E+01
   0.310  0.2836E+00  0.9539E+01
   0.320  0.2846E+00  0.9542E+01
   0.330  0.2842E+00  0.9545E+01
   0.340  0.2825E+00  0.9548E+01
   0.350  0.2795E+00  0.9551E+01
   0.360  0.2755E+00  0.9554E+01
   0.370  0.2706E+00  0.9556E+01
   0.380  0.2650E+00  0.9559E+01
   0.390  0.2590E+00  0.9561E+01
   0.400  0.2528E+00  0.9564E+01
   0.410  0.2468E+00  0.9566E+01
   0.420  0.2412E+00  0.9569E+01
   0.430  0.2363E+00  0.9571E+01
   0.440  0.2323E+00  0.9574E+01
   0.450  0.2297E+00  0.9576E+01
   0.460  0.2287E+00  0.9578E+01
   0.470  0.2294E+00  0.9580E+01
   0.480  0.2321E+00  0.9583E+01
   0.490  0.2369E+00  0.9585E+01
   0.500  0.2441E+00  0.9588E+01
   0.510  0.2536E+00  0.9590E+01
   0.520  0.2654E+00  0.9593E+01
   0.530  0.2795E+00  0.9596E+01
   0.540  0.2958E+00  0.9598E+01
   0.550  0.3140E+00  0.9602E+01
   0.560  0.3338E+00  0.9605E+01
   0.570  0.3550E+00  0.9609E+01
   0.580  0.3772E+00  0.9612E+01
   0.590  0.3999E+00  0.9616E+01
   0.600  0.4226E+00  0.9621E+01
   0.610  0.4449E+00  0.9625E+01
   0.620  0.4664E+00  0.9630E+01
   0.630  0.4865E+00  0.9634E+01
   0.640  0.5049E+00  0.9640E+01
   0.650  0.5213E+00  0.9645E+01
   0.660  0.5353E+00  0.9650E+01
   0.670  0.5469E+00  0.9656E+01
   0.680  0.5558E+00  0.9661E+01
   0.690  0.5621E+00  0.9667E+01
   0.700  0.5661E+00  0.9672E+01
   0.710  0.5678E+00  0.9678E+01
   0.720  0.5677E+00  0.9684E+01
   0.730  0.5662E+00  0.9689E+01
   0.740  0.5638E+00  0.9695E+01
   0.750  0.5611E+00  0.9701E+01
   0.760  0.5586E+00  0.9706E+01
   0.770  0.5570E+00  0.9712E+01
   0.780  0.5570E+00  0.9717E+01
   0.790  0.5591E+00  0.9723E+01
   0.800  0.5639E+00  0.9729E+01
   0.810  0.5717E+00  0.9734E+01
   0.820  0.5831E+00  0.9740E+01
   0.830  0.5982E+00  0.9746E+01
   0.840  0.6171E+00  0.9752E+01
   0.850  0.6399E+00  0.9759E+01
   0.860  0.6663E+00  0.9765E+01
   0.870  0.6961E+00  0.9772E+01
   0.880  0.7288E+00  0.9780E+01
   0.890  0.7639E+00  0.9787E+01
   0.900  0.8007E+00  0.9795E+01
   0.910  0.8384E+00  0.9804E+01
   0.920  0.8762E+00  0.9812E+01
   0.930  0.9132E+00  0.9822E+01
   0.940  0.9487E+00  0.9831E+01
   0.950  0.9818E+00  0.9841E+01
   0.960  0.1012E+01  0.9851E+01
   0.970  0.1038E+01  0.9861E+01
   0.980  0.1059E+01  0.9872E+01
   0.990  0.1076E+01  0.9883E+01
   1.000  0.1088E+01  0.9894E+01
   1.010  0.1095E+01  0.9905E+01
   1.020  0.1096E+01  0.9916E+01
   1.030  0.1093E+01  0.9926E+01
   1.040  0.1085E+01  0.9937E+01
   1.050  0.1073E+01  0.9948E+01
   1.060  0.1058E+01  0.9959E+01
   1.070  0.1040E+01  0.9969E+01
   1.080  0.1019E+01  0.9979E+01
   1.090  0.9974E+00  0.9989E+01
   1.100  0.9748E+00  0.9999E+01
   1.110  0.9523E+00  0.1001E+02
   1.120  0.9304E+00  0.1002E+02
   1.130  0.9098E+00  0.1003E+02
   1.140  0.8909E+00  0.1004E+02
   1.150  0.8742E+00  0.1004E+02
   1.160  0.8601E+00  0.1005E+02
   1.170  0.8486E+00  0.1006E+02
   1.180  0.8401E+00  0.1007E+02
   1.190  0.8343E+00  0.1008E+02
   1.200  0.8314E+00  0.1009E+02
   1.210  0.8312E+00  0.1009E+02
   1.220  0.8333E+00  0.1010E+02
   1.230  0.8377E+00  0.1011E+02
   1.240  0.8438E+00  0.1012E+02
   1.250  0.8515E+00  0.1013E+02
   1.260  0.8603E+00  0.1014E+02
   1.270  0.8699E+00  0.1015E+02
   1.280  0.8800E+00  0.1015E+02
   1.290  0.8901E+00  0.1016E+02
   1.300  0.9002E+00  0.1017E+02
   1.310  0.9099E+00  0.1018E+02
   1.320  0.9190E+00  0.1019E+02
   1.330  0.9273E+00  0.1020E+02
   1.340  0.9348E+00  0.1021E+02
   1.350  0.9412E+00  0.1022E+02
   1.360  0.9467E+00  0.1023E+02
   1.370  0.9510E+00  0.1024E+02
   1.380  0.9541E+00  0.1025E+02
   1.390  0.9560E+00  0.1026E+02
   1.400  0.9567E+00  0.1027E+02
   1.410  0.9559E+00  0.1028E+02
   1.420  0.9538E+00  0.1029E+02
   1.430  0.9503E+00  0.1030E+02
   1.440  0.9452E+00  0.1030E+02
   1.450  0.9387E+00  0.1031E+02
   1.460  0.9305E+00  0.1032E+02
   1.470  0.9209E+00  0.1033E+02
   1.480  0.9097E+00  0.1034E+02
   1.490  0.8970E+00  0.1035E+02
   1.500  0.8830E+00  0.1036E+02
   1.510  0.8678E+00  0.1037E+02
   1.520  0.8516E+00  0.1038E+02
   1.530  0.8346E+00  0.1038E+02
   1.540  0.8169E+00  0.1039E+02
   1.550  0.7989E+00  0.1040E+02
   1.560  0.7808E+00  0.1041E+02
   1.570  0.7629E+00  0.1042E+02
   1.580  0.7455E+00  0.1042E+02
   1.590  0.7288E+00  0.1043E+02
   1.600  0.7130E+00  0.1044E+02
   1.610  0.6985E+00  0.1045E+02
   1.620  0.6852E+00  0.1045E+02
   1.630  0.6735E+00  0.1046E+02
   1.640  0.6633E+00  0.1047E+02
   1.650  0.6546E+00  0.1047E+02
   1.660  0.6476E+00  0.1048E+02
   1.670  0.6420E+00  0.1049E+02
   1.680  0.6379E+00  0.1049E+02
   1.690  0.6350E+00  0.1050E+02
   1.700  0.6332E+00  0.1050E+02
   1.710  0.6323E+00  0.1051E+02
   1.720  0.6320E+00  0.1052E+02
   1.730  0.6323E+00  0.1052E+02
   1.740  0.6330E+00  0.1053E+02
   1.750  0.6338E+00  0.1054E+02
   1.760  0.6348E+00  0.1054E+02
   1.770  0.6358E+00  0.1055E+02
   1.780  0.6367E+00  0.1055E+02
   1.790  0.6377E+00  0.1056E+02
   1.800  0.6388E+00  0.1057E+02
   1.810  0.6399E+00  0.1057E+02
   1.820  0.6412E+00  0.1058E+02
   1.830  0.6428E+00  0.1059E+02
   1.840  0.6447E+00  0.1059E+02
   1.850  0.6469E+00  0.1060E+02
   1.860  0.6495E+00  0.1061E+02
   1.870  0.6525E+00  0.1061E+02
   1.880  0.6558E+00  0.1062E+02
   1.890  0.6592E+00  0.1063E+02
   1.900  0.6627E+00  0.1063E+02
   1.910  0.6661E+00  0.1064E+02
   1.920  0.6691E+00  0.1065E+02
   1.930  0.6716E+00  0.1065E+02
   1.940  0.6732E+00  0.1066E+02
   1.950  0.6738E+00  0.1067E+02
   1.960  0.6731E+00  0.1067E+02
   1.970  0.6710E+00  0.1068E+02
   1.980  0.6673E+00  0.1069E+02
   1.990  0.6619E+00  0.1069E+02
   2.000  0.6548E+00  0.1070E+02
   2.010  0.6460E+00  0.1071E+02
   2.020  0.6356E+00  0.1071E+02
   2.030  0.6239E+00  0.1072E+02
   2.040  0.6109E+00  0.1072E+02
   2.050  0.5971E+00  0.1073E+02
   2.060  0.5828E+00  0.1074E+02
   2.070  0.5684E+00  0.1074E+02
   2.080  0.5542E+00  0.1075E+02
   2.090  0.5407E+00  0.1075E+02
   2.100  0.5283E+00  0.1076E+02
   2.110  0.5173E+00  0.1076E+02
   2.120  0.5080E+00  0.1077E+02
   2.130  0.5007E+00  0.1077E+02
   2.140  0.4956E+00  0.1078E+02
   2.150  0.4927E+00  0.1078E+02
   2.160  0.4920E+00  0.1079E+02
   2.170  0.4935E+00  0.1079E+02
   2.180  0.4971E+00  0.1080E+02
   2.190  0.5024E+00  0.1080E+02
   2.200  0.5092E+00  0.1081E+02
   2.210  0.5171E+00  0.1081E+02
   2.220  0.5259E+00  0.1082E+02
   2.230  0.5350E+00  0.1082E+02
   2.240  0.5441E+00  0.1083E+02
   2.250  0.5528E+00  0.1084E+02
   2.260  0.5608E+00  0.1084E+02
   2.270  0.5677E+00  0.1085E+02
   2.280  0.5734E+00  0.1085E+02
   2.290  0.5777E+00  0.1086E+02
   2.300  0.5804E+00  0.1086E+02
   2.310  0.5817E+00  0.1087E+02
   2.320  0.5814E+00  0.1088E+02
   2.330  0.5799E+00  0.1088E+02
   2.340  0.5772E+00  0.1089E+02
   2.350  0.5737E+00  0.1089E+02
   2.360  0.5696E+00  0.1090E+02
   2.370  0.5654E+00  0.1090E+02
   2.380  0.5612E+00  0.1091E+02
   2.390  0.5575E+00  0.1092E+02
   2.400  0.5547E+00  0.1092E+02
   2.410  0.5529E+00  0.1093E+02
   2.420  0.5523E+00  0.1093E+02
   2.430  0.5533E+00  0.1094E+02
   2.440  0.5558E+00  0.1094E+02
   2.450  0.5598E+00  0.1095E+02
   2.460  0.5654E+00  0.1095E+02
   2.470  0.5722E+00  0.1096E+02
   2.480  0.5803E+00  0.1097E+02
   2.490  0.5891E+00  0.1097E+02
   2.500  0.5985E+00  0.1098E+02
   2.510  0.6081E+00  0.1098E+02
   2.520  0.6176E+00  0.1099E+02
   2.530  0.6265E+00  0.1100E+02
   2.540  0.6346E+00  0.1100E+02
   2.550  0.6415E+00  0.1101E+02
   2.560  0.6472E+00  0.1102E+02
   2.570  0.6514E+00  0.1102E+02
   2.580  0.6540E+00  0.1103E+02
   2.590  0.6552E+00  0.1103E+02
   2.600  0.6550E+00  0.1104E+02
   2.610  0.6536E+00  0.1105E+02
   2.620  0.6513E+00  0.1105E+02
   2.630  0.6482E+00  0.1106E+02
   2.640  0.6448E+00  0.1107E+02
   2.650  0.6415E+00  0.1107E+02
   2.660  0.6384E+00  0.1108E+02
   2.670  0.6361E+00  0.1109E+02
   2.680  0.6347E+00  0.1109E+02
   2.690  0.6345E+00  0.1110E+02
   2.700  0.6357E+00  0.1111E+02
   2.710  0.6385E+00  0.1111E+02
   2.720  0.6428E+00  0.1112E+02
   2.730  0.6488E+00  0.1112E+02
   2.740  0.6563E+00  0.1113E+02
   2.750  0.6653E+00  0.1114E+02
   2.760  0.6755E+00  0.1114E+02
   2.770  0.6868E+00  0.1115E+02
   2.780  0.6990E+00  0.1116E+02
   2.790  0.7117E+00  0.1117E+02
   2.800  0.7247E+00  0.1117E+02
   2.810  0.7377E+00  0.1118E+02
   2.820  0.7504E+00  0.1119E+02
   2.830  0.7625E+00  0.1120E+02
   2.840  0.7737E+00  0.1120E+02
   2.850  0.7840E+00  0.1121E+02
   2.860  0.7930E+00  0.1122E+02
   2.870  0.8006E+00  0.1123E+02
   2.880  0.8067E+00  0.1124E+02
   2.890  0.8114E+00  0.1124E+02
   2.900  0.8146E+00  0.1125E+02
   2.910  0.8165E+00  0.1126E+02
   2.920  0.8172E+00  0.1127E+02
   2.930  0.8169E+00  0.1128E+02
   2.940  0.8158E+00  0.1128E+02
   2.950  0.8143E+00  0.1129E+02
   2.960  0.8126E+00  0.1130E+02
   2.970  0.8110E+00  0.1131E+02
   2.980  0.8098E+00  0.1132E+02
   2.990  0.8092E+00  0.1132E+02
   3.000  0.8095E+00  0.1133E+02
   3.010  0.8107E+00  0.1134E+02
   3.020  0.8129E+00  0.1135E+02
   3.030  0.8162E+00  0.1136E+02
   3.040  0.8204E+00  0.1137E+02
   3.050  0.8256E+00  0.1137E+02
   3.060  0.8315E+00  0.1138E+02
   3.070  0.8380E+00  0.1139E+02
   3.080  0.8448E+00  0.1140E+02
   3.090  0.8517E+00  0.1141E+02
   3.100  0.8584E+00  0.1142E+02
   3.110  0.8647E+00  0.1142E+02
   3.120  0.8706E+00  0.1143E+02
   3.130  0.8757E+00  0.1144E+02
   3.140  0.8801E+00  0.1145E+02
   3.150  0.8838E+00  0.1146E+02
   3.160  0.8866E+00  0.1147E+02
   3.170  0.8887E+00  0.1148E+02
   3.180  0.8901E+00  0.1149E+02
   3.190  0.8911E+00  0.1150E+02
   3.200  0.8916E+00  0.1150E+02
   3.210  0.8919E+00  0.1151E+02
   3.220  0.8920E+00  0.1152E+02
   3.230  0.8921E+00  0.1153E+02
   3.240  0.8923E+00  0.1154E+02
   3.250  0.8926E+00  0.1155E+02
   3.260  0.8929E+00  0.1156E+02
   3.270  0.8934E+00  0.1157E+02
   3.280  0.8940E+00  0.1158E+02
   3.290  0.8946E+00  0.1158E+02
   3.300  0.8951E+00  0.1159E+02
   3.310  0.8955E+00  0.1160E+02
   3.320  0.8958E+00  0.1161E+02
   3.330  0.8959E+00  0.1162E+02
   3.340  0.8958E+00  0.1163E+02
   3.350  0.8956E+00  0.1164E+02
   3.360  0.8953E+00  0.1165E+02
   3.370  0.8949E+00  0.1166E+02
   3.380  0.8947E+00  0.1167E+02
   3.390  0.8947E+00  0.1167E+02
   3.400  0.8949E+00  0.1168E+02
   3.410  0.8956E+00  0.1169E+02
   3.420  0.8968E+00  0.1170E+02
   3.430  0.8984E+00  0.1171E+02
   3.440  0.9006E+00  0.1172E+02
   3.450  0.9032E+00  0.1173E+02
   3.460  0.9060E+00  0.1174E+02
   3.470  0.9091E+00  0.1175E+02
   3.480  0.9120E+00  0.1176E+02
   3.490  0.9146E+00  0.1176E+02
   3.500  0.9165E+00  0.1177E+02
   3.510  0.9177E+00  0.1178E+02
   3.520  0.9177E+00  0.1179E+02
   3.530  0.9165E+00  0.1180E+02
   3.540  0.9139E+00  0.1181E+02
   3.550  0.9098E+00  0.1182E+02
   3.560  0.9043E+00  0.1183E+02
   3.570  0.8975E+00  0.1184E+02
   3.580  0.8895E+00  0.1185E+02
   3.590  0.8807E+00  0.1185E+02
   3.600  0.8713E+00  0.1186E+02
   3.610  0.8618E+00  0.1187E+02
   3.620  0.8525E+00  0.1188E+02
   3.630  0.8437E+00  0.1189E+02
   3.640  0.8359E+00  0.1190E+02
   3.650  0.8294E+00  0.1191E+02
   3.660  0.8243E+00  0.1191E+02
   3.670  0.8208E+00  0.1192E+02
   3.680  0.8191E+00  0.1193E+02
   3.690  0.8189E+00  0.1194E+02
   3.700  0.8204E+00  0.1195E+02
   3.710  0.8232E+00  0.1196E+02
   3.720  0.8272E+00  0.1196E+02
   3.730  0.8320E+00  0.1197E+02
   3.740  0.8375E+00  0.1198E+02
   3.750  0.8433E+00  0.1199E+02
   3.760  0.8491E+00  0.1200E+02
   3.770  0.8548E+00  0.1201E+02
   3.780  0.8602E+00  0.1201E+02
   3.790  0.8652E+00  0.1202E+02
   3.800  0.8696E+00  0.1203E+02
   3.810  0.8734E+00  0.1204E+02
   3.820  0.8768E+00  0.1205E+02
   3.830  0.8797E+00  0.1206E+02
   3.840  0.8823E+00  0.1207E+02
   3.850  0.8845E+00  0.1208E+02
   3.860  0.8867E+00  0.1208E+02
   3.870  0.8887E+00  0.1209E+02
   3.880  0.8908E+00  0.1210E+02
   3.890  0.8929E+00  0.1211E+02
   3.900  0.8952E+00  0.1212E+02
   3.910  0.8975E+00  0.1213E+02
   3.920  0.9000E+00  0.1214E+02
   3.930  0.9027E+00  0.1215E+02
   3.940  0.9055E+00  0.1216E+02
   3.950  0.9085E+00  0.1217E+02
   3.960  0.9116E+00  0.1217E+02
   3.970  0.9150E+00  0.1218E+02
   3.980  0.9187E+00  0.1219E+02
   3.990  0.9227E+00  0.1220E+02
   4.000  0.9272E+00  0.1221E+02
   4.010  0.9321E+00  0.1222E+02
   4.020  0.9375E+00  0.1223E+02
   4.030  0.9434E+00  0.1224E+02
   4.040  0.9500E+00  0.1225E+02
   4.050  0.9571E+00  0.1226E+02
   4.060  0.9646E+00  0.1227E+02
   4.070  0.9725E+00  0.1228E+02
   4.080  0.9807E+00  0.1229E+02
   4.090  0.9889E+00  0.1230E+02
   4.100  0.9970E+00  0.1231E+02
   4.110  0.1005E+01  0.1232E+02
   4.120  0.1012E+01  0.1233E+02
   4.130  0.1019E+01  0.1234E+02
   4.140  0.1024E+01  0.1235E+02
   4.150  0.1029E+01  0.1236E+02
   4.160  0.1032E+01  0.1237E+02
   4.170  0.1035E+01  0.1238E+02
   4.180  0.1036E+01  0.1239E+02
   4.190  0.1036E+01  0.1240E+02
   4.200  0.1036E+01  0.1241E+02
   4.210  0.1035E+01  0.1242E+02
   4.220  0.1033E+01  0.1243E+02
   4.230  0.1031E+01  0.1244E+02
   4.240  0.1030E+01  0.1245E+02
   4.250  0.1028E+01  0.1246E+02
   4.260  0.1028E+01  0.1247E+02
   4.270  0.1028E+01  0.1248E+02
   4.280  0.1029E+01  0.1249E+02
   4.290  0.1031E+01  0.1250E+02
   4.300  0.1034E+01  0.1251E+02
   4.310  0.1038E+01  0.1252E+02
   4.320  0.1042E+01  0.1253E+02
   4.330  0.1048E+01  0.1254E+02
   4.340  0.1054E+01  0.1255E+02
   4.350  0.1060E+01  0.1257E+02
   4.360  0.1066E+01  0.1258E+02
   4.370  0.1072E+01  0.1259E+02
   4.380  0.1077E+01  0.1260E+02
   4.390  0.1082E+01  0.1261E+02
   4.400  0.1086E+01  0.1262E+02
   4.410  0.1088E+01  0.1263E+02
   4.420  0.1090E+01  0.1264E+02
   4.430  0.1090E+01  0.1265E+02
   4.440  0.1088E+01  0.1266E+02
   4.450  0.1086E+01  0.1267E+02
   4.460  0.1082E+01  0.1268E+02
   4.470  0.1078E+01  0.1270E+02
   4.480  0.1073E+01  0.1271E+02
   4.490  0.1067E+01  0.1272E+02
   4.500  0.1061E+01  0.1273E+02
   4.510  0.1055E+01  0.1274E+02
   4.520  0.1050E+01  0.1275E+02
   4.530  0.1044E+01  0.1276E+02
   4.540  0.1039E+01  0.1277E+02
   4.550  0.1035E+01  0.1278E+02
   4.560  0.1032E+01  0.1279E+02
   4.570  0.1029E+01  0.1280E+02
   4.580  0.1026E+01  0.1281E+02
   4.590  0.1025E+01  0.1282E+02
   4.600  0.1024E+01  0.1283E+02
   4.610  0.1024E+01  0.1284E+02
   4.620  0.1024E+01  0.1285E+02
   4.630  0.1025E+01  0.1286E+02
   4.640  0.1026E+01  0.1287E+02
   4.650  0.1028E+01  0.1288E+02
   4.660  0.1030E+01  0.1289E+02
   4.670  0.1033E+01  0.1290E+02
   4.680  0.1036E+01  0.1291E+02
   4.690  0.1040E+01  0.1292E+02
   4.700  0.1044E+01  0.1293E+02
   4.710  0.1048E+01  0.1294E+02
   4.720  0.1052E+01  0.1296E+02
   4.730  0.1056E+01  0.1297E+02
   4.740  0.1059E+01  0.1298E+02
   4.750  0.1062E+01  0.1299E+02
   4.760  0.1064E+01  0.1300E+02
   4.770  0.1066E+01  0.1301E+02
   4.780  0.1066E+01  0.1302E+02
   4.790  0.1065E+01  0.1303E+02
   4.800  0.1062E+01  0.1304E+02
   4.810  0.1059E+01  0.1305E+02
   4.820  0.1054E+01  0.1306E+02
   4.830  0.1049E+01  0.1307E+02
   4.840  0.1043E+01  0.1308E+02
   4.850  0.1036E+01  0.1309E+02
   4.860  0.1029E+01  0.1310E+02
   4.870  0.1022E+01  0.1311E+02
   4.880  0.1016E+01  0.1312E+02
   4.890  0.1011E+01  0.1313E+02
   4.900  0.1006E+01  0.1314E+02
   4.910  0.1003E+01  0.1315E+02
   4.920  0.1002E+01  0.1316E+02
   4.930  0.1002E+01  0.1317E+02
   4.940  0.1003E+01  0.1318E+02
   4.950  0.1006E+01  0.1319E+02
   4.960  0.1011E+01  0.1320E+02
   4.970  0.1016E+01  0.1321E+02
   4.980  0.1023E+01  0.1322E+02
   4.990  0.1031E+01  0.1323E+02
   5.000  0.1039E+01  0.1324E+02
   5.010  0.1047E+01  0.1326E+02
   5.020  0.1056E+01  0.1327E+02
   5.030  0.1065E+01  0.1328E+02
   5.040  0.1074E+01  0.1329E+02
   5.050  0.1083E+01  0.1330E+02
   5.060  0.1091E+01  0.1331E+02
   5.070  0.1100E+01  0.1332E+02
   5.080  0.1108E+01  0.1333E+02
   5.090  0.1116E+01  0.1334E+02
   5.100  0.1124E+01  0.1335E+02
   5.110  0.1131E+01  0.1336E+02
   5.120  0.1139E+01  0.1338E+02
   5.130  0.1146E+01  0.1339E+02
   5.140  0.1154E+01  0.1340E+02
   5.150  0.1161E+01  0.1341E+02
   5.160  0.1168E+01  0.1342E+02
   5.170  0.1175E+01  0.1343E+02
   5.180  0.1181E+01  0.1345E+02
   5.190  0.1187E+01  0.1346E+02
   5.200  0.1192E+01  0.1347E+02
   5.210  0.1197E+01  0.1348E+02
   5.220  0.1201E+01  0.1349E+02
   5.230  0.1204E+01  0.1351E+02
   5.240  0.1206E+01  0.1352E+02
   5.250  0.1207E+01  0.1353E+02
   5.260  0.1207E+01  0.1354E+02
   5.270  0.1207E+01  0.1355E+02
   5.280  0.1205E+01  0.1357E+02
   5.290  0.1203E+01  0.1358E+02
   5.300  0.1200E+01  0.1359E+02
   5.310  0.1197E+01  0.1360E+02
   5.320  0.1194E+01  0.1361E+02
   5.330  0.1191E+01  0.1363E+02
   5.340  0.1188E+01  0.1364E+02
   5.350  0.1185E+01  0.1365E+02
   5.360  0.1182E+01  0.1366E+02
   5.370  0.1181E+01  0.1367E+02
   5.380  0.1179E+01  0.1368E+02
   5.390  0.1179E+01  0.1370E+02
   5.400  0.1179E+01  0.1371E+02
   5.410  0.1179E+01  0.1372E+02
   5.420  0.1180E+01  0.1373E+02
   5.430  0.1181E+01  0.1374E+02
   5.440  0.1182E+01  0.1376E+02
   5.450  0.1183E+01  0.1377E+02
   5.460  0.1184E+01  0.1378E+02
   5.470  0.1184E+01  0.1379E+02
   5.480  0.1184E+01  0.1380E+02
   5.490  0.1183E+01  0.1381E+02
   5.500  0.1181E+01  0.1383E+02
   5.510  0.1178E+01  0.1384E+02
   5.520  0.1175E+01  0.1385E+02
   5.530  0.1172E+01  0.1386E+02
   5.540  0.1169E+01  0.1387E+02
   5.550  0.1165E+01  0.1389E+02
   5.560  0.1162E+01  0.1390E+02
   5.570  0.1159E+01  0.1391E+02
   5.580  0.1158E+01  0.1392E+02
   5.590  0.1157E+01  0.1393E+02
   5.600  0.1157E+01  0.1394E+02
   5.610  0.1160E+01  0.1395E+02
   5.620  0.1163E+01  0.1397E+02
   5.630  0.1169E+01  0.1398E+02
   5.640  0.1176E+01  0.1399E+02
   5.650  0.1184E+01  0.1400E+02
   5.660  0.1194E+01  0.1401E+02
   5.670  0.1206E+01  0.1403E+02
   5.680  0.1219E+01  0.1404E+02
   5.690  0.1233E+01  0.1405E+02
   5.700  0.1248E+01  0.1406E+02
   5.710  0.1265E+01  0.1408E+02
   5.720  0.1281E+01  0.1409E+02
   5.730  0.1299E+01  0.1410E+02
   5.740  0.1317E+01  0.1411E+02
   5.750  0.1335E+01  0.1413E+02
   5.760  0.1354E+01  0.1414E+02
   5.770  0.1373E+01  0.1416E+02
   5.780  0.1393E+01  0.1417E+02
   5.790  0.1412E+01  0.1418E+02
   5.800  0.1431E+01  0.1420E+02
   5.810  0.1451E+01  0.1421E+02
   5.820  0.1470E+01  0.1423E+02
   5.830  0.1489E+01  0.1424E+02
   5.840  0.1507E+01  0.1426E+02
   5.850  0.1524E+01  0.1427E+02
   5.860  0.1540E+01  0.1429E+02
   5.870  0.1554E+01  0.1430E+02
   5.880  0.1567E+01  0.1432E+02
   5.890  0.1578E+01  0.1433E+02
   5.900  0.1586E+01  0.1435E+02
   5.910  0.1592E+01  0.1437E+02
   5.920  0.1596E+01  0.1438E+02
   5.930  0.1596E+01  0.1440E+02
   5.940  0.1595E+01  0.1441E+02
   5.950  0.1591E+01  0.1443E+02
   5.960  0.1584E+01  0.1445E+02
   5.970  0.1576E+01  0.1446E+02
   5.980  0.1566E+01  0.1448E+02
   5.990  0.1555E+01  0.1449E+02
   6.000  0.1543E+01  0.1451E+02
   6.010  0.1530E+01  0.1452E+02
   6.020  0.1517E+01  0.1454E+02
   6.030  0.1504E+01  0.1455E+02
   6.040  0.1491E+01  0.1457E+02
   6.050  0.1479E+01  0.1458E+02
   6.060  0.1468E+01  0.1460E+02
   6.070  0.1458E+01  0.1461E+02
   6.080  0.1448E+01  0.1463E+02
   6.090  0.1439E+01  0.1464E+02
   6.100  0.1431E+01  0.1466E+02
   6.110  0.1423E+01  0.1467E+02
   6.120  0.1416E+01  0.1468E+02
   6.130  0.1409E+01  0.1470E+02
   6.140  0.1403E+01  0.1471E+02
   6.150  0.1398E+01  0.1473E+02
   6.160  0.1393E+01  0.1474E+02
   6.170  0.1389E+01  0.1475E+02
   6.180  0.1386E+01  0.1477E+02
   6.190  0.1383E+01  0.1478E+02
   6.200  0.1382E+01  0.1480E+02
   6.210  0.1383E+01  0.1481E+02
   6.220  0.1385E+01  0.1482E+02
   6.230  0.1388E+01  0.1484E+02
   6.240  0.1394E+01  0.1485E+02
   6.250  0.1402E+01  0.1487E+02
   6.260  0.1411E+01  0.1488E+02
   6.270  0.1422E+01  0.1489E+02
   6.280  0.1435E+01  0.1491E+02
   6.290  0.1449E+01  0.1492E+02
   6.300  0.1464E+01  0.1494E+02
   6.310  0.1480E+01  0.1495E+02
   6.320  0.1495E+01  0.1497E+02
   6.330  0.1510E+01  0.1498E+02
   6.340  0.1524E+01  0.1500E+02
   6.350  0.1537E+01  0.1501E+02
   6.360  0.1548E+01  0.1503E+02
   6.370  0.1557E+01  0.1504E+02
   6.380  0.1563E+01  0.1506E+02
   6.390  0.1566E+01  0.1507E+02
   6.400  0.1567E+01  0.1509E+02
   6.410  0.1565E+01  0.1511E+02
   6.420  0.1560E+01  0.1512E+02
   6.430  0.1552E+01  0.1514E+02
   6.440  0.1541E+01  0.1515E+02
   6.450  0.1528E+01  0.1517E+02
   6.460  0.1514E+01  0.1518E+02
   6.470  0.1498E+01  0.1520E+02
   6.480  0.1481E+01  0.1521E+02
   6.490  0.1464E+01  0.1523E+02
   6.500  0.1447E+01  0.1524E+02
   6.510  0.1431E+01  0.1526E+02
   6.520  0.1416E+01  0.1527E+02
   6.530  0.1402E+01  0.1528E+02
   6.540  0.1391E+01  0.1530E+02
   6.550  0.1382E+01  0.1531E+02
   6.560  0.1376E+01  0.1533E+02
   6.570  0.1373E+01  0.1534E+02
   6.580  0.1373E+01  0.1535E+02
   6.590  0.1376E+01  0.1537E+02
   6.600  0.1383E+01  0.1538E+02
   6.610  0.1394E+01  0.1539E+02
   6.620  0.1407E+01  0.1541E+02
   6.630  0.1424E+01  0.1542E+02
   6.640  0.1444E+01  0.1544E+02
   6.650  0.1466E+01  0.1545E+02
   6.660  0.1491E+01  0.1547E+02
   6.670  0.1519E+01  0.1548E+02
   6.680  0.1548E+01  0.1550E+02
   6.690  0.1579E+01  0.1551E+02
   6.700  0.1611E+01  0.1553E+02
   6.710  0.1644E+01  0.1555E+02
   6.720  0.1678E+01  0.1556E+02
   6.730  0.1711E+01  0.1558E+02
   6.740  0.1744E+01  0.1560E+02
   6.750  0.1776E+01  0.1562E+02
   6.760  0.1806E+01  0.1563E+02
   6.770  0.1834E+01  0.1565E+02
   6.780  0.1860E+01  0.1567E+02
   6.790  0.1884E+01  0.1569E+02
   6.800  0.1905E+01  0.1571E+02
   6.810  0.1923E+01  0.1573E+02
   6.820  0.1939E+01  0.1575E+02
   6.830  0.1952E+01  0.1577E+02
   6.840  0.1963E+01  0.1579E+02
   6.850  0.1972E+01  0.1581E+02
   6.860  0.1980E+01  0.1583E+02
   6.870  0.1988E+01  0.1585E+02
   6.880  0.1996E+01  0.1587E+02
   6.890  0.2005E+01  0.1589E+02
   6.900  0.2015E+01  0.1591E+02
   6.910  0.2028E+01  0.1593E+02
   6.920  0.2042E+01  0.1595E+02
   6.930  0.2060E+01  0.1597E+02
   6.940  0.2081E+01  0.1599E+02
   6.950  0.2104E+01  0.1601E+02
   6.960  0.2131E+01  0.1603E+02
   6.970  0.2160E+01  0.1605E+02
   6.980  0.2190E+01  0.1607E+02
   6.990  0.2222E+01  0.1610E+02
   7.000  0.2253E+01  0.1612E+02
   7.010  0.2284E+01  0.1614E+02
   7.020  0.2314E+01  0.1616E+02
   7.030  0.2341E+01  0.1619E+02
   7.040  0.2364E+01  0.1621E+02
   7.050  0.2383E+01  0.1624E+02
   7.060  0.2398E+01  0.1626E+02
   7.070  0.2409E+01  0.1628E+02
   7.080  0.2414E+01  0.1631E+02
   7.090  0.2414E+01  0.1633E+02
   7.100  0.2411E+01  0.1636E+02
   7.110  0.2403E+01  0.1638E+02
   7.120  0.2393E+01  0.1640E+02
   7.130  0.2380E+01  0.1643E+02
   7.140  0.2366E+01  0.1645E+02
   7.150  0.2352E+01  0.1647E+02
   7.160  0.2339E+01  0.1650E+02
   7.170  0.2327E+01  0.1652E+02
   7.180  0.2318E+01  0.1654E+02
   7.190  0.2313E+01  0.1657E+02
   7.200  0.2311E+01  0.1659E+02
   7.210  0.2313E+01  0.1661E+02
   7.220  0.2320E+01  0.1664E+02
   7.230  0.2332E+01  0.1666E+02
   7.240  0.2348E+01  0.1668E+02
   7.250  0.2368E+01  0.1671E+02
   7.260  0.2391E+01  0.1673E+02
   7.270  0.2418E+01  0.1676E+02
   7.280  0.2447E+01  0.1678E+02
   7.290  0.2478E+01  0.1680E+02
   7.300  0.2509E+01  0.1683E+02
   7.310  0.2541E+01  0.1686E+02
   7.320  0.2573E+01  0.1688E+02
   7.330  0.2604E+01  0.1691E+02
   7.340  0.2633E+01  0.1693E+02
   7.350  0.2660E+01  0.1696E+02
   7.360  0.2684E+01  0.1699E+02
   7.370  0.2706E+01  0.1701E+02
   7.380  0.2725E+01  0.1704E+02
   7.390  0.2741E+01  0.1707E+02
   7.400  0.2754E+01  0.1710E+02
   7.410  0.2765E+01  0.1712E+02
   7.420  0.2772E+01  0.1715E+02
   7.430  0.2777E+01  0.1718E+02
   7.440  0.2780E+01  0.1721E+02
   7.450  0.2781E+01  0.1723E+02
   7.460  0.2780E+01  0.1726E+02
   7.470  0.2777E+01  0.1729E+02
   7.480  0.2773E+01  0.1732E+02
   7.490  0.2768E+01  0.1735E+02
   7.500  0.2762E+01  0.1737E+02
   7.510  0.2755E+01  0.1740E+02
   7.520  0.2748E+01  0.1743E+02
   7.530  0.2741E+01  0.1746E+02
   7.540  0.2734E+01  0.1748E+02
   7.550  0.2728E+01  0.1751E+02
   7.560  0.2724E+01  0.1754E+02
   7.570  0.2721E+01  0.1756E+02
   7.580  0.2720E+01  0.1759E+02
   7.590  0.2722E+01  0.1762E+02
   7.600  0.2726E+01  0.1765E+02
   7.610  0.2734E+01  0.1767E+02
   7.620  0.2746E+01  0.1770E+02
   7.630  0.2760E+01  0.1773E+02
   7.640  0.2779E+01  0.1776E+02
   7.650  0.2801E+01  0.1778E+02
   7.660  0.2827E+01  0.1781E+02
   7.670  0.2857E+01  0.1784E+02
   7.680  0.2890E+01  0.1787E+02
   7.690  0.2926E+01  0.1790E+02
   7.700  0.2965E+01  0.1793E+02
   7.710  0.3005E+01  0.1796E+02
   7.720  0.3048E+01  0.1799E+02
   7.730  0.3092E+01  0.1802E+02
   7.740  0.3137E+01  0.1805E+02
   7.750  0.3183E+01  0.1808E+02
   7.760  0.3228E+01  0.1812E+02
   7.770  0.3273E+01  0.1815E+02
   7.780  0.3317E+01  0.1818E+02
   7.790  0.3360E+01  0.1822E+02
   7.800  0.3401E+01  0.1825E+02
   7.810  0.3440E+01  0.1828E+02
   7.820  0.3477E+01  0.1832E+02
   7.830  0.3512E+01  0.1835E+02
   7.840  0.3543E+01  0.1839E+02
   7.850  0.3572E+01  0.1843E+02
   7.860  0.3597E+01  0.1846E+02
   7.870  0.3620E+01  0.1850E+02
   7.880  0.3638E+01  0.1853E+02
   7.890  0.3653E+01  0.1857E+02
   7.900  0.3664E+01  0.1861E+02
   7.910  0.3670E+01  0.1864E+02
   7.920  0.3673E+01  0.1868E+02
   7.930  0.3672E+01  0.1872E+02
   7.940  0.3666E+01  0.1875E+02
   7.950  0.3656E+01  0.1879E+02
   7.960  0.3642E+01  0.1883E+02
   7.970  0.3624E+01  0.1886E+02
   7.980  0.3601E+01  0.1890E+02
   7.990  0.3575E+01  0.1893E+02
   8.000  0.3545E+01  0.1897E+02
   8.010  0.3511E+01  0.1901E+02
   8.020  0.3473E+01  0.1904E+02
   8.030  0.3433E+01  0.1907E+02
   8.040  0.3389E+01  0.1911E+02
   8.050  0.3343E+01  0.1914E+02
   8.060  0.3294E+01  0.1917E+02
   8.070  0.3244E+01  0.1921E+02
   8.080  0.3191E+01  0.1924E+02
   8.090  0.3138E+01  0.1927E+02
   8.100  0.3083E+01  0.1930E+02
   8.110  0.3029E+01  0.1933E+02
   8.120  0.2974E+01  0.1936E+02
   8.130  0.2920E+01  0.1939E+02
   8.140  0.2866E+01  0.1942E+02
   8.150  0.2814E+01  0.1945E+02
   8.160  0.2764E+01  0.1947E+02
   8.170  0.2716E+01  0.1950E+02
   8.180  0.2670E+01  0.1953E+02
   8.190  0.2627E+01  0.1955E+02
   8.200  0.2586E+01  0.1958E+02
   8.210  0.2548E+01  0.1961E+02
   8.220  0.2513E+01  0.1963E+02
   8.230  0.2481E+01  0.1966E+02
   8.240  0.2451E+01  0.1968E+02
   8.250  0.2424E+01  0.1970E+02
   8.260  0.2399E+01  0.1973E+02
   8.270  0.2376E+01  0.1975E+02
   8.280  0.2355E+01  0.1978E+02
   8.290  0.2335E+01  0.1980E+02
   8.300  0.2316E+01  0.1982E+02
   8.310  0.2299E+01  0.1985E+02
   8.320  0.2282E+01  0.1987E+02
   8.330  0.2266E+01  0.1989E+02
   8.340  0.2250E+01  0.1991E+02
   8.350  0.2234E+01  0.1994E+02
   8.360  0.2219E+01  0.1996E+02
   8.370  0.2203E+01  0.1998E+02
   8.380  0.2188E+01  0.2000E+02
   8.390  0.2173E+01  0.2002E+02
   8.400  0.2157E+01  0.2005E+02
   8.410  0.2141E+01  0.2007E+02
   8.420  0.2124E+01  0.2009E+02
   8.430  0.2106E+01  0.2011E+02
   8.440  0.2088E+01  0.2013E+02
   8.450  0.2069E+01  0.2015E+02
   8.460  0.2049E+01  0.2017E+02
   8.470  0.2027E+01  0.2019E+02
   8.480  0.2005E+01  0.2021E+02
   8.490  0.1981E+01  0.2023E+02
   8.500  0.1956E+01  0.2025E+02
   8.510  0.1931E+01  0.2027E+02
   8.520  0.1904E+01  0.2029E+02
   8.530  0.1877E+01  0.2031E+02
   8.540  0.1850E+01  0.2033E+02
   8.550  0.1823E+01  0.2034E+02
   8.560  0.1797E+01  0.2036E+02
   8.570  0.1772E+01  0.2038E+02
   8.580  0.1747E+01  0.2040E+02
   8.590  0.1725E+01  0.2042E+02
   8.600  0.1704E+01  0.2043E+02
   8.610  0.1685E+01  0.2045E+02
   8.620  0.1669E+01  0.2047E+02
   8.630  0.1655E+01  0.2048E+02
   8.640  0.1643E+01  0.2050E+02
   8.650  0.1634E+01  0.2052E+02
   8.660  0.1627E+01  0.2053E+02
   8.670  0.1622E+01  0.2055E+02
   8.680  0.1618E+01  0.2056E+02
   8.690  0.1617E+01  0.2058E+02
   8.700  0.1616E+01  0.2060E+02
   8.710  0.1616E+01  0.2061E+02
   8.720  0.1617E+01  0.2063E+02
   8.730  0.1618E+01  0.2064E+02
   8.740  0.1618E+01  0.2066E+02
   8.750  0.1618E+01  0.2068E+02
   8.760  0.1618E+01  0.2069E+02
   8.770  0.1616E+01  0.2071E+02
   8.780  0.1613E+01  0.2073E+02
   8.790  0.1609E+01  0.2074E+02
   8.800  0.1603E+01  0.2076E+02
   8.810  0.1595E+01  0.2077E+02
   8.820  0.1586E+01  0.2079E+02
   8.830  0.1576E+01  0.2081E+02
   8.840  0.1565E+01  0.2082E+02
   8.850  0.1553E+01  0.2084E+02
   8.860  0.1541E+01  0.2085E+02
   8.870  0.1528E+01  0.2087E+02
   8.880  0.1516E+01  0.2088E+02
   8.890  0.1504E+01  0.2090E+02
   8.900  0.1494E+01  0.2091E+02
   8.910  0.1485E+01  0.2093E+02
   8.920  0.1478E+01  0.2094E+02
   8.930  0.1474E+01  0.2096E+02
   8.940  0.1472E+01  0.2097E+02
   8.950  0.1472E+01  0.2099E+02
   8.960  0.1476E+01  0.2100E+02
   8.970  0.1482E+01  0.2102E+02
   8.980  0.1491E+01  0.2103E+02
   8.990  0.1502E+01  0.2105E+02
   9.000  0.1516E+01  0.2106E+02
   9.010  0.1531E+01  0.2108E+02
   9.020  0.1548E+01  0.2109E+02
   9.030  0.1565E+01  0.2111E+02
   9.040  0.1583E+01  0.2112E+02
   9.050  0.1601E+01  0.2114E+02
   9.060  0.1618E+01  0.2116E+02
   9.070  0.1633E+01  0.2117E+02
   9.080  0.1648E+01  0.2119E+02
   9.090  0.1660E+01  0.2120E+02
   9.100  0.1669E+01  0.2122E+02
   9.110  0.1677E+01  0.2124E+02
   9.120  0.1682E+01  0.2125E+02
   9.130  0.1684E+01  0.2127E+02
   9.140  0.1683E+01  0.2129E+02
   9.150  0.1680E+01  0.2131E+02
   9.160  0.1675E+01  0.2132E+02
   9.170  0.1668E+01  0.2134E+02
   9.180  0.1659E+01  0.2136E+02
   9.190  0.1649E+01  0.2137E+02
   9.200  0.1637E+01  0.2139E+02
   9.210  0.1625E+01  0.2140E+02
   9.220  0.1612E+01  0.2142E+02
   9.230  0.1598E+01  0.2144E+02
   9.240  0.1584E+01  0.2145E+02
   9.250  0.1569E+01  0.2147E+02
   9.260  0.1554E+01  0.2148E+02
   9.270  0.1539E+01  0.2150E+02
   9.280  0.1523E+01  0.2151E+02
   9.290  0.1506E+01  0.2153E+02
   9.300  0.1490E+01  0.2154E+02
   9.310  0.1473E+01  0.2156E+02
   9.320  0.1455E+01  0.2157E+02
   9.330  0.1438E+01  0.2159E+02
   9.340  0.1421E+01  0.2160E+02
   9.350  0.1403E+01  0.2162E+02
   9.360  0.1387E+01  0.2163E+02
   9.370  0.1371E+01  0.2164E+02
   9.380  0.1357E+01  0.2166E+02
   9.390  0.1344E+01  0.2167E+02
   9.400  0.1333E+01  0.2168E+02
   9.410  0.1324E+01  0.2170E+02
   9.420  0.1318E+01  0.2171E+02
   9.430  0.1314E+01  0.2172E+02
   9.440  0.1313E+01  0.2174E+02
   9.450  0.1315E+01  0.2175E+02
   9.460  0.1320E+01  0.2176E+02
   9.470  0.1328E+01  0.2178E+02
   9.480  0.1339E+01  0.2179E+02
   9.490  0.1352E+01  0.2180E+02
   9.500  0.1368E+01  0.2182E+02
   9.510  0.1385E+01  0.2183E+02
   9.520  0.1404E+01  0.2184E+02
   9.530  0.1423E+01  0.2186E+02
   9.540  0.1443E+01  0.2187E+02
   9.550  0.1464E+01  0.2189E+02
   9.560  0.1484E+01  0.2190E+02
   9.570  0.1503E+01  0.2192E+02
   9.580  0.1522E+01  0.2193E+02
   9.590  0.1539E+01  0.2195E+02
   9.600  0.1556E+01  0.2196E+02
   9.610  0.1571E+01  0.2198E+02
   9.620  0.1585E+01  0.2200E+02
   9.630  0.1599E+01  0.2201E+02
   9.640  0.1612E+01  0.2203E+02
   9.650  0.1625E+01  0.2204E+02
   9.660  0.1638E+01  0.2206E+02
   9.670  0.1651E+01  0.2208E+02
   9.680  0.1665E+01  0.2209E+02
   9.690  0.1680E+01  0.2211E+02
   9.700  0.1697E+01  0.2213E+02
   9.710  0.1714E+01  0.2214E+02
   9.720  0.1732E+01  0.2216E+02
   9.730  0.1752E+01  0.2218E+02
   9.740  0.1772E+01  0.2220E+02
   9.750  0.1793E+01  0.2221E+02
   9.760  0.1813E+01  0.2223E+02
   9.770  0.1833E+01  0.2225E+02
   9.780  0.1853E+01  0.2227E+02
   9.790  0.1871E+01  0.2229E+02
   9.800  0.1887E+01  0.2231E+02
   9.810  0.1901E+01  0.2233E+02
   9.820  0.1913E+01  0.2235E+02
   9.830  0.1922E+01  0.2236E+02
   9.840  0.1929E+01  0.2238E+02
   9.850  0.1932E+01  0.2240E+02
   9.860  0.1933E+01  0.2242E+02
   9.870  0.1932E+01  0.2244E+02
   9.880  0.1928E+01  0.2246E+02
   9.890  0.1922E+01  0.2248E+02
   9.900  0.1915E+01  0.2250E+02
   9.910  0.1906E+01  0.2252E+02
   9.920  0.1896E+01  0.2254E+02
   9.930  0.1886E+01  0.2256E+02
   9.940  0.1875E+01  0.2258E+02
   9.950  0.1864E+01  0.2259E+02
   9.960  0.1854E+01  0.2261E+02
   9.970  0.1844E+01  0.2263E+02
   9.980  0.1835E+01  0.2265E+02
   9.990  0.1827E+01  0.2267E+02
  10.000  0.1820E+01  0.2269E+02
