#  E (eV)   dos(E)     Int dos(E) EFermi =   -0.604 eV
 -10.000  0.7480E+00  0.7480E-02
  -9.990  0.7409E+00  0.1489E-01
  -9.980  0.7343E+00  0.2223E-01
  -9.970  0.7283E+00  0.2952E-01
  -9.960  0.7235E+00  0.3675E-01
  -9.950  0.7200E+00  0.4395E-01
  -9.940  0.7181E+00  0.5113E-01
  -9.930  0.7178E+00  0.5831E-01
  -9.920  0.7193E+00  0.6550E-01
  -9.910  0.7225E+00  0.7273E-01
  -9.900  0.7272E+00  0.8000E-01
  -9.890  0.7334E+00  0.8733E-01
  -9.880  0.7406E+00  0.9474E-01
  -9.870  0.7488E+00  0.1022E+00
  -9.860  0.7573E+00  0.1098E+00
  -9.850  0.7660E+00  0.1175E+00
  -9.840  0.7744E+00  0.1252E+00
  -9.830  0.7822E+00  0.1330E+00
  -9.820  0.7891E+00  0.1409E+00
  -9.810  0.7949E+00  0.1489E+00
  -9.800  0.7992E+00  0.1569E+00
  -9.790  0.8022E+00  0.1649E+00
  -9.780  0.8035E+00  0.1729E+00
  -9.770  0.8035E+00  0.1810E+00
  -9.760  0.8021E+00  0.1890E+00
  -9.750  0.7995E+00  0.1970E+00
  -9.740  0.7959E+00  0.2049E+00
  -9.730  0.7917E+00  0.2128E+00
  -9.720  0.7871E+00  0.2207E+00
  -9.710  0.7823E+00  0.2285E+00
  -9.700  0.7778E+00  0.2363E+00
  -9.690  0.7736E+00  0.2441E+00
  -9.680  0.7701E+00  0.2518E+00
  -9.670  0.7674E+00  0.2594E+00
  -9.660  0.7654E+00  0.2671E+00
  -9.650  0.7644E+00  0.2747E+00
  -9.640  0.7642E+00  0.2824E+00
  -9.630  0.7647E+00  0.2900E+00
  -9.620  0.7657E+00  0.2977E+00
  -9.610  0.7672E+00  0.3053E+00
  -9.600  0.7688E+00  0.3130E+00
  -9.590  0.7705E+00  0.3207E+00
  -9.580  0.7719E+00  0.3285E+00
  -9.570  0.7731E+00  0.3362E+00
  -9.560  0.7738E+00  0.3439E+00
  -9.550  0.7740E+00  0.3517E+00
  -9.540  0.7737E+00  0.3594E+00
  -9.530  0.7729E+00  0.3671E+00
  -9.520  0.7719E+00  0.3748E+00
  -9.510  0.7708E+00  0.3826E+00
  -9.500  0.7698E+00  0.3903E+00
  -9.490  0.7690E+00  0.3979E+00
  -9.480  0.7688E+00  0.4056E+00
  -9.470  0.7693E+00  0.4133E+00
  -9.460  0.7708E+00  0.4210E+00
  -9.450  0.7733E+00  0.4288E+00
  -9.440  0.7769E+00  0.4365E+00
  -9.430  0.7815E+00  0.4443E+00
  -9.420  0.7872E+00  0.4522E+00
  -9.410  0.7937E+00  0.4602E+00
  -9.400  0.8007E+00  0.4682E+00
  -9.390  0.8081E+00  0.4762E+00
  -9.380  0.8155E+00  0.4844E+00
  -9.370  0.8224E+00  0.4926E+00
  -9.360  0.8287E+00  0.5009E+00
  -9.350  0.8339E+00  0.5092E+00
  -9.340  0.8377E+00  0.5176E+00
  -9.330  0.8401E+00  0.5260E+00
  -9.320  0.8407E+00  0.5344E+00
  -9.310  0.8396E+00  0.5428E+00
  -9.300  0.8367E+00  0.5512E+00
  -9.290  0.8322E+00  0.5595E+00
  -9.280  0.8263E+00  0.5678E+00
  -9.270  0.8192E+00  0.5760E+00
  -9.260  0.8112E+00  0.5841E+00
  -9.250  0.8028E+00  0.5921E+00
  -9.240  0.7943E+00  0.6001E+00
  -9.230  0.7861E+00  0.6079E+00
  -9.220  0.7786E+00  0.6157E+00
  -9.210  0.7721E+00  0.6234E+00
  -9.200  0.7670E+00  0.6311E+00
  -9.190  0.7636E+00  0.6387E+00
  -9.180  0.7619E+00  0.6463E+00
  -9.170  0.7620E+00  0.6540E+00
  -9.160  0.7641E+00  0.6616E+00
  -9.150  0.7679E+00  0.6693E+00
  -9.140  0.7734E+00  0.6770E+00
  -9.130  0.7803E+00  0.6848E+00
  -9.120  0.7883E+00  0.6927E+00
  -9.110  0.7972E+00  0.7007E+00
  -9.100  0.8065E+00  0.7087E+00
  -9.090  0.8159E+00  0.7169E+00
  -9.080  0.8251E+00  0.7252E+00
  -9.070  0.8338E+00  0.7335E+00
  -9.060  0.8416E+00  0.7419E+00
  -9.050  0.8484E+00  0.7504E+00
  -9.040  0.8540E+00  0.7589E+00
  -9.030  0.8582E+00  0.7675E+00
  -9.020  0.8610E+00  0.7761E+00
  -9.010  0.8625E+00  0.7847E+00
  -9.000  0.8628E+00  0.7934E+00
  -8.990  0.8620E+00  0.8020E+00
  -8.980  0.8602E+00  0.8106E+00
  -8.970  0.8579E+00  0.8192E+00
  -8.960  0.8550E+00  0.8277E+00
  -8.950  0.8520E+00  0.8362E+00
  -8.940  0.8491E+00  0.8447E+00
  -8.930  0.8464E+00  0.8532E+00
  -8.920  0.8442E+00  0.8616E+00
  -8.910  0.8426E+00  0.8701E+00
  -8.900  0.8417E+00  0.8785E+00
  -8.890  0.8416E+00  0.8869E+00
  -8.880  0.8424E+00  0.8953E+00
  -8.870  0.8440E+00  0.9038E+00
  -8.860  0.8465E+00  0.9122E+00
  -8.850  0.8498E+00  0.9207E+00
  -8.840  0.8539E+00  0.9293E+00
  -8.830  0.8587E+00  0.9379E+00
  -8.820  0.8642E+00  0.9465E+00
  -8.810  0.8705E+00  0.9552E+00
  -8.800  0.8775E+00  0.9640E+00
  -8.790  0.8852E+00  0.9728E+00
  -8.780  0.8937E+00  0.9818E+00
  -8.770  0.9031E+00  0.9908E+00
  -8.760  0.9134E+00  0.9999E+00
  -8.750  0.9247E+00  0.1009E+01
  -8.740  0.9370E+00  0.1019E+01
  -8.730  0.9502E+00  0.1028E+01
  -8.720  0.9645E+00  0.1038E+01
  -8.710  0.9797E+00  0.1047E+01
  -8.700  0.9957E+00  0.1057E+01
  -8.690  0.1012E+01  0.1068E+01
  -8.680  0.1029E+01  0.1078E+01
  -8.670  0.1047E+01  0.1088E+01
  -8.660  0.1064E+01  0.1099E+01
  -8.650  0.1080E+01  0.1110E+01
  -8.640  0.1096E+01  0.1121E+01
  -8.630  0.1110E+01  0.1132E+01
  -8.620  0.1123E+01  0.1143E+01
  -8.610  0.1134E+01  0.1154E+01
  -8.600  0.1143E+01  0.1166E+01
  -8.590  0.1149E+01  0.1177E+01
  -8.580  0.1153E+01  0.1189E+01
  -8.570  0.1155E+01  0.1200E+01
  -8.560  0.1154E+01  0.1212E+01
  -8.550  0.1151E+01  0.1223E+01
  -8.540  0.1146E+01  0.1235E+01
  -8.530  0.1140E+01  0.1246E+01
  -8.520  0.1132E+01  0.1258E+01
  -8.510  0.1124E+01  0.1269E+01
  -8.500  0.1115E+01  0.1280E+01
  -8.490  0.1107E+01  0.1291E+01
  -8.480  0.1100E+01  0.1302E+01
  -8.470  0.1094E+01  0.1313E+01
  -8.460  0.1090E+01  0.1324E+01
  -8.450  0.1088E+01  0.1335E+01
  -8.440  0.1088E+01  0.1346E+01
  -8.430  0.1091E+01  0.1357E+01
  -8.420  0.1096E+01  0.1368E+01
  -8.410  0.1103E+01  0.1379E+01
  -8.400  0.1112E+01  0.1390E+01
  -8.390  0.1123E+01  0.1401E+01
  -8.380  0.1135E+01  0.1412E+01
  -8.370  0.1148E+01  0.1424E+01
  -8.360  0.1160E+01  0.1435E+01
  -8.350  0.1173E+01  0.1447E+01
  -8.340  0.1185E+01  0.1459E+01
  -8.330  0.1195E+01  0.1471E+01
  -8.320  0.1204E+01  0.1483E+01
  -8.310  0.1211E+01  0.1495E+01
  -8.300  0.1216E+01  0.1507E+01
  -8.290  0.1218E+01  0.1519E+01
  -8.280  0.1218E+01  0.1532E+01
  -8.270  0.1216E+01  0.1544E+01
  -8.260  0.1212E+01  0.1556E+01
  -8.250  0.1207E+01  0.1568E+01
  -8.240  0.1200E+01  0.1580E+01
  -8.230  0.1192E+01  0.1592E+01
  -8.220  0.1184E+01  0.1604E+01
  -8.210  0.1175E+01  0.1615E+01
  -8.200  0.1168E+01  0.1627E+01
  -8.190  0.1161E+01  0.1639E+01
  -8.180  0.1156E+01  0.1650E+01
  -8.170  0.1152E+01  0.1662E+01
  -8.160  0.1151E+01  0.1673E+01
  -8.150  0.1151E+01  0.1685E+01
  -8.140  0.1154E+01  0.1696E+01
  -8.130  0.1159E+01  0.1708E+01
  -8.120  0.1166E+01  0.1720E+01
  -8.110  0.1174E+01  0.1731E+01
  -8.100  0.1184E+01  0.1743E+01
  -8.090  0.1195E+01  0.1755E+01
  -8.080  0.1207E+01  0.1767E+01
  -8.070  0.1218E+01  0.1779E+01
  -8.060  0.1229E+01  0.1792E+01
  -8.050  0.1239E+01  0.1804E+01
  -8.040  0.1248E+01  0.1817E+01
  -8.030  0.1255E+01  0.1829E+01
  -8.020  0.1260E+01  0.1842E+01
  -8.010  0.1263E+01  0.1854E+01
  -8.000  0.1263E+01  0.1867E+01
  -7.990  0.1261E+01  0.1880E+01
  -7.980  0.1258E+01  0.1892E+01
  -7.970  0.1253E+01  0.1905E+01
  -7.960  0.1247E+01  0.1917E+01
  -7.950  0.1240E+01  0.1930E+01
  -7.940  0.1233E+01  0.1942E+01
  -7.930  0.1226E+01  0.1954E+01
  -7.920  0.1221E+01  0.1966E+01
  -7.910  0.1217E+01  0.1979E+01
  -7.900  0.1214E+01  0.1991E+01
  -7.890  0.1214E+01  0.2003E+01
  -7.880  0.1216E+01  0.2015E+01
  -7.870  0.1220E+01  0.2027E+01
  -7.860  0.1227E+01  0.2039E+01
  -7.850  0.1236E+01  0.2052E+01
  -7.840  0.1247E+01  0.2064E+01
  -7.830  0.1260E+01  0.2077E+01
  -7.820  0.1274E+01  0.2090E+01
  -7.810  0.1289E+01  0.2103E+01
  -7.800  0.1305E+01  0.2116E+01
  -7.790  0.1320E+01  0.2129E+01
  -7.780  0.1336E+01  0.2142E+01
  -7.770  0.1350E+01  0.2156E+01
  -7.760  0.1364E+01  0.2169E+01
  -7.750  0.1376E+01  0.2183E+01
  -7.740  0.1387E+01  0.2197E+01
  -7.730  0.1397E+01  0.2211E+01
  -7.720  0.1406E+01  0.2225E+01
  -7.710  0.1413E+01  0.2239E+01
  -7.700  0.1420E+01  0.2253E+01
  -7.690  0.1425E+01  0.2268E+01
  -7.680  0.1430E+01  0.2282E+01
  -7.670  0.1435E+01  0.2296E+01
  -7.660  0.1440E+01  0.2311E+01
  -7.650  0.1446E+01  0.2325E+01
  -7.640  0.1452E+01  0.2340E+01
  -7.630  0.1459E+01  0.2354E+01
  -7.620  0.1468E+01  0.2369E+01
  -7.610  0.1477E+01  0.2384E+01
  -7.600  0.1488E+01  0.2398E+01
  -7.590  0.1501E+01  0.2413E+01
  -7.580  0.1514E+01  0.2429E+01
  -7.570  0.1529E+01  0.2444E+01
  -7.560  0.1546E+01  0.2459E+01
  -7.550  0.1562E+01  0.2475E+01
  -7.540  0.1580E+01  0.2491E+01
  -7.530  0.1598E+01  0.2507E+01
  -7.520  0.1615E+01  0.2523E+01
  -7.510  0.1633E+01  0.2539E+01
  -7.500  0.1649E+01  0.2556E+01
  -7.490  0.1665E+01  0.2572E+01
  -7.480  0.1679E+01  0.2589E+01
  -7.470  0.1693E+01  0.2606E+01
  -7.460  0.1704E+01  0.2623E+01
  -7.450  0.1715E+01  0.2640E+01
  -7.440  0.1723E+01  0.2658E+01
  -7.430  0.1731E+01  0.2675E+01
  -7.420  0.1737E+01  0.2692E+01
  -7.410  0.1742E+01  0.2710E+01
  -7.400  0.1747E+01  0.2727E+01
  -7.390  0.1751E+01  0.2745E+01
  -7.380  0.1755E+01  0.2762E+01
  -7.370  0.1759E+01  0.2780E+01
  -7.360  0.1763E+01  0.2797E+01
  -7.350  0.1768E+01  0.2815E+01
  -7.340  0.1773E+01  0.2833E+01
  -7.330  0.1779E+01  0.2851E+01
  -7.320  0.1786E+01  0.2868E+01
  -7.310  0.1793E+01  0.2886E+01
  -7.300  0.1801E+01  0.2904E+01
  -7.290  0.1809E+01  0.2922E+01
  -7.280  0.1818E+01  0.2941E+01
  -7.270  0.1828E+01  0.2959E+01
  -7.260  0.1838E+01  0.2977E+01
  -7.250  0.1849E+01  0.2996E+01
  -7.240  0.1860E+01  0.3014E+01
  -7.230  0.1873E+01  0.3033E+01
  -7.220  0.1886E+01  0.3052E+01
  -7.210  0.1901E+01  0.3071E+01
  -7.200  0.1917E+01  0.3090E+01
  -7.190  0.1935E+01  0.3110E+01
  -7.180  0.1954E+01  0.3129E+01
  -7.170  0.1976E+01  0.3149E+01
  -7.160  0.1999E+01  0.3169E+01
  -7.150  0.2024E+01  0.3189E+01
  -7.140  0.2051E+01  0.3210E+01
  -7.130  0.2079E+01  0.3230E+01
  -7.120  0.2108E+01  0.3251E+01
  -7.110  0.2136E+01  0.3273E+01
  -7.100  0.2165E+01  0.3294E+01
  -7.090  0.2192E+01  0.3316E+01
  -7.080  0.2217E+01  0.3339E+01
  -7.070  0.2240E+01  0.3361E+01
  -7.060  0.2259E+01  0.3384E+01
  -7.050  0.2274E+01  0.3406E+01
  -7.040  0.2285E+01  0.3429E+01
  -7.030  0.2291E+01  0.3452E+01
  -7.020  0.2293E+01  0.3475E+01
  -7.010  0.2289E+01  0.3498E+01
  -7.000  0.2281E+01  0.3521E+01
  -6.990  0.2268E+01  0.3543E+01
  -6.980  0.2251E+01  0.3566E+01
  -6.970  0.2231E+01  0.3588E+01
  -6.960  0.2208E+01  0.3610E+01
  -6.950  0.2182E+01  0.3632E+01
  -6.940  0.2156E+01  0.3654E+01
  -6.930  0.2128E+01  0.3675E+01
  -6.920  0.2101E+01  0.3696E+01
  -6.910  0.2075E+01  0.3717E+01
  -6.900  0.2049E+01  0.3737E+01
  -6.890  0.2025E+01  0.3757E+01
  -6.880  0.2003E+01  0.3777E+01
  -6.870  0.1983E+01  0.3797E+01
  -6.860  0.1966E+01  0.3817E+01
  -6.850  0.1950E+01  0.3836E+01
  -6.840  0.1936E+01  0.3856E+01
  -6.830  0.1924E+01  0.3875E+01
  -6.820  0.1913E+01  0.3894E+01
  -6.810  0.1903E+01  0.3913E+01
  -6.800  0.1894E+01  0.3932E+01
  -6.790  0.1885E+01  0.3951E+01
  -6.780  0.1876E+01  0.3970E+01
  -6.770  0.1867E+01  0.3988E+01
  -6.760  0.1857E+01  0.4007E+01
  -6.750  0.1847E+01  0.4025E+01
  -6.740  0.1835E+01  0.4044E+01
  -6.730  0.1823E+01  0.4062E+01
  -6.720  0.1810E+01  0.4080E+01
  -6.710  0.1796E+01  0.4098E+01
  -6.700  0.1781E+01  0.4116E+01
  -6.690  0.1766E+01  0.4134E+01
  -6.680  0.1751E+01  0.4151E+01
  -6.670  0.1735E+01  0.4168E+01
  -6.660  0.1720E+01  0.4186E+01
  -6.650  0.1705E+01  0.4203E+01
  -6.640  0.1691E+01  0.4220E+01
  -6.630  0.1678E+01  0.4236E+01
  -6.620  0.1666E+01  0.4253E+01
  -6.610  0.1655E+01  0.4270E+01
  -6.600  0.1644E+01  0.4286E+01
  -6.590  0.1635E+01  0.4302E+01
  -6.580  0.1627E+01  0.4319E+01
  -6.570  0.1620E+01  0.4335E+01
  -6.560  0.1614E+01  0.4351E+01
  -6.550  0.1609E+01  0.4367E+01
  -6.540  0.1604E+01  0.4383E+01
  -6.530  0.1599E+01  0.4399E+01
  -6.520  0.1595E+01  0.4415E+01
  -6.510  0.1591E+01  0.4431E+01
  -6.500  0.1586E+01  0.4447E+01
  -6.490  0.1582E+01  0.4463E+01
  -6.480  0.1577E+01  0.4478E+01
  -6.470  0.1572E+01  0.4494E+01
  -6.460  0.1566E+01  0.4510E+01
  -6.450  0.1560E+01  0.4525E+01
  -6.440  0.1555E+01  0.4541E+01
  -6.430  0.1549E+01  0.4556E+01
  -6.420  0.1543E+01  0.4572E+01
  -6.410  0.1538E+01  0.4587E+01
  -6.400  0.1533E+01  0.4603E+01
  -6.390  0.1529E+01  0.4618E+01
  -6.380  0.1525E+01  0.4633E+01
  -6.370  0.1522E+01  0.4648E+01
  -6.360  0.1520E+01  0.4664E+01
  -6.350  0.1518E+01  0.4679E+01
  -6.340  0.1516E+01  0.4694E+01
  -6.330  0.1515E+01  0.4709E+01
  -6.320  0.1514E+01  0.4724E+01
  -6.310  0.1513E+01  0.4739E+01
  -6.300  0.1511E+01  0.4754E+01
  -6.290  0.1509E+01  0.4769E+01
  -6.280  0.1507E+01  0.4785E+01
  -6.270  0.1503E+01  0.4800E+01
  -6.260  0.1498E+01  0.4815E+01
  -6.250  0.1492E+01  0.4829E+01
  -6.240  0.1485E+01  0.4844E+01
  -6.230  0.1478E+01  0.4859E+01
  -6.220  0.1469E+01  0.4874E+01
  -6.210  0.1460E+01  0.4888E+01
  -6.200  0.1450E+01  0.4903E+01
  -6.190  0.1441E+01  0.4917E+01
  -6.180  0.1431E+01  0.4932E+01
  -6.170  0.1423E+01  0.4946E+01
  -6.160  0.1415E+01  0.4960E+01
  -6.150  0.1408E+01  0.4974E+01
  -6.140  0.1403E+01  0.4988E+01
  -6.130  0.1398E+01  0.5002E+01
  -6.120  0.1395E+01  0.5016E+01
  -6.110  0.1393E+01  0.5030E+01
  -6.100  0.1393E+01  0.5044E+01
  -6.090  0.1393E+01  0.5058E+01
  -6.080  0.1394E+01  0.5072E+01
  -6.070  0.1395E+01  0.5086E+01
  -6.060  0.1397E+01  0.5100E+01
  -6.050  0.1398E+01  0.5114E+01
  -6.040  0.1400E+01  0.5128E+01
  -6.030  0.1401E+01  0.5142E+01
  -6.020  0.1401E+01  0.5156E+01
  -6.010  0.1401E+01  0.5170E+01
  -6.000  0.1401E+01  0.5184E+01
  -5.990  0.1399E+01  0.5198E+01
  -5.980  0.1398E+01  0.5212E+01
  -5.970  0.1395E+01  0.5226E+01
  -5.960  0.1392E+01  0.5240E+01
  -5.950  0.1389E+01  0.5253E+01
  -5.940  0.1386E+01  0.5267E+01
  -5.930  0.1382E+01  0.5281E+01
  -5.920  0.1378E+01  0.5295E+01
  -5.910  0.1374E+01  0.5309E+01
  -5.900  0.1369E+01  0.5322E+01
  -5.890  0.1365E+01  0.5336E+01
  -5.880  0.1360E+01  0.5350E+01
  -5.870  0.1355E+01  0.5363E+01
  -5.860  0.1349E+01  0.5377E+01
  -5.850  0.1344E+01  0.5390E+01
  -5.840  0.1339E+01  0.5403E+01
  -5.830  0.1333E+01  0.5417E+01
  -5.820  0.1327E+01  0.5430E+01
  -5.810  0.1322E+01  0.5443E+01
  -5.800  0.1317E+01  0.5456E+01
  -5.790  0.1312E+01  0.5470E+01
  -5.780  0.1308E+01  0.5483E+01
  -5.770  0.1304E+01  0.5496E+01
  -5.760  0.1300E+01  0.5509E+01
  -5.750  0.1298E+01  0.5522E+01
  -5.740  0.1296E+01  0.5535E+01
  -5.730  0.1294E+01  0.5548E+01
  -5.720  0.1294E+01  0.5560E+01
  -5.710  0.1294E+01  0.5573E+01
  -5.700  0.1295E+01  0.5586E+01
  -5.690  0.1296E+01  0.5599E+01
  -5.680  0.1297E+01  0.5612E+01
  -5.670  0.1299E+01  0.5625E+01
  -5.660  0.1302E+01  0.5638E+01
  -5.650  0.1304E+01  0.5651E+01
  -5.640  0.1306E+01  0.5664E+01
  -5.630  0.1308E+01  0.5677E+01
  -5.620  0.1310E+01  0.5691E+01
  -5.610  0.1311E+01  0.5704E+01
  -5.600  0.1311E+01  0.5717E+01
  -5.590  0.1311E+01  0.5730E+01
  -5.580  0.1310E+01  0.5743E+01
  -5.570  0.1308E+01  0.5756E+01
  -5.560  0.1304E+01  0.5769E+01
  -5.550  0.1300E+01  0.5782E+01
  -5.540  0.1294E+01  0.5795E+01
  -5.530  0.1288E+01  0.5808E+01
  -5.520  0.1281E+01  0.5821E+01
  -5.510  0.1273E+01  0.5834E+01
  -5.500  0.1264E+01  0.5846E+01
  -5.490  0.1255E+01  0.5859E+01
  -5.480  0.1247E+01  0.5871E+01
  -5.470  0.1239E+01  0.5884E+01
  -5.460  0.1231E+01  0.5896E+01
  -5.450  0.1225E+01  0.5908E+01
  -5.440  0.1220E+01  0.5920E+01
  -5.430  0.1217E+01  0.5932E+01
  -5.420  0.1215E+01  0.5945E+01
  -5.410  0.1215E+01  0.5957E+01
  -5.400  0.1216E+01  0.5969E+01
  -5.390  0.1219E+01  0.5981E+01
  -5.380  0.1224E+01  0.5993E+01
  -5.370  0.1230E+01  0.6006E+01
  -5.360  0.1236E+01  0.6018E+01
  -5.350  0.1243E+01  0.6030E+01
  -5.340  0.1250E+01  0.6043E+01
  -5.330  0.1257E+01  0.6056E+01
  -5.320  0.1262E+01  0.6068E+01
  -5.310  0.1267E+01  0.6081E+01
  -5.300  0.1269E+01  0.6094E+01
  -5.290  0.1270E+01  0.6106E+01
  -5.280  0.1269E+01  0.6119E+01
  -5.270  0.1265E+01  0.6132E+01
  -5.260  0.1260E+01  0.6144E+01
  -5.250  0.1252E+01  0.6157E+01
  -5.240  0.1243E+01  0.6169E+01
  -5.230  0.1233E+01  0.6181E+01
  -5.220  0.1222E+01  0.6194E+01
  -5.210  0.1210E+01  0.6206E+01
  -5.200  0.1199E+01  0.6218E+01
  -5.190  0.1188E+01  0.6230E+01
  -5.180  0.1179E+01  0.6241E+01
  -5.170  0.1172E+01  0.6253E+01
  -5.160  0.1166E+01  0.6265E+01
  -5.150  0.1163E+01  0.6276E+01
  -5.140  0.1163E+01  0.6288E+01
  -5.130  0.1164E+01  0.6300E+01
  -5.120  0.1168E+01  0.6311E+01
  -5.110  0.1174E+01  0.6323E+01
  -5.100  0.1182E+01  0.6335E+01
  -5.090  0.1190E+01  0.6347E+01
  -5.080  0.1199E+01  0.6359E+01
  -5.070  0.1208E+01  0.6371E+01
  -5.060  0.1216E+01  0.6383E+01
  -5.050  0.1223E+01  0.6395E+01
  -5.040  0.1228E+01  0.6408E+01
  -5.030  0.1231E+01  0.6420E+01
  -5.020  0.1232E+01  0.6432E+01
  -5.010  0.1231E+01  0.6445E+01
  -5.000  0.1227E+01  0.6457E+01
  -4.990  0.1221E+01  0.6469E+01
  -4.980  0.1214E+01  0.6481E+01
  -4.970  0.1204E+01  0.6493E+01
  -4.960  0.1194E+01  0.6505E+01
  -4.950  0.1183E+01  0.6517E+01
  -4.940  0.1172E+01  0.6529E+01
  -4.930  0.1162E+01  0.6540E+01
  -4.920  0.1153E+01  0.6552E+01
  -4.910  0.1145E+01  0.6563E+01
  -4.900  0.1139E+01  0.6575E+01
  -4.890  0.1135E+01  0.6586E+01
  -4.880  0.1132E+01  0.6597E+01
  -4.870  0.1132E+01  0.6609E+01
  -4.860  0.1134E+01  0.6620E+01
  -4.850  0.1137E+01  0.6631E+01
  -4.840  0.1142E+01  0.6643E+01
  -4.830  0.1148E+01  0.6654E+01
  -4.820  0.1154E+01  0.6666E+01
  -4.810  0.1160E+01  0.6677E+01
  -4.800  0.1166E+01  0.6689E+01
  -4.790  0.1172E+01  0.6701E+01
  -4.780  0.1177E+01  0.6713E+01
  -4.770  0.1181E+01  0.6724E+01
  -4.760  0.1183E+01  0.6736E+01
  -4.750  0.1184E+01  0.6748E+01
  -4.740  0.1185E+01  0.6760E+01
  -4.730  0.1184E+01  0.6772E+01
  -4.720  0.1182E+01  0.6784E+01
  -4.710  0.1179E+01  0.6795E+01
  -4.700  0.1175E+01  0.6807E+01
  -4.690  0.1171E+01  0.6819E+01
  -4.680  0.1167E+01  0.6831E+01
  -4.670  0.1163E+01  0.6842E+01
  -4.660  0.1158E+01  0.6854E+01
  -4.650  0.1153E+01  0.6865E+01
  -4.640  0.1149E+01  0.6877E+01
  -4.630  0.1144E+01  0.6888E+01
  -4.620  0.1139E+01  0.6900E+01
  -4.610  0.1135E+01  0.6911E+01
  -4.600  0.1130E+01  0.6922E+01
  -4.590  0.1126E+01  0.6933E+01
  -4.580  0.1122E+01  0.6945E+01
  -4.570  0.1118E+01  0.6956E+01
  -4.560  0.1114E+01  0.6967E+01
  -4.550  0.1112E+01  0.6978E+01
  -4.540  0.1110E+01  0.6989E+01
  -4.530  0.1109E+01  0.7000E+01
  -4.520  0.1109E+01  0.7011E+01
  -4.510  0.1110E+01  0.7023E+01
  -4.500  0.1113E+01  0.7034E+01
  -4.490  0.1117E+01  0.7045E+01
  -4.480  0.1121E+01  0.7056E+01
  -4.470  0.1127E+01  0.7067E+01
  -4.460  0.1133E+01  0.7079E+01
  -4.450  0.1140E+01  0.7090E+01
  -4.440  0.1146E+01  0.7101E+01
  -4.430  0.1152E+01  0.7113E+01
  -4.420  0.1157E+01  0.7125E+01
  -4.410  0.1161E+01  0.7136E+01
  -4.400  0.1164E+01  0.7148E+01
  -4.390  0.1165E+01  0.7159E+01
  -4.380  0.1165E+01  0.7171E+01
  -4.370  0.1162E+01  0.7183E+01
  -4.360  0.1159E+01  0.7194E+01
  -4.350  0.1153E+01  0.7206E+01
  -4.340  0.1147E+01  0.7217E+01
  -4.330  0.1139E+01  0.7229E+01
  -4.320  0.1131E+01  0.7240E+01
  -4.310  0.1123E+01  0.7251E+01
  -4.300  0.1115E+01  0.7262E+01
  -4.290  0.1107E+01  0.7273E+01
  -4.280  0.1100E+01  0.7284E+01
  -4.270  0.1094E+01  0.7295E+01
  -4.260  0.1090E+01  0.7306E+01
  -4.250  0.1086E+01  0.7317E+01
  -4.240  0.1084E+01  0.7328E+01
  -4.230  0.1084E+01  0.7339E+01
  -4.220  0.1085E+01  0.7350E+01
  -4.210  0.1087E+01  0.7361E+01
  -4.200  0.1090E+01  0.7371E+01
  -4.190  0.1095E+01  0.7382E+01
  -4.180  0.1099E+01  0.7393E+01
  -4.170  0.1105E+01  0.7404E+01
  -4.160  0.1110E+01  0.7416E+01
  -4.150  0.1116E+01  0.7427E+01
  -4.140  0.1121E+01  0.7438E+01
  -4.130  0.1126E+01  0.7449E+01
  -4.120  0.1130E+01  0.7460E+01
  -4.110  0.1133E+01  0.7472E+01
  -4.100  0.1135E+01  0.7483E+01
  -4.090  0.1137E+01  0.7495E+01
  -4.080  0.1137E+01  0.7506E+01
  -4.070  0.1137E+01  0.7517E+01
  -4.060  0.1136E+01  0.7529E+01
  -4.050  0.1134E+01  0.7540E+01
  -4.040  0.1132E+01  0.7551E+01
  -4.030  0.1128E+01  0.7563E+01
  -4.020  0.1125E+01  0.7574E+01
  -4.010  0.1122E+01  0.7585E+01
  -4.000  0.1118E+01  0.7596E+01
  -3.990  0.1114E+01  0.7607E+01
  -3.980  0.1111E+01  0.7619E+01
  -3.970  0.1108E+01  0.7630E+01
  -3.960  0.1105E+01  0.7641E+01
  -3.950  0.1103E+01  0.7652E+01
  -3.940  0.1101E+01  0.7663E+01
  -3.930  0.1100E+01  0.7674E+01
  -3.920  0.1099E+01  0.7685E+01
  -3.910  0.1098E+01  0.7696E+01
  -3.900  0.1097E+01  0.7707E+01
  -3.890  0.1097E+01  0.7718E+01
  -3.880  0.1096E+01  0.7729E+01
  -3.870  0.1096E+01  0.7740E+01
  -3.860  0.1096E+01  0.7750E+01
  -3.850  0.1096E+01  0.7761E+01
  -3.840  0.1095E+01  0.7772E+01
  -3.830  0.1094E+01  0.7783E+01
  -3.820  0.1093E+01  0.7794E+01
  -3.810  0.1092E+01  0.7805E+01
  -3.800  0.1090E+01  0.7816E+01
  -3.790  0.1087E+01  0.7827E+01
  -3.780  0.1084E+01  0.7838E+01
  -3.770  0.1080E+01  0.7849E+01
  -3.760  0.1076E+01  0.7859E+01
  -3.750  0.1070E+01  0.7870E+01
  -3.740  0.1063E+01  0.7881E+01
  -3.730  0.1056E+01  0.7891E+01
  -3.720  0.1047E+01  0.7902E+01
  -3.710  0.1038E+01  0.7912E+01
  -3.700  0.1027E+01  0.7922E+01
  -3.690  0.1015E+01  0.7932E+01
  -3.680  0.1002E+01  0.7943E+01
  -3.670  0.9886E+00  0.7952E+01
  -3.660  0.9742E+00  0.7962E+01
  -3.650  0.9592E+00  0.7972E+01
  -3.640  0.9437E+00  0.7981E+01
  -3.630  0.9279E+00  0.7990E+01
  -3.620  0.9120E+00  0.8000E+01
  -3.610  0.8961E+00  0.8009E+01
  -3.600  0.8804E+00  0.8017E+01
  -3.590  0.8650E+00  0.8026E+01
  -3.580  0.8500E+00  0.8034E+01
  -3.570  0.8356E+00  0.8043E+01
  -3.560  0.8219E+00  0.8051E+01
  -3.550  0.8090E+00  0.8059E+01
  -3.540  0.7969E+00  0.8067E+01
  -3.530  0.7857E+00  0.8075E+01
  -3.520  0.7756E+00  0.8083E+01
  -3.510  0.7665E+00  0.8090E+01
  -3.500  0.7586E+00  0.8098E+01
  -3.490  0.7519E+00  0.8105E+01
  -3.480  0.7465E+00  0.8113E+01
  -3.470  0.7425E+00  0.8120E+01
  -3.460  0.7398E+00  0.8128E+01
  -3.450  0.7386E+00  0.8135E+01
  -3.440  0.7389E+00  0.8143E+01
  -3.430  0.7407E+00  0.8150E+01
  -3.420  0.7440E+00  0.8157E+01
  -3.410  0.7487E+00  0.8165E+01
  -3.400  0.7549E+00  0.8172E+01
  -3.390  0.7623E+00  0.8180E+01
  -3.380  0.7710E+00  0.8188E+01
  -3.370  0.7808E+00  0.8196E+01
  -3.360  0.7914E+00  0.8203E+01
  -3.350  0.8028E+00  0.8212E+01
  -3.340  0.8147E+00  0.8220E+01
  -3.330  0.8268E+00  0.8228E+01
  -3.320  0.8390E+00  0.8236E+01
  -3.310  0.8511E+00  0.8245E+01
  -3.300  0.8627E+00  0.8253E+01
  -3.290  0.8738E+00  0.8262E+01
  -3.280  0.8839E+00  0.8271E+01
  -3.270  0.8930E+00  0.8280E+01
  -3.260  0.9008E+00  0.8289E+01
  -3.250  0.9072E+00  0.8298E+01
  -3.240  0.9120E+00  0.8307E+01
  -3.230  0.9151E+00  0.8316E+01
  -3.220  0.9165E+00  0.8325E+01
  -3.210  0.9161E+00  0.8335E+01
  -3.200  0.9141E+00  0.8344E+01
  -3.190  0.9103E+00  0.8353E+01
  -3.180  0.9052E+00  0.8362E+01
  -3.170  0.8987E+00  0.8371E+01
  -3.160  0.8913E+00  0.8380E+01
  -3.150  0.8831E+00  0.8389E+01
  -3.140  0.8747E+00  0.8397E+01
  -3.130  0.8662E+00  0.8406E+01
  -3.120  0.8582E+00  0.8415E+01
  -3.110  0.8510E+00  0.8423E+01
  -3.100  0.8449E+00  0.8432E+01
  -3.090  0.8404E+00  0.8440E+01
  -3.080  0.8376E+00  0.8448E+01
  -3.070  0.8367E+00  0.8457E+01
  -3.060  0.8379E+00  0.8465E+01
  -3.050  0.8411E+00  0.8474E+01
  -3.040  0.8463E+00  0.8482E+01
  -3.030  0.8532E+00  0.8491E+01
  -3.020  0.8618E+00  0.8499E+01
  -3.010  0.8715E+00  0.8508E+01
  -3.000  0.8820E+00  0.8517E+01
  -2.990  0.8929E+00  0.8526E+01
  -2.980  0.9037E+00  0.8535E+01
  -2.970  0.9139E+00  0.8544E+01
  -2.960  0.9233E+00  0.8553E+01
  -2.950  0.9313E+00  0.8562E+01
  -2.940  0.9377E+00  0.8572E+01
  -2.930  0.9423E+00  0.8581E+01
  -2.920  0.9449E+00  0.8591E+01
  -2.910  0.9455E+00  0.8600E+01
  -2.900  0.9441E+00  0.8610E+01
  -2.890  0.9408E+00  0.8619E+01
  -2.880  0.9358E+00  0.8628E+01
  -2.870  0.9293E+00  0.8638E+01
  -2.860  0.9216E+00  0.8647E+01
  -2.850  0.9131E+00  0.8656E+01
  -2.840  0.9040E+00  0.8665E+01
  -2.830  0.8947E+00  0.8674E+01
  -2.820  0.8856E+00  0.8683E+01
  -2.810  0.8769E+00  0.8692E+01
  -2.800  0.8690E+00  0.8700E+01
  -2.790  0.8621E+00  0.8709E+01
  -2.780  0.8563E+00  0.8717E+01
  -2.770  0.8520E+00  0.8726E+01
  -2.760  0.8491E+00  0.8734E+01
  -2.750  0.8477E+00  0.8743E+01
  -2.740  0.8478E+00  0.8751E+01
  -2.730  0.8493E+00  0.8760E+01
  -2.720  0.8520E+00  0.8768E+01
  -2.710  0.8556E+00  0.8777E+01
  -2.700  0.8599E+00  0.8786E+01
  -2.690  0.8644E+00  0.8794E+01
  -2.680  0.8688E+00  0.8803E+01
  -2.670  0.8724E+00  0.8812E+01
  -2.660  0.8749E+00  0.8820E+01
  -2.650  0.8758E+00  0.8829E+01
  -2.640  0.8746E+00  0.8838E+01
  -2.630  0.8710E+00  0.8847E+01
  -2.620  0.8645E+00  0.8855E+01
  -2.610  0.8551E+00  0.8864E+01
  -2.600  0.8426E+00  0.8872E+01
  -2.590  0.8270E+00  0.8880E+01
  -2.580  0.8085E+00  0.8889E+01
  -2.570  0.7874E+00  0.8896E+01
  -2.560  0.7640E+00  0.8904E+01
  -2.550  0.7389E+00  0.8911E+01
  -2.540  0.7126E+00  0.8919E+01
  -2.530  0.6858E+00  0.8925E+01
  -2.520  0.6591E+00  0.8932E+01
  -2.510  0.6330E+00  0.8938E+01
  -2.500  0.6084E+00  0.8944E+01
  -2.490  0.5856E+00  0.8950E+01
  -2.480  0.5652E+00  0.8956E+01
  -2.470  0.5476E+00  0.8961E+01
  -2.460  0.5330E+00  0.8967E+01
  -2.450  0.5217E+00  0.8972E+01
  -2.440  0.5136E+00  0.8977E+01
  -2.430  0.5088E+00  0.8982E+01
  -2.420  0.5070E+00  0.8987E+01
  -2.410  0.5081E+00  0.8992E+01
  -2.400  0.5115E+00  0.8997E+01
  -2.390  0.5169E+00  0.9003E+01
  -2.380  0.5239E+00  0.9008E+01
  -2.370  0.5318E+00  0.9013E+01
  -2.360  0.5402E+00  0.9019E+01
  -2.350  0.5485E+00  0.9024E+01
  -2.340  0.5561E+00  0.9030E+01
  -2.330  0.5626E+00  0.9035E+01
  -2.320  0.5676E+00  0.9041E+01
  -2.310  0.5706E+00  0.9047E+01
  -2.300  0.5714E+00  0.9052E+01
  -2.290  0.5699E+00  0.9058E+01
  -2.280  0.5659E+00  0.9064E+01
  -2.270  0.5594E+00  0.9069E+01
  -2.260  0.5507E+00  0.9075E+01
  -2.250  0.5397E+00  0.9080E+01
  -2.240  0.5269E+00  0.9085E+01
  -2.230  0.5127E+00  0.9091E+01
  -2.220  0.4972E+00  0.9096E+01
  -2.210  0.4812E+00  0.9100E+01
  -2.200  0.4648E+00  0.9105E+01
  -2.190  0.4487E+00  0.9110E+01
  -2.180  0.4331E+00  0.9114E+01
  -2.170  0.4185E+00  0.9118E+01
  -2.160  0.4053E+00  0.9122E+01
  -2.150  0.3935E+00  0.9126E+01
  -2.140  0.3836E+00  0.9130E+01
  -2.130  0.3756E+00  0.9134E+01
  -2.120  0.3695E+00  0.9137E+01
  -2.110  0.3654E+00  0.9141E+01
  -2.100  0.3633E+00  0.9145E+01
  -2.090  0.3629E+00  0.9148E+01
  -2.080  0.3641E+00  0.9152E+01
  -2.070  0.3667E+00  0.9156E+01
  -2.060  0.3705E+00  0.9159E+01
  -2.050  0.3751E+00  0.9163E+01
  -2.040  0.3803E+00  0.9167E+01
  -2.030  0.3856E+00  0.9171E+01
  -2.020  0.3909E+00  0.9175E+01
  -2.010  0.3958E+00  0.9179E+01
  -2.000  0.4000E+00  0.9183E+01
  -1.990  0.4032E+00  0.9187E+01
  -1.980  0.4052E+00  0.9191E+01
  -1.970  0.4059E+00  0.9195E+01
  -1.960  0.4050E+00  0.9199E+01
  -1.950  0.4026E+00  0.9203E+01
  -1.940  0.3986E+00  0.9207E+01
  -1.930  0.3930E+00  0.9211E+01
  -1.920  0.3861E+00  0.9215E+01
  -1.910  0.3779E+00  0.9218E+01
  -1.900  0.3687E+00  0.9222E+01
  -1.890  0.3588E+00  0.9226E+01
  -1.880  0.3484E+00  0.9229E+01
  -1.870  0.3378E+00  0.9232E+01
  -1.860  0.3273E+00  0.9236E+01
  -1.850  0.3172E+00  0.9239E+01
  -1.840  0.3076E+00  0.9242E+01
  -1.830  0.2990E+00  0.9245E+01
  -1.820  0.2913E+00  0.9248E+01
  -1.810  0.2847E+00  0.9251E+01
  -1.800  0.2793E+00  0.9253E+01
  -1.790  0.2751E+00  0.9256E+01
  -1.780  0.2721E+00  0.9259E+01
  -1.770  0.2701E+00  0.9262E+01
  -1.760  0.2692E+00  0.9264E+01
  -1.750  0.2692E+00  0.9267E+01
  -1.740  0.2699E+00  0.9270E+01
  -1.730  0.2711E+00  0.9272E+01
  -1.720  0.2728E+00  0.9275E+01
  -1.710  0.2747E+00  0.9278E+01
  -1.700  0.2766E+00  0.9281E+01
  -1.690  0.2785E+00  0.9283E+01
  -1.680  0.2802E+00  0.9286E+01
  -1.670  0.2814E+00  0.9289E+01
  -1.660  0.2822E+00  0.9292E+01
  -1.650  0.2824E+00  0.9295E+01
  -1.640  0.2820E+00  0.9298E+01
  -1.630  0.2808E+00  0.9300E+01
  -1.620  0.2788E+00  0.9303E+01
  -1.610  0.2761E+00  0.9306E+01
  -1.600  0.2726E+00  0.9309E+01
  -1.590  0.2683E+00  0.9311E+01
  -1.580  0.2634E+00  0.9314E+01
  -1.570  0.2580E+00  0.9317E+01
  -1.560  0.2520E+00  0.9319E+01
  -1.550  0.2457E+00  0.9322E+01
  -1.540  0.2392E+00  0.9324E+01
  -1.530  0.2326E+00  0.9326E+01
  -1.520  0.2262E+00  0.9328E+01
  -1.510  0.2199E+00  0.9331E+01
  -1.500  0.2140E+00  0.9333E+01
  -1.490  0.2087E+00  0.9335E+01
  -1.480  0.2039E+00  0.9337E+01
  -1.470  0.1998E+00  0.9339E+01
  -1.460  0.1964E+00  0.9341E+01
  -1.450  0.1937E+00  0.9343E+01
  -1.440  0.1918E+00  0.9345E+01
  -1.430  0.1905E+00  0.9347E+01
  -1.420  0.1898E+00  0.9349E+01
  -1.410  0.1896E+00  0.9350E+01
  -1.400  0.1897E+00  0.9352E+01
  -1.390  0.1901E+00  0.9354E+01
  -1.380  0.1905E+00  0.9356E+01
  -1.370  0.1910E+00  0.9358E+01
  -1.360  0.1912E+00  0.9360E+01
  -1.350  0.1911E+00  0.9362E+01
  -1.340  0.1906E+00  0.9364E+01
  -1.330  0.1896E+00  0.9366E+01
  -1.320  0.1881E+00  0.9368E+01
  -1.310  0.1861E+00  0.9369E+01
  -1.300  0.1836E+00  0.9371E+01
  -1.290  0.1805E+00  0.9373E+01
  -1.280  0.1770E+00  0.9375E+01
  -1.270  0.1732E+00  0.9377E+01
  -1.260  0.1692E+00  0.9378E+01
  -1.250  0.1649E+00  0.9380E+01
  -1.240  0.1607E+00  0.9382E+01
  -1.230  0.1565E+00  0.9383E+01
  -1.220  0.1524E+00  0.9385E+01
  -1.210  0.1485E+00  0.9386E+01
  -1.200  0.1449E+00  0.9388E+01
  -1.190  0.1416E+00  0.9389E+01
  -1.180  0.1386E+00  0.9390E+01
  -1.170  0.1359E+00  0.9392E+01
  -1.160  0.1335E+00  0.9393E+01
  -1.150  0.1313E+00  0.9394E+01
  -1.140  0.1294E+00  0.9396E+01
  -1.130  0.1276E+00  0.9397E+01
  -1.120  0.1259E+00  0.9398E+01
  -1.110  0.1243E+00  0.9399E+01
  -1.100  0.1226E+00  0.9401E+01
  -1.090  0.1209E+00  0.9402E+01
  -1.080  0.1191E+00  0.9403E+01
  -1.070  0.1172E+00  0.9404E+01
  -1.060  0.1151E+00  0.9405E+01
  -1.050  0.1129E+00  0.9407E+01
  -1.040  0.1105E+00  0.9408E+01
  -1.030  0.1080E+00  0.9409E+01
  -1.020  0.1053E+00  0.9410E+01
  -1.010  0.1025E+00  0.9411E+01
  -1.000  0.9967E-01  0.9412E+01
  -0.990  0.9677E-01  0.9413E+01
  -0.980  0.9387E-01  0.9414E+01
  -0.970  0.9098E-01  0.9415E+01
  -0.960  0.8815E-01  0.9415E+01
  -0.950  0.8538E-01  0.9416E+01
  -0.940  0.8269E-01  0.9417E+01
  -0.930  0.8009E-01  0.9418E+01
  -0.920  0.7760E-01  0.9419E+01
  -0.910  0.7520E-01  0.9419E+01
  -0.900  0.7291E-01  0.9420E+01
  -0.890  0.7070E-01  0.9421E+01
  -0.880  0.6858E-01  0.9422E+01
  -0.870  0.6655E-01  0.9422E+01
  -0.860  0.6458E-01  0.9423E+01
  -0.850  0.6269E-01  0.9424E+01
  -0.840  0.6087E-01  0.9424E+01
  -0.830  0.5912E-01  0.9425E+01
  -0.820  0.5743E-01  0.9425E+01
  -0.810  0.5580E-01  0.9426E+01
  -0.800  0.5424E-01  0.9426E+01
  -0.790  0.5274E-01  0.9427E+01
  -0.780  0.5131E-01  0.9427E+01
  -0.770  0.4992E-01  0.9428E+01
  -0.760  0.4858E-01  0.9428E+01
  -0.750  0.4728E-01  0.9429E+01
  -0.740  0.4601E-01  0.9429E+01
  -0.730  0.4476E-01  0.9430E+01
  -0.720  0.4353E-01  0.9430E+01
  -0.710  0.4230E-01  0.9431E+01
  -0.700  0.4108E-01  0.9431E+01
  -0.690  0.3985E-01  0.9432E+01
  -0.680  0.3863E-01  0.9432E+01
  -0.670  0.3742E-01  0.9432E+01
  -0.660  0.3623E-01  0.9433E+01
  -0.650  0.3507E-01  0.9433E+01
  -0.640  0.3397E-01  0.9433E+01
  -0.630  0.3293E-01  0.9434E+01
  -0.620  0.3197E-01  0.9434E+01
  -0.610  0.3112E-01  0.9434E+01
  -0.600  0.3039E-01  0.9435E+01
  -0.590  0.2979E-01  0.9435E+01
  -0.580  0.2933E-01  0.9435E+01
  -0.570  0.2903E-01  0.9435E+01
  -0.560  0.2887E-01  0.9436E+01
  -0.550  0.2885E-01  0.9436E+01
  -0.540  0.2897E-01  0.9436E+01
  -0.530  0.2922E-01  0.9437E+01
  -0.520  0.2958E-01  0.9437E+01
  -0.510  0.3003E-01  0.9437E+01
  -0.500  0.3055E-01  0.9438E+01
  -0.490  0.3114E-01  0.9438E+01
  -0.480  0.3178E-01  0.9438E+01
  -0.470  0.3245E-01  0.9438E+01
  -0.460  0.3315E-01  0.9439E+01
  -0.450  0.3387E-01  0.9439E+01
  -0.440  0.3461E-01  0.9439E+01
  -0.430  0.3539E-01  0.9440E+01
  -0.420  0.3619E-01  0.9440E+01
  -0.410  0.3705E-01  0.9441E+01
  -0.400  0.3795E-01  0.9441E+01
  -0.390  0.3893E-01  0.9441E+01
  -0.380  0.3999E-01  0.9442E+01
  -0.370  0.4114E-01  0.9442E+01
  -0.360  0.4240E-01  0.9443E+01
  -0.350  0.4377E-01  0.9443E+01
  -0.340  0.4527E-01  0.9443E+01
  -0.330  0.4689E-01  0.9444E+01
  -0.320  0.4863E-01  0.9444E+01
  -0.310  0.5049E-01  0.9445E+01
  -0.300  0.5246E-01  0.9445E+01
  -0.290  0.5452E-01  0.9446E+01
  -0.280  0.5665E-01  0.9447E+01
  -0.270  0.5884E-01  0.9447E+01
  -0.260  0.6106E-01  0.9448E+01
  -0.250  0.6331E-01  0.9448E+01
  -0.240  0.6555E-01  0.9449E+01
  -0.230  0.6779E-01  0.9450E+01
  -0.220  0.7001E-01  0.9450E+01
  -0.210  0.7221E-01  0.9451E+01
  -0.200  0.7440E-01  0.9452E+01
  -0.190  0.7660E-01  0.9453E+01
  -0.180  0.7883E-01  0.9453E+01
  -0.170  0.8111E-01  0.9454E+01
  -0.160  0.8349E-01  0.9455E+01
  -0.150  0.8599E-01  0.9456E+01
  -0.140  0.8866E-01  0.9457E+01
  -0.130  0.9153E-01  0.9458E+01
  -0.120  0.9462E-01  0.9459E+01
  -0.110  0.9796E-01  0.9460E+01
  -0.100  0.1016E+00  0.9461E+01
  -0.090  0.1054E+00  0.9462E+01
  -0.080  0.1095E+00  0.9463E+01
  -0.070  0.1138E+00  0.9464E+01
  -0.060  0.1183E+00  0.9465E+01
  -0.050  0.1229E+00  0.9466E+01
  -0.040  0.1275E+00  0.9468E+01
  -0.030  0.1321E+00  0.9469E+01
  -0.020  0.1365E+00  0.9470E+01
  -0.010  0.1407E+00  0.9472E+01
   0.000  0.1446E+00  0.9473E+01
   0.010  0.1481E+00  0.9475E+01
   0.020  0.1511E+00  0.9476E+01
   0.030  0.1536E+00  0.9478E+01
   0.040  0.1557E+00  0.9479E+01
   0.050  0.1572E+00  0.9481E+01
   0.060  0.1583E+00  0.9482E+01
   0.070  0.1589E+00  0.9484E+01
   0.080  0.1592E+00  0.9486E+01
   0.090  0.1593E+00  0.9487E+01
   0.100  0.1594E+00  0.9489E+01
   0.110  0.1595E+00  0.9490E+01
   0.120  0.1599E+00  0.9492E+01
   0.130  0.1606E+00  0.9494E+01
   0.140  0.1618E+00  0.9495E+01
   0.150  0.1637E+00  0.9497E+01
   0.160  0.1664E+00  0.9499E+01
   0.170  0.1698E+00  0.9500E+01
   0.180  0.1740E+00  0.9502E+01
   0.190  0.1791E+00  0.9504E+01
   0.200  0.1849E+00  0.9506E+01
   0.210  0.1914E+00  0.9508E+01
   0.220  0.1985E+00  0.9510E+01
   0.230  0.2059E+00  0.9512E+01
   0.240  0.2136E+00  0.9514E+01
   0.250  0.2213E+00  0.9516E+01
   0.260  0.2289E+00  0.9518E+01
   0.270  0.2361E+00  0.9521E+01
   0.280  0.2429E+00  0.9523E+01
   0.290  0.2489E+00  0.9525E+01
   0.300  0.2543E+00  0.9528E+01
   0.310  0.2587E+00  0.9531E+01
   0.320  0.2623E+00  0.9533E+01
   0.330  0.2649E+00  0.9536E+01
   0.340  0.2666E+00  0.9539E+01
   0.350  0.2674E+00  0.9541E+01
   0.360  0.2675E+00  0.9544E+01
   0.370  0.2670E+00  0.9547E+01
   0.380  0.2661E+00  0.9549E+01
   0.390  0.2648E+00  0.9552E+01
   0.400  0.2635E+00  0.9555E+01
   0.410  0.2623E+00  0.9557E+01
   0.420  0.2614E+00  0.9560E+01
   0.430  0.2612E+00  0.9562E+01
   0.440  0.2617E+00  0.9565E+01
   0.450  0.2632E+00  0.9568E+01
   0.460  0.2659E+00  0.9570E+01
   0.470  0.2699E+00  0.9573E+01
   0.480  0.2753E+00  0.9576E+01
   0.490  0.2822E+00  0.9579E+01
   0.500  0.2906E+00  0.9581E+01
   0.510  0.3005E+00  0.9584E+01
   0.520  0.3117E+00  0.9588E+01
   0.530  0.3241E+00  0.9591E+01
   0.540  0.3374E+00  0.9594E+01
   0.550  0.3515E+00  0.9598E+01
   0.560  0.3659E+00  0.9601E+01
   0.570  0.3804E+00  0.9605E+01
   0.580  0.3946E+00  0.9609E+01
   0.590  0.4082E+00  0.9613E+01
   0.600  0.4209E+00  0.9617E+01
   0.610  0.4323E+00  0.9622E+01
   0.620  0.4423E+00  0.9626E+01
   0.630  0.4507E+00  0.9631E+01
   0.640  0.4574E+00  0.9635E+01
   0.650  0.4624E+00  0.9640E+01
   0.660  0.4660E+00  0.9645E+01
   0.670  0.4683E+00  0.9649E+01
   0.680  0.4696E+00  0.9654E+01
   0.690  0.4704E+00  0.9659E+01
   0.700  0.4711E+00  0.9663E+01
   0.710  0.4723E+00  0.9668E+01
   0.720  0.4746E+00  0.9673E+01
   0.730  0.4784E+00  0.9678E+01
   0.740  0.4845E+00  0.9682E+01
   0.750  0.4932E+00  0.9687E+01
   0.760  0.5051E+00  0.9692E+01
   0.770  0.5204E+00  0.9698E+01
   0.780  0.5394E+00  0.9703E+01
   0.790  0.5622E+00  0.9709E+01
   0.800  0.5887E+00  0.9715E+01
   0.810  0.6186E+00  0.9721E+01
   0.820  0.6517E+00  0.9727E+01
   0.830  0.6873E+00  0.9734E+01
   0.840  0.7248E+00  0.9741E+01
   0.850  0.7634E+00  0.9749E+01
   0.860  0.8023E+00  0.9757E+01
   0.870  0.8406E+00  0.9765E+01
   0.880  0.8774E+00  0.9774E+01
   0.890  0.9117E+00  0.9783E+01
   0.900  0.9427E+00  0.9793E+01
   0.910  0.9698E+00  0.9802E+01
   0.920  0.9923E+00  0.9812E+01
   0.930  0.1010E+01  0.9822E+01
   0.940  0.1022E+01  0.9833E+01
   0.950  0.1029E+01  0.9843E+01
   0.960  0.1031E+01  0.9853E+01
   0.970  0.1028E+01  0.9864E+01
   0.980  0.1021E+01  0.9874E+01
   0.990  0.1010E+01  0.9884E+01
   1.000  0.9962E+00  0.9894E+01
   1.010  0.9801E+00  0.9904E+01
   1.020  0.9627E+00  0.9913E+01
   1.030  0.9447E+00  0.9923E+01
   1.040  0.9269E+00  0.9932E+01
   1.050  0.9101E+00  0.9941E+01
   1.060  0.8948E+00  0.9950E+01
   1.070  0.8816E+00  0.9959E+01
   1.080  0.8709E+00  0.9968E+01
   1.090  0.8630E+00  0.9976E+01
   1.100  0.8579E+00  0.9985E+01
   1.110  0.8558E+00  0.9993E+01
   1.120  0.8565E+00  0.1000E+02
   1.130  0.8599E+00  0.1001E+02
   1.140  0.8659E+00  0.1002E+02
   1.150  0.8740E+00  0.1003E+02
   1.160  0.8839E+00  0.1004E+02
   1.170  0.8952E+00  0.1005E+02
   1.180  0.9076E+00  0.1005E+02
   1.190  0.9205E+00  0.1006E+02
   1.200  0.9337E+00  0.1007E+02
   1.210  0.9465E+00  0.1008E+02
   1.220  0.9586E+00  0.1009E+02
   1.230  0.9697E+00  0.1010E+02
   1.240  0.9794E+00  0.1011E+02
   1.250  0.9874E+00  0.1012E+02
   1.260  0.9933E+00  0.1013E+02
   1.270  0.9971E+00  0.1014E+02
   1.280  0.9986E+00  0.1015E+02
   1.290  0.9977E+00  0.1016E+02
   1.300  0.9945E+00  0.1017E+02
   1.310  0.9890E+00  0.1018E+02
   1.320  0.9814E+00  0.1019E+02
   1.330  0.9719E+00  0.1020E+02
   1.340  0.9607E+00  0.1021E+02
   1.350  0.9482E+00  0.1022E+02
   1.360  0.9347E+00  0.1023E+02
   1.370  0.9204E+00  0.1024E+02
   1.380  0.9058E+00  0.1025E+02
   1.390  0.8912E+00  0.1026E+02
   1.400  0.8768E+00  0.1027E+02
   1.410  0.8630E+00  0.1027E+02
   1.420  0.8500E+00  0.1028E+02
   1.430  0.8379E+00  0.1029E+02
   1.440  0.8270E+00  0.1030E+02
   1.450  0.8174E+00  0.1031E+02
   1.460  0.8091E+00  0.1032E+02
   1.470  0.8021E+00  0.1032E+02
   1.480  0.7965E+00  0.1033E+02
   1.490  0.7921E+00  0.1034E+02
   1.500  0.7890E+00  0.1035E+02
   1.510  0.7870E+00  0.1036E+02
   1.520  0.7859E+00  0.1036E+02
   1.530  0.7856E+00  0.1037E+02
   1.540  0.7858E+00  0.1038E+02
   1.550  0.7862E+00  0.1039E+02
   1.560  0.7867E+00  0.1039E+02
   1.570  0.7870E+00  0.1040E+02
   1.580  0.7867E+00  0.1041E+02
   1.590  0.7858E+00  0.1042E+02
   1.600  0.7838E+00  0.1043E+02
   1.610  0.7807E+00  0.1043E+02
   1.620  0.7762E+00  0.1044E+02
   1.630  0.7704E+00  0.1045E+02
   1.640  0.7633E+00  0.1046E+02
   1.650  0.7547E+00  0.1046E+02
   1.660  0.7450E+00  0.1047E+02
   1.670  0.7342E+00  0.1048E+02
   1.680  0.7226E+00  0.1049E+02
   1.690  0.7103E+00  0.1049E+02
   1.700  0.6978E+00  0.1050E+02
   1.710  0.6853E+00  0.1051E+02
   1.720  0.6730E+00  0.1051E+02
   1.730  0.6612E+00  0.1052E+02
   1.740  0.6502E+00  0.1053E+02
   1.750  0.6401E+00  0.1053E+02
   1.760  0.6310E+00  0.1054E+02
   1.770  0.6231E+00  0.1055E+02
   1.780  0.6165E+00  0.1055E+02
   1.790  0.6111E+00  0.1056E+02
   1.800  0.6069E+00  0.1056E+02
   1.810  0.6038E+00  0.1057E+02
   1.820  0.6019E+00  0.1058E+02
   1.830  0.6010E+00  0.1058E+02
   1.840  0.6011E+00  0.1059E+02
   1.850  0.6021E+00  0.1059E+02
   1.860  0.6040E+00  0.1060E+02
   1.870  0.6065E+00  0.1061E+02
   1.880  0.6097E+00  0.1061E+02
   1.890  0.6134E+00  0.1062E+02
   1.900  0.6176E+00  0.1062E+02
   1.910  0.6220E+00  0.1063E+02
   1.920  0.6266E+00  0.1064E+02
   1.930  0.6312E+00  0.1064E+02
   1.940  0.6355E+00  0.1065E+02
   1.950  0.6395E+00  0.1066E+02
   1.960  0.6429E+00  0.1066E+02
   1.970  0.6454E+00  0.1067E+02
   1.980  0.6470E+00  0.1068E+02
   1.990  0.6475E+00  0.1068E+02
   2.000  0.6467E+00  0.1069E+02
   2.010  0.6445E+00  0.1070E+02
   2.020  0.6409E+00  0.1070E+02
   2.030  0.6359E+00  0.1071E+02
   2.040  0.6296E+00  0.1071E+02
   2.050  0.6221E+00  0.1072E+02
   2.060  0.6136E+00  0.1073E+02
   2.070  0.6042E+00  0.1073E+02
   2.080  0.5942E+00  0.1074E+02
   2.090  0.5838E+00  0.1074E+02
   2.100  0.5734E+00  0.1075E+02
   2.110  0.5633E+00  0.1076E+02
   2.120  0.5535E+00  0.1076E+02
   2.130  0.5446E+00  0.1077E+02
   2.140  0.5365E+00  0.1077E+02
   2.150  0.5296E+00  0.1078E+02
   2.160  0.5238E+00  0.1078E+02
   2.170  0.5195E+00  0.1079E+02
   2.180  0.5165E+00  0.1079E+02
   2.190  0.5149E+00  0.1080E+02
   2.200  0.5146E+00  0.1080E+02
   2.210  0.5155E+00  0.1081E+02
   2.220  0.5177E+00  0.1081E+02
   2.230  0.5208E+00  0.1082E+02
   2.240  0.5248E+00  0.1082E+02
   2.250  0.5294E+00  0.1083E+02
   2.260  0.5346E+00  0.1083E+02
   2.270  0.5401E+00  0.1084E+02
   2.280  0.5457E+00  0.1085E+02
   2.290  0.5513E+00  0.1085E+02
   2.300  0.5568E+00  0.1086E+02
   2.310  0.5619E+00  0.1086E+02
   2.320  0.5665E+00  0.1087E+02
   2.330  0.5706E+00  0.1087E+02
   2.340  0.5740E+00  0.1088E+02
   2.350  0.5767E+00  0.1089E+02
   2.360  0.5787E+00  0.1089E+02
   2.370  0.5799E+00  0.1090E+02
   2.380  0.5803E+00  0.1090E+02
   2.390  0.5801E+00  0.1091E+02
   2.400  0.5793E+00  0.1091E+02
   2.410  0.5780E+00  0.1092E+02
   2.420  0.5763E+00  0.1093E+02
   2.430  0.5745E+00  0.1093E+02
   2.440  0.5725E+00  0.1094E+02
   2.450  0.5707E+00  0.1094E+02
   2.460  0.5692E+00  0.1095E+02
   2.470  0.5681E+00  0.1095E+02
   2.480  0.5675E+00  0.1096E+02
   2.490  0.5675E+00  0.1097E+02
   2.500  0.5682E+00  0.1097E+02
   2.510  0.5697E+00  0.1098E+02
   2.520  0.5720E+00  0.1098E+02
   2.530  0.5750E+00  0.1099E+02
   2.540  0.5787E+00  0.1099E+02
   2.550  0.5832E+00  0.1100E+02
   2.560  0.5884E+00  0.1101E+02
   2.570  0.5942E+00  0.1101E+02
   2.580  0.6006E+00  0.1102E+02
   2.590  0.6076E+00  0.1102E+02
   2.600  0.6151E+00  0.1103E+02
   2.610  0.6230E+00  0.1104E+02
   2.620  0.6314E+00  0.1104E+02
   2.630  0.6402E+00  0.1105E+02
   2.640  0.6494E+00  0.1106E+02
   2.650  0.6590E+00  0.1106E+02
   2.660  0.6688E+00  0.1107E+02
   2.670  0.6788E+00  0.1108E+02
   2.680  0.6889E+00  0.1108E+02
   2.690  0.6990E+00  0.1109E+02
   2.700  0.7090E+00  0.1110E+02
   2.710  0.7186E+00  0.1110E+02
   2.720  0.7279E+00  0.1111E+02
   2.730  0.7365E+00  0.1112E+02
   2.740  0.7443E+00  0.1113E+02
   2.750  0.7511E+00  0.1113E+02
   2.760  0.7569E+00  0.1114E+02
   2.770  0.7613E+00  0.1115E+02
   2.780  0.7645E+00  0.1116E+02
   2.790  0.7662E+00  0.1116E+02
   2.800  0.7666E+00  0.1117E+02
   2.810  0.7655E+00  0.1118E+02
   2.820  0.7633E+00  0.1119E+02
   2.830  0.7600E+00  0.1119E+02
   2.840  0.7558E+00  0.1120E+02
   2.850  0.7510E+00  0.1121E+02
   2.860  0.7459E+00  0.1122E+02
   2.870  0.7408E+00  0.1122E+02
   2.880  0.7361E+00  0.1123E+02
   2.890  0.7321E+00  0.1124E+02
   2.900  0.7290E+00  0.1125E+02
   2.910  0.7273E+00  0.1125E+02
   2.920  0.7270E+00  0.1126E+02
   2.930  0.7284E+00  0.1127E+02
   2.940  0.7316E+00  0.1128E+02
   2.950  0.7366E+00  0.1128E+02
   2.960  0.7433E+00  0.1129E+02
   2.970  0.7517E+00  0.1130E+02
   2.980  0.7615E+00  0.1131E+02
   2.990  0.7726E+00  0.1131E+02
   3.000  0.7846E+00  0.1132E+02
   3.010  0.7972E+00  0.1133E+02
   3.020  0.8102E+00  0.1134E+02
   3.030  0.8232E+00  0.1135E+02
   3.040  0.8359E+00  0.1135E+02
   3.050  0.8482E+00  0.1136E+02
   3.060  0.8598E+00  0.1137E+02
   3.070  0.8705E+00  0.1138E+02
   3.080  0.8803E+00  0.1139E+02
   3.090  0.8890E+00  0.1140E+02
   3.100  0.8966E+00  0.1141E+02
   3.110  0.9031E+00  0.1142E+02
   3.120  0.9086E+00  0.1142E+02
   3.130  0.9132E+00  0.1143E+02
   3.140  0.9169E+00  0.1144E+02
   3.150  0.9199E+00  0.1145E+02
   3.160  0.9222E+00  0.1146E+02
   3.170  0.9239E+00  0.1147E+02
   3.180  0.9251E+00  0.1148E+02
   3.190  0.9260E+00  0.1149E+02
   3.200  0.9264E+00  0.1150E+02
   3.210  0.9265E+00  0.1151E+02
   3.220  0.9263E+00  0.1152E+02
   3.230  0.9258E+00  0.1153E+02
   3.240  0.9248E+00  0.1154E+02
   3.250  0.9235E+00  0.1154E+02
   3.260  0.9216E+00  0.1155E+02
   3.270  0.9192E+00  0.1156E+02
   3.280  0.9162E+00  0.1157E+02
   3.290  0.9126E+00  0.1158E+02
   3.300  0.9082E+00  0.1159E+02
   3.310  0.9032E+00  0.1160E+02
   3.320  0.8976E+00  0.1161E+02
   3.330  0.8914E+00  0.1162E+02
   3.340  0.8847E+00  0.1163E+02
   3.350  0.8778E+00  0.1163E+02
   3.360  0.8707E+00  0.1164E+02
   3.370  0.8638E+00  0.1165E+02
   3.380  0.8573E+00  0.1166E+02
   3.390  0.8514E+00  0.1167E+02
   3.400  0.8464E+00  0.1168E+02
   3.410  0.8425E+00  0.1169E+02
   3.420  0.8400E+00  0.1169E+02
   3.430  0.8388E+00  0.1170E+02
   3.440  0.8392E+00  0.1171E+02
   3.450  0.8412E+00  0.1172E+02
   3.460  0.8448E+00  0.1173E+02
   3.470  0.8497E+00  0.1174E+02
   3.480  0.8559E+00  0.1174E+02
   3.490  0.8631E+00  0.1175E+02
   3.500  0.8710E+00  0.1176E+02
   3.510  0.8793E+00  0.1177E+02
   3.520  0.8877E+00  0.1178E+02
   3.530  0.8958E+00  0.1179E+02
   3.540  0.9034E+00  0.1180E+02
   3.550  0.9101E+00  0.1181E+02
   3.560  0.9156E+00  0.1182E+02
   3.570  0.9199E+00  0.1183E+02
   3.580  0.9226E+00  0.1183E+02
   3.590  0.9238E+00  0.1184E+02
   3.600  0.9235E+00  0.1185E+02
   3.610  0.9216E+00  0.1186E+02
   3.620  0.9183E+00  0.1187E+02
   3.630  0.9139E+00  0.1188E+02
   3.640  0.9083E+00  0.1189E+02
   3.650  0.9020E+00  0.1190E+02
   3.660  0.8951E+00  0.1191E+02
   3.670  0.8879E+00  0.1192E+02
   3.680  0.8805E+00  0.1193E+02
   3.690  0.8734E+00  0.1193E+02
   3.700  0.8665E+00  0.1194E+02
   3.710  0.8601E+00  0.1195E+02
   3.720  0.8544E+00  0.1196E+02
   3.730  0.8494E+00  0.1197E+02
   3.740  0.8451E+00  0.1198E+02
   3.750  0.8416E+00  0.1199E+02
   3.760  0.8389E+00  0.1199E+02
   3.770  0.8371E+00  0.1200E+02
   3.780  0.8359E+00  0.1201E+02
   3.790  0.8354E+00  0.1202E+02
   3.800  0.8356E+00  0.1203E+02
   3.810  0.8364E+00  0.1204E+02
   3.820  0.8377E+00  0.1204E+02
   3.830  0.8395E+00  0.1205E+02
   3.840  0.8417E+00  0.1206E+02
   3.850  0.8443E+00  0.1207E+02
   3.860  0.8473E+00  0.1208E+02
   3.870  0.8506E+00  0.1209E+02
   3.880  0.8543E+00  0.1209E+02
   3.890  0.8584E+00  0.1210E+02
   3.900  0.8628E+00  0.1211E+02
   3.910  0.8675E+00  0.1212E+02
   3.920  0.8726E+00  0.1213E+02
   3.930  0.8782E+00  0.1214E+02
   3.940  0.8841E+00  0.1215E+02
   3.950  0.8905E+00  0.1216E+02
   3.960  0.8974E+00  0.1216E+02
   3.970  0.9048E+00  0.1217E+02
   3.980  0.9127E+00  0.1218E+02
   3.990  0.9211E+00  0.1219E+02
   4.000  0.9301E+00  0.1220E+02
   4.010  0.9396E+00  0.1221E+02
   4.020  0.9495E+00  0.1222E+02
   4.030  0.9598E+00  0.1223E+02
   4.040  0.9704E+00  0.1224E+02
   4.050  0.9810E+00  0.1225E+02
   4.060  0.9916E+00  0.1226E+02
   4.070  0.1002E+01  0.1227E+02
   4.080  0.1012E+01  0.1228E+02
   4.090  0.1021E+01  0.1229E+02
   4.100  0.1029E+01  0.1230E+02
   4.110  0.1036E+01  0.1231E+02
   4.120  0.1042E+01  0.1232E+02
   4.130  0.1046E+01  0.1233E+02
   4.140  0.1049E+01  0.1234E+02
   4.150  0.1050E+01  0.1235E+02
   4.160  0.1050E+01  0.1236E+02
   4.170  0.1048E+01  0.1237E+02
   4.180  0.1045E+01  0.1238E+02
   4.190  0.1040E+01  0.1239E+02
   4.200  0.1036E+01  0.1240E+02
   4.210  0.1030E+01  0.1241E+02
   4.220  0.1025E+01  0.1242E+02
   4.230  0.1019E+01  0.1244E+02
   4.240  0.1015E+01  0.1245E+02
   4.250  0.1011E+01  0.1246E+02
   4.260  0.1008E+01  0.1247E+02
   4.270  0.1007E+01  0.1248E+02
   4.280  0.1008E+01  0.1249E+02
   4.290  0.1010E+01  0.1250E+02
   4.300  0.1014E+01  0.1251E+02
   4.310  0.1019E+01  0.1252E+02
   4.320  0.1026E+01  0.1253E+02
   4.330  0.1034E+01  0.1254E+02
   4.340  0.1042E+01  0.1255E+02
   4.350  0.1051E+01  0.1256E+02
   4.360  0.1060E+01  0.1257E+02
   4.370  0.1069E+01  0.1258E+02
   4.380  0.1077E+01  0.1259E+02
   4.390  0.1084E+01  0.1260E+02
   4.400  0.1090E+01  0.1261E+02
   4.410  0.1094E+01  0.1262E+02
   4.420  0.1096E+01  0.1263E+02
   4.430  0.1097E+01  0.1264E+02
   4.440  0.1096E+01  0.1266E+02
   4.450  0.1094E+01  0.1267E+02
   4.460  0.1090E+01  0.1268E+02
   4.470  0.1085E+01  0.1269E+02
   4.480  0.1079E+01  0.1270E+02
   4.490  0.1073E+01  0.1271E+02
   4.500  0.1067E+01  0.1272E+02
   4.510  0.1060E+01  0.1273E+02
   4.520  0.1054E+01  0.1274E+02
   4.530  0.1048E+01  0.1275E+02
   4.540  0.1043E+01  0.1276E+02
   4.550  0.1039E+01  0.1277E+02
   4.560  0.1036E+01  0.1278E+02
   4.570  0.1034E+01  0.1279E+02
   4.580  0.1033E+01  0.1280E+02
   4.590  0.1032E+01  0.1281E+02
   4.600  0.1032E+01  0.1282E+02
   4.610  0.1033E+01  0.1283E+02
   4.620  0.1033E+01  0.1284E+02
   4.630  0.1034E+01  0.1286E+02
   4.640  0.1035E+01  0.1287E+02
   4.650  0.1035E+01  0.1288E+02
   4.660  0.1036E+01  0.1289E+02
   4.670  0.1035E+01  0.1290E+02
   4.680  0.1035E+01  0.1291E+02
   4.690  0.1034E+01  0.1292E+02
   4.700  0.1033E+01  0.1293E+02
   4.710  0.1031E+01  0.1294E+02
   4.720  0.1029E+01  0.1295E+02
   4.730  0.1027E+01  0.1296E+02
   4.740  0.1026E+01  0.1297E+02
   4.750  0.1025E+01  0.1298E+02
   4.760  0.1024E+01  0.1299E+02
   4.770  0.1023E+01  0.1300E+02
   4.780  0.1024E+01  0.1301E+02
   4.790  0.1025E+01  0.1302E+02
   4.800  0.1027E+01  0.1303E+02
   4.810  0.1029E+01  0.1304E+02
   4.820  0.1033E+01  0.1305E+02
   4.830  0.1036E+01  0.1306E+02
   4.840  0.1041E+01  0.1307E+02
   4.850  0.1045E+01  0.1308E+02
   4.860  0.1050E+01  0.1309E+02
   4.870  0.1054E+01  0.1310E+02
   4.880  0.1058E+01  0.1311E+02
   4.890  0.1062E+01  0.1312E+02
   4.900  0.1065E+01  0.1314E+02
   4.910  0.1068E+01  0.1315E+02
   4.920  0.1069E+01  0.1316E+02
   4.930  0.1070E+01  0.1317E+02
   4.940  0.1071E+01  0.1318E+02
   4.950  0.1070E+01  0.1319E+02
   4.960  0.1069E+01  0.1320E+02
   4.970  0.1067E+01  0.1321E+02
   4.980  0.1065E+01  0.1322E+02
   4.990  0.1062E+01  0.1323E+02
   5.000  0.1060E+01  0.1324E+02
   5.010  0.1057E+01  0.1325E+02
   5.020  0.1054E+01  0.1326E+02
   5.030  0.1052E+01  0.1327E+02
   5.040  0.1050E+01  0.1328E+02
   5.050  0.1049E+01  0.1329E+02
   5.060  0.1049E+01  0.1330E+02
   5.070  0.1050E+01  0.1332E+02
   5.080  0.1052E+01  0.1333E+02
   5.090  0.1055E+01  0.1334E+02
   5.100  0.1059E+01  0.1335E+02
   5.110  0.1064E+01  0.1336E+02
   5.120  0.1071E+01  0.1337E+02
   5.130  0.1079E+01  0.1338E+02
   5.140  0.1088E+01  0.1339E+02
   5.150  0.1098E+01  0.1340E+02
   5.160  0.1110E+01  0.1341E+02
   5.170  0.1122E+01  0.1342E+02
   5.180  0.1135E+01  0.1343E+02
   5.190  0.1148E+01  0.1345E+02
   5.200  0.1161E+01  0.1346E+02
   5.210  0.1175E+01  0.1347E+02
   5.220  0.1188E+01  0.1348E+02
   5.230  0.1201E+01  0.1349E+02
   5.240  0.1214E+01  0.1351E+02
   5.250  0.1226E+01  0.1352E+02
   5.260  0.1237E+01  0.1353E+02
   5.270  0.1246E+01  0.1354E+02
   5.280  0.1255E+01  0.1356E+02
   5.290  0.1262E+01  0.1357E+02
   5.300  0.1268E+01  0.1358E+02
   5.310  0.1272E+01  0.1359E+02
   5.320  0.1275E+01  0.1361E+02
   5.330  0.1276E+01  0.1362E+02
   5.340  0.1276E+01  0.1363E+02
   5.350  0.1274E+01  0.1364E+02
   5.360  0.1270E+01  0.1366E+02
   5.370  0.1264E+01  0.1367E+02
   5.380  0.1257E+01  0.1368E+02
   5.390  0.1248E+01  0.1369E+02
   5.400  0.1238E+01  0.1371E+02
   5.410  0.1226E+01  0.1372E+02
   5.420  0.1213E+01  0.1373E+02
   5.430  0.1199E+01  0.1374E+02
   5.440  0.1184E+01  0.1376E+02
   5.450  0.1168E+01  0.1377E+02
   5.460  0.1151E+01  0.1378E+02
   5.470  0.1135E+01  0.1379E+02
   5.480  0.1118E+01  0.1380E+02
   5.490  0.1102E+01  0.1381E+02
   5.500  0.1088E+01  0.1382E+02
   5.510  0.1075E+01  0.1383E+02
   5.520  0.1064E+01  0.1384E+02
   5.530  0.1055E+01  0.1385E+02
   5.540  0.1050E+01  0.1387E+02
   5.550  0.1048E+01  0.1388E+02
   5.560  0.1049E+01  0.1389E+02
   5.570  0.1054E+01  0.1390E+02
   5.580  0.1063E+01  0.1391E+02
   5.590  0.1076E+01  0.1392E+02
   5.600  0.1092E+01  0.1393E+02
   5.610  0.1112E+01  0.1394E+02
   5.620  0.1134E+01  0.1395E+02
   5.630  0.1160E+01  0.1396E+02
   5.640  0.1187E+01  0.1398E+02
   5.650  0.1215E+01  0.1399E+02
   5.660  0.1245E+01  0.1400E+02
   5.670  0.1274E+01  0.1401E+02
   5.680  0.1303E+01  0.1403E+02
   5.690  0.1331E+01  0.1404E+02
   5.700  0.1358E+01  0.1405E+02
   5.710  0.1382E+01  0.1407E+02
   5.720  0.1405E+01  0.1408E+02
   5.730  0.1424E+01  0.1409E+02
   5.740  0.1441E+01  0.1411E+02
   5.750  0.1455E+01  0.1412E+02
   5.760  0.1467E+01  0.1414E+02
   5.770  0.1476E+01  0.1415E+02
   5.780  0.1482E+01  0.1417E+02
   5.790  0.1486E+01  0.1418E+02
   5.800  0.1489E+01  0.1420E+02
   5.810  0.1490E+01  0.1421E+02
   5.820  0.1489E+01  0.1423E+02
   5.830  0.1488E+01  0.1424E+02
   5.840  0.1487E+01  0.1426E+02
   5.850  0.1485E+01  0.1427E+02
   5.860  0.1483E+01  0.1429E+02
   5.870  0.1482E+01  0.1430E+02
   5.880  0.1481E+01  0.1432E+02
   5.890  0.1481E+01  0.1433E+02
   5.900  0.1482E+01  0.1435E+02
   5.910  0.1484E+01  0.1436E+02
   5.920  0.1486E+01  0.1438E+02
   5.930  0.1488E+01  0.1439E+02
   5.940  0.1491E+01  0.1441E+02
   5.950  0.1494E+01  0.1442E+02
   5.960  0.1497E+01  0.1444E+02
   5.970  0.1500E+01  0.1445E+02
   5.980  0.1502E+01  0.1447E+02
   5.990  0.1504E+01  0.1448E+02
   6.000  0.1505E+01  0.1450E+02
   6.010  0.1505E+01  0.1451E+02
   6.020  0.1504E+01  0.1453E+02
   6.030  0.1503E+01  0.1454E+02
   6.040  0.1500E+01  0.1456E+02
   6.050  0.1497E+01  0.1457E+02
   6.060  0.1494E+01  0.1459E+02
   6.070  0.1490E+01  0.1460E+02
   6.080  0.1485E+01  0.1462E+02
   6.090  0.1481E+01  0.1463E+02
   6.100  0.1477E+01  0.1464E+02
   6.110  0.1472E+01  0.1466E+02
   6.120  0.1469E+01  0.1467E+02
   6.130  0.1465E+01  0.1469E+02
   6.140  0.1462E+01  0.1470E+02
   6.150  0.1459E+01  0.1472E+02
   6.160  0.1457E+01  0.1473E+02
   6.170  0.1455E+01  0.1475E+02
   6.180  0.1454E+01  0.1476E+02
   6.190  0.1452E+01  0.1478E+02
   6.200  0.1451E+01  0.1479E+02
   6.210  0.1450E+01  0.1481E+02
   6.220  0.1450E+01  0.1482E+02
   6.230  0.1449E+01  0.1483E+02
   6.240  0.1449E+01  0.1485E+02
   6.250  0.1449E+01  0.1486E+02
   6.260  0.1449E+01  0.1488E+02
   6.270  0.1449E+01  0.1489E+02
   6.280  0.1450E+01  0.1491E+02
   6.290  0.1451E+01  0.1492E+02
   6.300  0.1452E+01  0.1494E+02
   6.310  0.1454E+01  0.1495E+02
   6.320  0.1456E+01  0.1496E+02
   6.330  0.1458E+01  0.1498E+02
   6.340  0.1461E+01  0.1499E+02
   6.350  0.1464E+01  0.1501E+02
   6.360  0.1466E+01  0.1502E+02
   6.370  0.1469E+01  0.1504E+02
   6.380  0.1471E+01  0.1505E+02
   6.390  0.1472E+01  0.1507E+02
   6.400  0.1473E+01  0.1508E+02
   6.410  0.1473E+01  0.1510E+02
   6.420  0.1473E+01  0.1511E+02
   6.430  0.1472E+01  0.1513E+02
   6.440  0.1470E+01  0.1514E+02
   6.450  0.1468E+01  0.1516E+02
   6.460  0.1465E+01  0.1517E+02
   6.470  0.1462E+01  0.1518E+02
   6.480  0.1459E+01  0.1520E+02
   6.490  0.1455E+01  0.1521E+02
   6.500  0.1452E+01  0.1523E+02
   6.510  0.1449E+01  0.1524E+02
   6.520  0.1446E+01  0.1526E+02
   6.530  0.1445E+01  0.1527E+02
   6.540  0.1443E+01  0.1529E+02
   6.550  0.1443E+01  0.1530E+02
   6.560  0.1443E+01  0.1532E+02
   6.570  0.1445E+01  0.1533E+02
   6.580  0.1448E+01  0.1534E+02
   6.590  0.1452E+01  0.1536E+02
   6.600  0.1457E+01  0.1537E+02
   6.610  0.1464E+01  0.1539E+02
   6.620  0.1473E+01  0.1540E+02
   6.630  0.1484E+01  0.1542E+02
   6.640  0.1496E+01  0.1543E+02
   6.650  0.1510E+01  0.1545E+02
   6.660  0.1527E+01  0.1546E+02
   6.670  0.1545E+01  0.1548E+02
   6.680  0.1566E+01  0.1549E+02
   6.690  0.1588E+01  0.1551E+02
   6.700  0.1612E+01  0.1553E+02
   6.710  0.1638E+01  0.1554E+02
   6.720  0.1665E+01  0.1556E+02
   6.730  0.1692E+01  0.1558E+02
   6.740  0.1721E+01  0.1559E+02
   6.750  0.1749E+01  0.1561E+02
   6.760  0.1778E+01  0.1563E+02
   6.770  0.1806E+01  0.1565E+02
   6.780  0.1833E+01  0.1566E+02
   6.790  0.1858E+01  0.1568E+02
   6.800  0.1882E+01  0.1570E+02
   6.810  0.1905E+01  0.1572E+02
   6.820  0.1925E+01  0.1574E+02
   6.830  0.1943E+01  0.1576E+02
   6.840  0.1960E+01  0.1578E+02
   6.850  0.1974E+01  0.1580E+02
   6.860  0.1987E+01  0.1582E+02
   6.870  0.1999E+01  0.1584E+02
   6.880  0.2009E+01  0.1586E+02
   6.890  0.2019E+01  0.1588E+02
   6.900  0.2028E+01  0.1590E+02
   6.910  0.2038E+01  0.1592E+02
   6.920  0.2047E+01  0.1594E+02
   6.930  0.2058E+01  0.1596E+02
   6.940  0.2069E+01  0.1598E+02
   6.950  0.2082E+01  0.1600E+02
   6.960  0.2096E+01  0.1602E+02
   6.970  0.2111E+01  0.1604E+02
   6.980  0.2129E+01  0.1607E+02
   6.990  0.2148E+01  0.1609E+02
   7.000  0.2168E+01  0.1611E+02
   7.010  0.2191E+01  0.1613E+02
   7.020  0.2214E+01  0.1615E+02
   7.030  0.2239E+01  0.1618E+02
   7.040  0.2265E+01  0.1620E+02
   7.050  0.2291E+01  0.1622E+02
   7.060  0.2317E+01  0.1624E+02
   7.070  0.2343E+01  0.1627E+02
   7.080  0.2369E+01  0.1629E+02
   7.090  0.2393E+01  0.1632E+02
   7.100  0.2416E+01  0.1634E+02
   7.110  0.2437E+01  0.1636E+02
   7.120  0.2455E+01  0.1639E+02
   7.130  0.2471E+01  0.1641E+02
   7.140  0.2484E+01  0.1644E+02
   7.150  0.2494E+01  0.1646E+02
   7.160  0.2501E+01  0.1649E+02
   7.170  0.2504E+01  0.1651E+02
   7.180  0.2505E+01  0.1654E+02
   7.190  0.2502E+01  0.1656E+02
   7.200  0.2497E+01  0.1659E+02
   7.210  0.2490E+01  0.1661E+02
   7.220  0.2482E+01  0.1664E+02
   7.230  0.2472E+01  0.1666E+02
   7.240  0.2463E+01  0.1669E+02
   7.250  0.2453E+01  0.1671E+02
   7.260  0.2445E+01  0.1674E+02
   7.270  0.2439E+01  0.1676E+02
   7.280  0.2435E+01  0.1678E+02
   7.290  0.2434E+01  0.1681E+02
   7.300  0.2436E+01  0.1683E+02
   7.310  0.2442E+01  0.1686E+02
   7.320  0.2451E+01  0.1688E+02
   7.330  0.2463E+01  0.1691E+02
   7.340  0.2478E+01  0.1693E+02
   7.350  0.2496E+01  0.1696E+02
   7.360  0.2516E+01  0.1698E+02
   7.370  0.2538E+01  0.1701E+02
   7.380  0.2562E+01  0.1703E+02
   7.390  0.2585E+01  0.1706E+02
   7.400  0.2609E+01  0.1708E+02
   7.410  0.2632E+01  0.1711E+02
   7.420  0.2655E+01  0.1714E+02
   7.430  0.2676E+01  0.1716E+02
   7.440  0.2696E+01  0.1719E+02
   7.450  0.2714E+01  0.1722E+02
   7.460  0.2731E+01  0.1725E+02
   7.470  0.2746E+01  0.1727E+02
   7.480  0.2760E+01  0.1730E+02
   7.490  0.2773E+01  0.1733E+02
   7.500  0.2785E+01  0.1736E+02
   7.510  0.2796E+01  0.1738E+02
   7.520  0.2806E+01  0.1741E+02
   7.530  0.2817E+01  0.1744E+02
   7.540  0.2826E+01  0.1747E+02
   7.550  0.2836E+01  0.1750E+02
   7.560  0.2845E+01  0.1753E+02
   7.570  0.2853E+01  0.1755E+02
   7.580  0.2862E+01  0.1758E+02
   7.590  0.2870E+01  0.1761E+02
   7.600  0.2878E+01  0.1764E+02
   7.610  0.2885E+01  0.1767E+02
   7.620  0.2892E+01  0.1770E+02
   7.630  0.2900E+01  0.1773E+02
   7.640  0.2907E+01  0.1776E+02
   7.650  0.2915E+01  0.1779E+02
   7.660  0.2924E+01  0.1781E+02
   7.670  0.2933E+01  0.1784E+02
   7.680  0.2945E+01  0.1787E+02
   7.690  0.2958E+01  0.1790E+02
   7.700  0.2974E+01  0.1793E+02
   7.710  0.2992E+01  0.1796E+02
   7.720  0.3013E+01  0.1799E+02
   7.730  0.3038E+01  0.1802E+02
   7.740  0.3065E+01  0.1805E+02
   7.750  0.3096E+01  0.1808E+02
   7.760  0.3131E+01  0.1812E+02
   7.770  0.3168E+01  0.1815E+02
   7.780  0.3208E+01  0.1818E+02
   7.790  0.3250E+01  0.1821E+02
   7.800  0.3294E+01  0.1825E+02
   7.810  0.3339E+01  0.1828E+02
   7.820  0.3384E+01  0.1831E+02
   7.830  0.3428E+01  0.1835E+02
   7.840  0.3472E+01  0.1838E+02
   7.850  0.3513E+01  0.1842E+02
   7.860  0.3552E+01  0.1845E+02
   7.870  0.3587E+01  0.1849E+02
   7.880  0.3618E+01  0.1852E+02
   7.890  0.3645E+01  0.1856E+02
   7.900  0.3666E+01  0.1860E+02
   7.910  0.3682E+01  0.1863E+02
   7.920  0.3693E+01  0.1867E+02
   7.930  0.3697E+01  0.1871E+02
   7.940  0.3696E+01  0.1874E+02
   7.950  0.3688E+01  0.1878E+02
   7.960  0.3675E+01  0.1882E+02
   7.970  0.3656E+01  0.1886E+02
   7.980  0.3631E+01  0.1889E+02
   7.990  0.3602E+01  0.1893E+02
   8.000  0.3567E+01  0.1896E+02
   8.010  0.3528E+01  0.1900E+02
   8.020  0.3485E+01  0.1903E+02
   8.030  0.3438E+01  0.1907E+02
   8.040  0.3389E+01  0.1910E+02
   8.050  0.3337E+01  0.1913E+02
   8.060  0.3283E+01  0.1917E+02
   8.070  0.3228E+01  0.1920E+02
   8.080  0.3173E+01  0.1923E+02
   8.090  0.3117E+01  0.1926E+02
   8.100  0.3062E+01  0.1929E+02
   8.110  0.3007E+01  0.1932E+02
   8.120  0.2954E+01  0.1935E+02
   8.130  0.2902E+01  0.1938E+02
   8.140  0.2851E+01  0.1941E+02
   8.150  0.2802E+01  0.1944E+02
   8.160  0.2755E+01  0.1947E+02
   8.170  0.2710E+01  0.1949E+02
   8.180  0.2668E+01  0.1952E+02
   8.190  0.2627E+01  0.1955E+02
   8.200  0.2589E+01  0.1957E+02
   8.210  0.2553E+01  0.1960E+02
   8.220  0.2520E+01  0.1962E+02
   8.230  0.2489E+01  0.1965E+02
   8.240  0.2460E+01  0.1967E+02
   8.250  0.2434E+01  0.1970E+02
   8.260  0.2410E+01  0.1972E+02
   8.270  0.2388E+01  0.1974E+02
   8.280  0.2368E+01  0.1977E+02
   8.290  0.2350E+01  0.1979E+02
   8.300  0.2333E+01  0.1982E+02
   8.310  0.2318E+01  0.1984E+02
   8.320  0.2303E+01  0.1986E+02
   8.330  0.2288E+01  0.1988E+02
   8.340  0.2274E+01  0.1991E+02
   8.350  0.2259E+01  0.1993E+02
   8.360  0.2244E+01  0.1995E+02
   8.370  0.2228E+01  0.1997E+02
   8.380  0.2210E+01  0.2000E+02
   8.390  0.2192E+01  0.2002E+02
   8.400  0.2172E+01  0.2004E+02
   8.410  0.2151E+01  0.2006E+02
   8.420  0.2129E+01  0.2008E+02
   8.430  0.2106E+01  0.2010E+02
   8.440  0.2081E+01  0.2012E+02
   8.450  0.2056E+01  0.2015E+02
   8.460  0.2030E+01  0.2017E+02
   8.470  0.2003E+01  0.2019E+02
   8.480  0.1975E+01  0.2021E+02
   8.490  0.1948E+01  0.2022E+02
   8.500  0.1920E+01  0.2024E+02
   8.510  0.1893E+01  0.2026E+02
   8.520  0.1865E+01  0.2028E+02
   8.530  0.1838E+01  0.2030E+02
   8.540  0.1812E+01  0.2032E+02
   8.550  0.1786E+01  0.2034E+02
   8.560  0.1762E+01  0.2035E+02
   8.570  0.1738E+01  0.2037E+02
   8.580  0.1716E+01  0.2039E+02
   8.590  0.1695E+01  0.2041E+02
   8.600  0.1676E+01  0.2042E+02
   8.610  0.1659E+01  0.2044E+02
   8.620  0.1644E+01  0.2046E+02
   8.630  0.1630E+01  0.2047E+02
   8.640  0.1620E+01  0.2049E+02
   8.650  0.1611E+01  0.2050E+02
   8.660  0.1605E+01  0.2052E+02
   8.670  0.1600E+01  0.2054E+02
   8.680  0.1598E+01  0.2055E+02
   8.690  0.1598E+01  0.2057E+02
   8.700  0.1599E+01  0.2058E+02
   8.710  0.1602E+01  0.2060E+02
   8.720  0.1606E+01  0.2062E+02
   8.730  0.1610E+01  0.2063E+02
   8.740  0.1615E+01  0.2065E+02
   8.750  0.1620E+01  0.2066E+02
   8.760  0.1624E+01  0.2068E+02
   8.770  0.1629E+01  0.2070E+02
   8.780  0.1632E+01  0.2071E+02
   8.790  0.1634E+01  0.2073E+02
   8.800  0.1636E+01  0.2075E+02
   8.810  0.1636E+01  0.2076E+02
   8.820  0.1635E+01  0.2078E+02
   8.830  0.1633E+01  0.2079E+02
   8.840  0.1629E+01  0.2081E+02
   8.850  0.1624E+01  0.2083E+02
   8.860  0.1619E+01  0.2084E+02
   8.870  0.1612E+01  0.2086E+02
   8.880  0.1606E+01  0.2088E+02
   8.890  0.1598E+01  0.2089E+02
   8.900  0.1591E+01  0.2091E+02
   8.910  0.1584E+01  0.2092E+02
   8.920  0.1578E+01  0.2094E+02
   8.930  0.1572E+01  0.2095E+02
   8.940  0.1567E+01  0.2097E+02
   8.950  0.1563E+01  0.2099E+02
   8.960  0.1560E+01  0.2100E+02
   8.970  0.1559E+01  0.2102E+02
   8.980  0.1559E+01  0.2103E+02
   8.990  0.1561E+01  0.2105E+02
   9.000  0.1563E+01  0.2106E+02
   9.010  0.1566E+01  0.2108E+02
   9.020  0.1570E+01  0.2110E+02
   9.030  0.1575E+01  0.2111E+02
   9.040  0.1579E+01  0.2113E+02
   9.050  0.1583E+01  0.2114E+02
   9.060  0.1587E+01  0.2116E+02
   9.070  0.1589E+01  0.2117E+02
   9.080  0.1590E+01  0.2119E+02
   9.090  0.1589E+01  0.2121E+02
   9.100  0.1586E+01  0.2122E+02
   9.110  0.1581E+01  0.2124E+02
   9.120  0.1574E+01  0.2125E+02
   9.130  0.1566E+01  0.2127E+02
   9.140  0.1555E+01  0.2129E+02
   9.150  0.1543E+01  0.2130E+02
   9.160  0.1529E+01  0.2132E+02
   9.170  0.1514E+01  0.2133E+02
   9.180  0.1499E+01  0.2135E+02
   9.190  0.1483E+01  0.2136E+02
   9.200  0.1467E+01  0.2138E+02
   9.210  0.1453E+01  0.2139E+02
   9.220  0.1439E+01  0.2140E+02
   9.230  0.1426E+01  0.2142E+02
   9.240  0.1415E+01  0.2143E+02
   9.250  0.1407E+01  0.2145E+02
   9.260  0.1401E+01  0.2146E+02
   9.270  0.1397E+01  0.2147E+02
   9.280  0.1397E+01  0.2149E+02
   9.290  0.1399E+01  0.2150E+02
   9.300  0.1405E+01  0.2152E+02
   9.310  0.1413E+01  0.2153E+02
   9.320  0.1424E+01  0.2155E+02
   9.330  0.1438E+01  0.2156E+02
   9.340  0.1454E+01  0.2157E+02
   9.350  0.1471E+01  0.2159E+02
   9.360  0.1490E+01  0.2160E+02
   9.370  0.1510E+01  0.2162E+02
   9.380  0.1530E+01  0.2163E+02
   9.390  0.1550E+01  0.2165E+02
   9.400  0.1569E+01  0.2167E+02
   9.410  0.1587E+01  0.2168E+02
   9.420  0.1602E+01  0.2170E+02
   9.430  0.1616E+01  0.2171E+02
   9.440  0.1626E+01  0.2173E+02
   9.450  0.1633E+01  0.2175E+02
   9.460  0.1637E+01  0.2176E+02
   9.470  0.1638E+01  0.2178E+02
   9.480  0.1635E+01  0.2180E+02
   9.490  0.1629E+01  0.2181E+02
   9.500  0.1620E+01  0.2183E+02
   9.510  0.1607E+01  0.2184E+02
   9.520  0.1592E+01  0.2186E+02
   9.530  0.1575E+01  0.2188E+02
   9.540  0.1556E+01  0.2189E+02
   9.550  0.1536E+01  0.2191E+02
   9.560  0.1516E+01  0.2192E+02
   9.570  0.1496E+01  0.2194E+02
   9.580  0.1477E+01  0.2195E+02
   9.590  0.1458E+01  0.2197E+02
   9.600  0.1442E+01  0.2198E+02
   9.610  0.1427E+01  0.2199E+02
   9.620  0.1416E+01  0.2201E+02
   9.630  0.1407E+01  0.2202E+02
   9.640  0.1401E+01  0.2204E+02
   9.650  0.1398E+01  0.2205E+02
   9.660  0.1399E+01  0.2206E+02
   9.670  0.1403E+01  0.2208E+02
   9.680  0.1410E+01  0.2209E+02
   9.690  0.1421E+01  0.2211E+02
   9.700  0.1435E+01  0.2212E+02
   9.710  0.1451E+01  0.2214E+02
   9.720  0.1471E+01  0.2215E+02
   9.730  0.1494E+01  0.2217E+02
   9.740  0.1519E+01  0.2218E+02
   9.750  0.1548E+01  0.2220E+02
   9.760  0.1579E+01  0.2221E+02
   9.770  0.1612E+01  0.2223E+02
   9.780  0.1648E+01  0.2224E+02
   9.790  0.1686E+01  0.2226E+02
   9.800  0.1726E+01  0.2228E+02
   9.810  0.1768E+01  0.2230E+02
   9.820  0.1810E+01  0.2231E+02
   9.830  0.1852E+01  0.2233E+02
   9.840  0.1895E+01  0.2235E+02
   9.850  0.1936E+01  0.2237E+02
   9.860  0.1976E+01  0.2239E+02
   9.870  0.2014E+01  0.2241E+02
   9.880  0.2048E+01  0.2243E+02
   9.890  0.2079E+01  0.2245E+02
   9.900  0.2105E+01  0.2247E+02
   9.910  0.2126E+01  0.2249E+02
   9.920  0.2141E+01  0.2252E+02
   9.930  0.2151E+01  0.2254E+02
   9.940  0.2155E+01  0.2256E+02
   9.950  0.2153E+01  0.2258E+02
   9.960  0.2146E+01  0.2260E+02
   9.970  0.2133E+01  0.2262E+02
   9.980  0.2116E+01  0.2264E+02
   9.990  0.2094E+01  0.2267E+02
  10.000  0.2068E+01  0.2269E+02
