# E (eV)   ldos(E)   pdos(E)   
 -21.420  0.111E-06  0.111E-06
 -21.410  0.324E-06  0.324E-06
 -21.400  0.907E-06  0.907E-06
 -21.390  0.244E-05  0.244E-05
 -21.380  0.627E-05  0.627E-05
 -21.370  0.155E-04  0.155E-04
 -21.360  0.366E-04  0.366E-04
 -21.350  0.828E-04  0.828E-04
 -21.340  0.180E-03  0.180E-03
 -21.330  0.374E-03  0.374E-03
 -21.320  0.747E-03  0.747E-03
 -21.310  0.143E-02  0.143E-02
 -21.300  0.262E-02  0.262E-02
 -21.290  0.461E-02  0.461E-02
 -21.280  0.779E-02  0.779E-02
 -21.270  0.126E-01  0.126E-01
 -21.260  0.196E-01  0.196E-01
 -21.250  0.293E-01  0.293E-01
 -21.240  0.421E-01  0.421E-01
 -21.230  0.581E-01  0.581E-01
 -21.220  0.773E-01  0.773E-01
 -21.210  0.989E-01  0.989E-01
 -21.200  0.122E+00  0.122E+00
 -21.190  0.145E+00  0.145E+00
 -21.180  0.168E+00  0.168E+00
 -21.170  0.188E+00  0.188E+00
 -21.160  0.204E+00  0.204E+00
 -21.150  0.216E+00  0.216E+00
 -21.140  0.224E+00  0.224E+00
 -21.130  0.228E+00  0.228E+00
 -21.120  0.229E+00  0.229E+00
 -21.110  0.228E+00  0.228E+00
 -21.100  0.225E+00  0.225E+00
 -21.090  0.222E+00  0.222E+00
 -21.080  0.219E+00  0.219E+00
 -21.070  0.216E+00  0.216E+00
 -21.060  0.214E+00  0.214E+00
 -21.050  0.212E+00  0.212E+00
 -21.040  0.211E+00  0.211E+00
 -21.030  0.210E+00  0.210E+00
 -21.020  0.209E+00  0.209E+00
 -21.010  0.209E+00  0.209E+00
 -21.000  0.209E+00  0.209E+00
 -20.990  0.208E+00  0.208E+00
 -20.980  0.208E+00  0.208E+00
 -20.970  0.208E+00  0.208E+00
 -20.960  0.208E+00  0.208E+00
 -20.950  0.208E+00  0.208E+00
 -20.940  0.208E+00  0.208E+00
 -20.930  0.208E+00  0.208E+00
 -20.920  0.208E+00  0.208E+00
 -20.910  0.208E+00  0.208E+00
 -20.900  0.208E+00  0.208E+00
 -20.890  0.207E+00  0.207E+00
 -20.880  0.206E+00  0.206E+00
 -20.870  0.206E+00  0.206E+00
 -20.860  0.206E+00  0.206E+00
 -20.850  0.207E+00  0.207E+00
 -20.840  0.207E+00  0.207E+00
 -20.830  0.208E+00  0.208E+00
 -20.820  0.209E+00  0.209E+00
 -20.810  0.208E+00  0.208E+00
 -20.800  0.207E+00  0.207E+00
 -20.790  0.205E+00  0.205E+00
 -20.780  0.204E+00  0.204E+00
 -20.770  0.204E+00  0.204E+00
 -20.760  0.204E+00  0.204E+00
 -20.750  0.206E+00  0.206E+00
 -20.740  0.209E+00  0.209E+00
 -20.730  0.210E+00  0.210E+00
 -20.720  0.211E+00  0.211E+00
 -20.710  0.210E+00  0.210E+00
 -20.700  0.207E+00  0.207E+00
 -20.690  0.204E+00  0.204E+00
 -20.680  0.201E+00  0.201E+00
 -20.670  0.200E+00  0.200E+00
 -20.660  0.201E+00  0.201E+00
 -20.650  0.204E+00  0.204E+00
 -20.640  0.208E+00  0.208E+00
 -20.630  0.212E+00  0.212E+00
 -20.620  0.215E+00  0.215E+00
 -20.610  0.215E+00  0.215E+00
 -20.600  0.212E+00  0.212E+00
 -20.590  0.208E+00  0.208E+00
 -20.580  0.202E+00  0.202E+00
 -20.570  0.198E+00  0.198E+00
 -20.560  0.196E+00  0.196E+00
 -20.550  0.197E+00  0.197E+00
 -20.540  0.201E+00  0.201E+00
 -20.530  0.207E+00  0.207E+00
 -20.520  0.214E+00  0.214E+00
 -20.510  0.219E+00  0.219E+00
 -20.500  0.221E+00  0.221E+00
 -20.490  0.219E+00  0.219E+00
 -20.480  0.215E+00  0.215E+00
 -20.470  0.208E+00  0.208E+00
 -20.460  0.200E+00  0.200E+00
 -20.450  0.195E+00  0.195E+00
 -20.440  0.192E+00  0.192E+00
 -20.430  0.193E+00  0.193E+00
 -20.420  0.198E+00  0.198E+00
 -20.410  0.206E+00  0.206E+00
 -20.400  0.214E+00  0.214E+00
 -20.390  0.222E+00  0.222E+00
 -20.380  0.227E+00  0.227E+00
 -20.370  0.228E+00  0.228E+00
 -20.360  0.224E+00  0.224E+00
 -20.350  0.216E+00  0.216E+00
 -20.340  0.207E+00  0.207E+00
 -20.330  0.198E+00  0.198E+00
 -20.320  0.191E+00  0.191E+00
 -20.310  0.188E+00  0.188E+00
 -20.300  0.189E+00  0.189E+00
 -20.290  0.196E+00  0.196E+00
 -20.280  0.205E+00  0.205E+00
 -20.270  0.216E+00  0.216E+00
 -20.260  0.226E+00  0.226E+00
 -20.250  0.233E+00  0.233E+00
 -20.240  0.235E+00  0.235E+00
 -20.230  0.233E+00  0.233E+00
 -20.220  0.227E+00  0.227E+00
 -20.210  0.217E+00  0.217E+00
 -20.200  0.206E+00  0.206E+00
 -20.190  0.195E+00  0.195E+00
 -20.180  0.188E+00  0.188E+00
 -20.170  0.185E+00  0.185E+00
 -20.160  0.187E+00  0.187E+00
 -20.150  0.195E+00  0.195E+00
 -20.140  0.206E+00  0.206E+00
 -20.130  0.219E+00  0.219E+00
 -20.120  0.231E+00  0.231E+00
 -20.110  0.240E+00  0.240E+00
 -20.100  0.244E+00  0.244E+00
 -20.090  0.242E+00  0.242E+00
 -20.080  0.236E+00  0.236E+00
 -20.070  0.226E+00  0.226E+00
 -20.060  0.214E+00  0.214E+00
 -20.050  0.202E+00  0.202E+00
 -20.040  0.192E+00  0.192E+00
 -20.030  0.185E+00  0.185E+00
 -20.020  0.184E+00  0.184E+00
 -20.010  0.188E+00  0.188E+00
 -20.000  0.198E+00  0.198E+00
 -19.990  0.210E+00  0.210E+00
 -19.980  0.225E+00  0.225E+00
 -19.970  0.238E+00  0.238E+00
 -19.960  0.248E+00  0.248E+00
 -19.950  0.254E+00  0.254E+00
 -19.940  0.253E+00  0.253E+00
 -19.930  0.246E+00  0.246E+00
 -19.920  0.234E+00  0.234E+00
 -19.910  0.221E+00  0.221E+00
 -19.900  0.207E+00  0.207E+00
 -19.890  0.195E+00  0.195E+00
 -19.880  0.188E+00  0.188E+00
 -19.870  0.185E+00  0.185E+00
 -19.860  0.188E+00  0.188E+00
 -19.850  0.195E+00  0.195E+00
 -19.840  0.207E+00  0.207E+00
 -19.830  0.221E+00  0.221E+00
 -19.820  0.236E+00  0.236E+00
 -19.810  0.249E+00  0.249E+00
 -19.800  0.259E+00  0.259E+00
 -19.790  0.263E+00  0.263E+00
 -19.780  0.262E+00  0.262E+00
 -19.770  0.255E+00  0.255E+00
 -19.760  0.242E+00  0.242E+00
 -19.750  0.227E+00  0.227E+00
 -19.740  0.211E+00  0.211E+00
 -19.730  0.198E+00  0.198E+00
 -19.720  0.189E+00  0.189E+00
 -19.710  0.185E+00  0.185E+00
 -19.700  0.188E+00  0.188E+00
 -19.690  0.197E+00  0.197E+00
 -19.680  0.210E+00  0.210E+00
 -19.670  0.225E+00  0.225E+00
 -19.660  0.241E+00  0.241E+00
 -19.650  0.255E+00  0.255E+00
 -19.640  0.266E+00  0.266E+00
 -19.630  0.272E+00  0.272E+00
 -19.620  0.273E+00  0.273E+00
 -19.610  0.268E+00  0.268E+00
 -19.600  0.258E+00  0.258E+00
 -19.590  0.245E+00  0.245E+00
 -19.580  0.229E+00  0.229E+00
 -19.570  0.214E+00  0.214E+00
 -19.560  0.201E+00  0.201E+00
 -19.550  0.192E+00  0.192E+00
 -19.540  0.189E+00  0.189E+00
 -19.530  0.193E+00  0.193E+00
 -19.520  0.203E+00  0.203E+00
 -19.510  0.218E+00  0.218E+00
 -19.500  0.236E+00  0.236E+00
 -19.490  0.254E+00  0.254E+00
 -19.480  0.270E+00  0.270E+00
 -19.470  0.282E+00  0.282E+00
 -19.460  0.287E+00  0.287E+00
 -19.450  0.286E+00  0.286E+00
 -19.440  0.279E+00  0.279E+00
 -19.430  0.268E+00  0.268E+00
 -19.420  0.253E+00  0.253E+00
 -19.410  0.238E+00  0.238E+00
 -19.400  0.223E+00  0.223E+00
 -19.390  0.211E+00  0.211E+00
 -19.380  0.203E+00  0.203E+00
 -19.370  0.199E+00  0.199E+00
 -19.360  0.201E+00  0.201E+00
 -19.350  0.209E+00  0.209E+00
 -19.340  0.222E+00  0.222E+00
 -19.330  0.239E+00  0.239E+00
 -19.320  0.259E+00  0.259E+00
 -19.310  0.278E+00  0.278E+00
 -19.300  0.293E+00  0.293E+00
 -19.290  0.303E+00  0.303E+00
 -19.280  0.305E+00  0.305E+00
 -19.270  0.300E+00  0.300E+00
 -19.260  0.289E+00  0.289E+00
 -19.250  0.273E+00  0.273E+00
 -19.240  0.256E+00  0.256E+00
 -19.230  0.239E+00  0.239E+00
 -19.220  0.225E+00  0.225E+00
 -19.210  0.216E+00  0.216E+00
 -19.200  0.211E+00  0.211E+00
 -19.190  0.212E+00  0.212E+00
 -19.180  0.218E+00  0.218E+00
 -19.170  0.229E+00  0.229E+00
 -19.160  0.244E+00  0.244E+00
 -19.150  0.262E+00  0.262E+00
 -19.140  0.281E+00  0.281E+00
 -19.130  0.299E+00  0.299E+00
 -19.120  0.314E+00  0.314E+00
 -19.110  0.322E+00  0.322E+00
 -19.100  0.324E+00  0.324E+00
 -19.090  0.318E+00  0.318E+00
 -19.080  0.305E+00  0.305E+00
 -19.070  0.287E+00  0.287E+00
 -19.060  0.268E+00  0.268E+00
 -19.050  0.250E+00  0.250E+00
 -19.040  0.235E+00  0.235E+00
 -19.030  0.226E+00  0.226E+00
 -19.020  0.224E+00  0.224E+00
 -19.010  0.228E+00  0.228E+00
 -19.000  0.237E+00  0.237E+00
 -18.990  0.252E+00  0.252E+00
 -18.980  0.270E+00  0.270E+00
 -18.970  0.289E+00  0.289E+00
 -18.960  0.308E+00  0.308E+00
 -18.950  0.326E+00  0.326E+00
 -18.940  0.339E+00  0.339E+00
 -18.930  0.346E+00  0.346E+00
 -18.920  0.346E+00  0.346E+00
 -18.910  0.338E+00  0.338E+00
 -18.900  0.325E+00  0.325E+00
 -18.890  0.307E+00  0.307E+00
 -18.880  0.287E+00  0.287E+00
 -18.870  0.269E+00  0.269E+00
 -18.860  0.254E+00  0.254E+00
 -18.850  0.246E+00  0.246E+00
 -18.840  0.244E+00  0.244E+00
 -18.830  0.250E+00  0.250E+00
 -18.820  0.263E+00  0.263E+00
 -18.810  0.281E+00  0.281E+00
 -18.800  0.302E+00  0.302E+00
 -18.790  0.325E+00  0.325E+00
 -18.780  0.345E+00  0.345E+00
 -18.770  0.363E+00  0.363E+00
 -18.760  0.374E+00  0.374E+00
 -18.750  0.379E+00  0.379E+00
 -18.740  0.376E+00  0.376E+00
 -18.730  0.366E+00  0.366E+00
 -18.720  0.350E+00  0.350E+00
 -18.710  0.331E+00  0.331E+00
 -18.700  0.311E+00  0.311E+00
 -18.690  0.294E+00  0.294E+00
 -18.680  0.281E+00  0.281E+00
 -18.670  0.276E+00  0.276E+00
 -18.660  0.278E+00  0.278E+00
 -18.650  0.289E+00  0.289E+00
 -18.640  0.307E+00  0.307E+00
 -18.630  0.329E+00  0.329E+00
 -18.620  0.354E+00  0.354E+00
 -18.610  0.379E+00  0.379E+00
 -18.600  0.401E+00  0.401E+00
 -18.590  0.417E+00  0.417E+00
 -18.580  0.425E+00  0.425E+00
 -18.570  0.425E+00  0.425E+00
 -18.560  0.417E+00  0.417E+00
 -18.550  0.402E+00  0.402E+00
 -18.540  0.383E+00  0.383E+00
 -18.530  0.362E+00  0.362E+00
 -18.520  0.344E+00  0.344E+00
 -18.510  0.332E+00  0.332E+00
 -18.500  0.326E+00  0.326E+00
 -18.490  0.330E+00  0.330E+00
 -18.480  0.342E+00  0.342E+00
 -18.470  0.363E+00  0.363E+00
 -18.460  0.389E+00  0.389E+00
 -18.450  0.419E+00  0.419E+00
 -18.440  0.448E+00  0.448E+00
 -18.430  0.473E+00  0.473E+00
 -18.420  0.492E+00  0.492E+00
 -18.410  0.502E+00  0.502E+00
 -18.400  0.501E+00  0.501E+00
 -18.390  0.492E+00  0.492E+00
 -18.380  0.476E+00  0.476E+00
 -18.370  0.457E+00  0.457E+00
 -18.360  0.438E+00  0.438E+00
 -18.350  0.424E+00  0.424E+00
 -18.340  0.418E+00  0.418E+00
 -18.330  0.423E+00  0.423E+00
 -18.320  0.439E+00  0.439E+00
 -18.310  0.466E+00  0.466E+00
 -18.300  0.501E+00  0.501E+00
 -18.290  0.543E+00  0.543E+00
 -18.280  0.586E+00  0.586E+00
 -18.270  0.626E+00  0.626E+00
 -18.260  0.659E+00  0.659E+00
 -18.250  0.683E+00  0.683E+00
 -18.240  0.697E+00  0.697E+00
 -18.230  0.702E+00  0.702E+00
 -18.220  0.700E+00  0.700E+00
 -18.210  0.697E+00  0.697E+00
 -18.200  0.696E+00  0.696E+00
 -18.190  0.701E+00  0.701E+00
 -18.180  0.715E+00  0.715E+00
 -18.170  0.737E+00  0.737E+00
 -18.160  0.766E+00  0.766E+00
 -18.150  0.796E+00  0.796E+00
 -18.140  0.820E+00  0.820E+00
 -18.130  0.832E+00  0.832E+00
 -18.120  0.825E+00  0.825E+00
 -18.110  0.797E+00  0.797E+00
 -18.100  0.749E+00  0.749E+00
 -18.090  0.685E+00  0.685E+00
 -18.080  0.615E+00  0.615E+00
 -18.070  0.548E+00  0.548E+00
 -18.060  0.494E+00  0.494E+00
 -18.050  0.460E+00  0.460E+00
 -18.040  0.447E+00  0.447E+00
 -18.030  0.454E+00  0.454E+00
 -18.020  0.472E+00  0.472E+00
 -18.010  0.495E+00  0.495E+00
 -18.000  0.512E+00  0.512E+00
 -17.990  0.519E+00  0.519E+00
 -17.980  0.512E+00  0.512E+00
 -17.970  0.492E+00  0.492E+00
 -17.960  0.465E+00  0.465E+00
 -17.950  0.436E+00  0.436E+00
 -17.940  0.412E+00  0.412E+00
 -17.930  0.396E+00  0.396E+00
 -17.920  0.390E+00  0.390E+00
 -17.910  0.393E+00  0.393E+00
 -17.900  0.401E+00  0.401E+00
 -17.890  0.411E+00  0.411E+00
 -17.880  0.418E+00  0.418E+00
 -17.870  0.419E+00  0.419E+00
 -17.860  0.414E+00  0.414E+00
 -17.850  0.404E+00  0.404E+00
 -17.840  0.390E+00  0.390E+00
 -17.830  0.377E+00  0.377E+00
 -17.820  0.366E+00  0.366E+00
 -17.810  0.360E+00  0.360E+00
 -17.800  0.358E+00  0.358E+00
 -17.790  0.358E+00  0.358E+00
 -17.780  0.360E+00  0.360E+00
 -17.770  0.360E+00  0.360E+00
 -17.760  0.359E+00  0.359E+00
 -17.750  0.355E+00  0.355E+00
 -17.740  0.350E+00  0.350E+00
 -17.730  0.344E+00  0.344E+00
 -17.720  0.338E+00  0.338E+00
 -17.710  0.334E+00  0.334E+00
 -17.700  0.330E+00  0.330E+00
 -17.690  0.326E+00  0.326E+00
 -17.680  0.322E+00  0.322E+00
 -17.670  0.316E+00  0.316E+00
 -17.660  0.308E+00  0.308E+00
 -17.650  0.297E+00  0.297E+00
 -17.640  0.282E+00  0.282E+00
 -17.630  0.262E+00  0.262E+00
 -17.620  0.239E+00  0.239E+00
 -17.610  0.211E+00  0.211E+00
 -17.600  0.179E+00  0.179E+00
 -17.590  0.145E+00  0.145E+00
 -17.580  0.111E+00  0.111E+00
 -17.570  0.766E-01  0.766E-01
 -17.560  0.458E-01  0.458E-01
 -17.550  0.196E-01  0.196E-01
 -17.540 -0.737E-03 -0.737E-03
 -17.530 -0.149E-01 -0.149E-01
 -17.520 -0.231E-01 -0.231E-01
 -17.510 -0.264E-01 -0.264E-01
 -17.500 -0.259E-01 -0.259E-01
 -17.490 -0.230E-01 -0.230E-01
 -17.480 -0.189E-01 -0.189E-01
 -17.470 -0.145E-01 -0.145E-01
 -17.460 -0.105E-01 -0.105E-01
 -17.450 -0.723E-02 -0.723E-02
 -17.440 -0.471E-02 -0.471E-02
 -17.430 -0.292E-02 -0.292E-02
 -17.420 -0.172E-02 -0.172E-02
 -17.410 -0.970E-03 -0.970E-03
 -17.400 -0.521E-03 -0.521E-03
 -17.390 -0.267E-03 -0.267E-03
 -17.380 -0.131E-03 -0.131E-03
 -17.370 -0.614E-04 -0.614E-04
 -17.360 -0.275E-04 -0.275E-04
 -17.350 -0.118E-04 -0.118E-04
 -17.340 -0.483E-05 -0.483E-05
 -17.330 -0.189E-05 -0.189E-05
 -17.320 -0.711E-06 -0.711E-06
 -17.310 -0.255E-06 -0.255E-06
 -17.300 -0.872E-07 -0.872E-07
 -17.290 -0.287E-07 -0.287E-07
 -17.280 -0.903E-08 -0.903E-08
 -17.270 -0.245E-08 -0.245E-08
 -17.260 -0.592E-09 -0.592E-09
 -17.250  0.000E+00  0.000E+00
 -17.240  0.000E+00  0.000E+00
 -17.230  0.000E+00  0.000E+00
 -17.220  0.000E+00  0.000E+00
 -17.210  0.000E+00  0.000E+00
 -17.200  0.000E+00  0.000E+00
 -17.190  0.000E+00  0.000E+00
 -17.180  0.000E+00  0.000E+00
 -17.170  0.000E+00  0.000E+00
 -17.160  0.000E+00  0.000E+00
 -17.150  0.000E+00  0.000E+00
 -17.140  0.000E+00  0.000E+00
 -17.130  0.000E+00  0.000E+00
 -17.120  0.000E+00  0.000E+00
 -17.110  0.000E+00  0.000E+00
 -17.100  0.000E+00  0.000E+00
 -17.090  0.000E+00  0.000E+00
 -17.080  0.000E+00  0.000E+00
 -17.070  0.000E+00  0.000E+00
 -17.060  0.000E+00  0.000E+00
 -17.050  0.000E+00  0.000E+00
 -17.040  0.000E+00  0.000E+00
 -17.030  0.000E+00  0.000E+00
 -17.020  0.000E+00  0.000E+00
 -17.010  0.000E+00  0.000E+00
 -17.000  0.000E+00  0.000E+00
 -16.990  0.000E+00  0.000E+00
 -16.980  0.000E+00  0.000E+00
 -16.970  0.000E+00  0.000E+00
 -16.960  0.000E+00  0.000E+00
 -16.950  0.000E+00  0.000E+00
 -16.940  0.000E+00  0.000E+00
 -16.930  0.000E+00  0.000E+00
 -16.920  0.000E+00  0.000E+00
 -16.910  0.000E+00  0.000E+00
 -16.900  0.000E+00  0.000E+00
 -16.890  0.000E+00  0.000E+00
 -16.880  0.000E+00  0.000E+00
 -16.870  0.000E+00  0.000E+00
 -16.860  0.000E+00  0.000E+00
 -16.850  0.000E+00  0.000E+00
 -16.840  0.000E+00  0.000E+00
 -16.830  0.000E+00  0.000E+00
 -16.820  0.000E+00  0.000E+00
 -16.810  0.000E+00  0.000E+00
 -16.800  0.000E+00  0.000E+00
 -16.790  0.000E+00  0.000E+00
 -16.780  0.000E+00  0.000E+00
 -16.770  0.000E+00  0.000E+00
 -16.760  0.000E+00  0.000E+00
 -16.750  0.000E+00  0.000E+00
 -16.740  0.000E+00  0.000E+00
 -16.730  0.000E+00  0.000E+00
 -16.720  0.000E+00  0.000E+00
 -16.710  0.000E+00  0.000E+00
 -16.700  0.000E+00  0.000E+00
 -16.690  0.000E+00  0.000E+00
 -16.680  0.000E+00  0.000E+00
 -16.670  0.000E+00  0.000E+00
 -16.660  0.000E+00  0.000E+00
 -16.650  0.000E+00  0.000E+00
 -16.640  0.000E+00  0.000E+00
 -16.630  0.000E+00  0.000E+00
 -16.620  0.000E+00  0.000E+00
 -16.610  0.000E+00  0.000E+00
 -16.600  0.000E+00  0.000E+00
 -16.590  0.000E+00  0.000E+00
 -16.580  0.000E+00  0.000E+00
 -16.570  0.000E+00  0.000E+00
 -16.560  0.000E+00  0.000E+00
 -16.550  0.000E+00  0.000E+00
 -16.540  0.000E+00  0.000E+00
 -16.530  0.000E+00  0.000E+00
 -16.520  0.000E+00  0.000E+00
 -16.510  0.000E+00  0.000E+00
 -16.500  0.000E+00  0.000E+00
 -16.490  0.000E+00  0.000E+00
 -16.480  0.000E+00  0.000E+00
 -16.470  0.000E+00  0.000E+00
 -16.460  0.000E+00  0.000E+00
 -16.450  0.000E+00  0.000E+00
 -16.440  0.000E+00  0.000E+00
 -16.430  0.000E+00  0.000E+00
 -16.420  0.000E+00  0.000E+00
 -16.410  0.000E+00  0.000E+00
 -16.400  0.000E+00  0.000E+00
 -16.390  0.000E+00  0.000E+00
 -16.380  0.000E+00  0.000E+00
 -16.370  0.000E+00  0.000E+00
 -16.360  0.000E+00  0.000E+00
 -16.350  0.000E+00  0.000E+00
 -16.340  0.000E+00  0.000E+00
 -16.330  0.000E+00  0.000E+00
 -16.320  0.000E+00  0.000E+00
 -16.310  0.000E+00  0.000E+00
 -16.300  0.000E+00  0.000E+00
 -16.290  0.000E+00  0.000E+00
 -16.280  0.000E+00  0.000E+00
 -16.270  0.000E+00  0.000E+00
 -16.260  0.000E+00  0.000E+00
 -16.250  0.000E+00  0.000E+00
 -16.240  0.000E+00  0.000E+00
 -16.230  0.000E+00  0.000E+00
 -16.220  0.000E+00  0.000E+00
 -16.210  0.000E+00  0.000E+00
 -16.200  0.000E+00  0.000E+00
 -16.190  0.000E+00  0.000E+00
 -16.180  0.000E+00  0.000E+00
 -16.170  0.000E+00  0.000E+00
 -16.160  0.000E+00  0.000E+00
 -16.150  0.000E+00  0.000E+00
 -16.140  0.000E+00  0.000E+00
 -16.130  0.000E+00  0.000E+00
 -16.120  0.000E+00  0.000E+00
 -16.110  0.000E+00  0.000E+00
 -16.100  0.000E+00  0.000E+00
 -16.090  0.000E+00  0.000E+00
 -16.080  0.000E+00  0.000E+00
 -16.070  0.000E+00  0.000E+00
 -16.060  0.000E+00  0.000E+00
 -16.050  0.000E+00  0.000E+00
 -16.040  0.000E+00  0.000E+00
 -16.030  0.000E+00  0.000E+00
 -16.020  0.000E+00  0.000E+00
 -16.010  0.000E+00  0.000E+00
 -16.000  0.000E+00  0.000E+00
 -15.990  0.000E+00  0.000E+00
 -15.980  0.000E+00  0.000E+00
 -15.970  0.000E+00  0.000E+00
 -15.960  0.000E+00  0.000E+00
 -15.950  0.000E+00  0.000E+00
 -15.940  0.000E+00  0.000E+00
 -15.930  0.000E+00  0.000E+00
 -15.920  0.000E+00  0.000E+00
 -15.910  0.000E+00  0.000E+00
 -15.900  0.000E+00  0.000E+00
 -15.890  0.000E+00  0.000E+00
 -15.880  0.000E+00  0.000E+00
 -15.870  0.000E+00  0.000E+00
 -15.860  0.000E+00  0.000E+00
 -15.850  0.000E+00  0.000E+00
 -15.840  0.000E+00  0.000E+00
 -15.830  0.000E+00  0.000E+00
 -15.820  0.000E+00  0.000E+00
 -15.810  0.000E+00  0.000E+00
 -15.800  0.000E+00  0.000E+00
 -15.790  0.000E+00  0.000E+00
 -15.780  0.000E+00  0.000E+00
 -15.770  0.000E+00  0.000E+00
 -15.760  0.000E+00  0.000E+00
 -15.750  0.000E+00  0.000E+00
 -15.740  0.000E+00  0.000E+00
 -15.730  0.000E+00  0.000E+00
 -15.720  0.000E+00  0.000E+00
 -15.710  0.000E+00  0.000E+00
 -15.700  0.000E+00  0.000E+00
 -15.690  0.000E+00  0.000E+00
 -15.680  0.000E+00  0.000E+00
 -15.670  0.000E+00  0.000E+00
 -15.660  0.000E+00  0.000E+00
 -15.650  0.000E+00  0.000E+00
 -15.640  0.000E+00  0.000E+00
 -15.630  0.000E+00  0.000E+00
 -15.620  0.000E+00  0.000E+00
 -15.610  0.000E+00  0.000E+00
 -15.600  0.000E+00  0.000E+00
 -15.590  0.000E+00  0.000E+00
 -15.580  0.000E+00  0.000E+00
 -15.570  0.000E+00  0.000E+00
 -15.560  0.000E+00  0.000E+00
 -15.550  0.000E+00  0.000E+00
 -15.540  0.000E+00  0.000E+00
 -15.530  0.000E+00  0.000E+00
 -15.520  0.000E+00  0.000E+00
 -15.510  0.000E+00  0.000E+00
 -15.500  0.000E+00  0.000E+00
 -15.490  0.000E+00  0.000E+00
 -15.480  0.000E+00  0.000E+00
 -15.470  0.000E+00  0.000E+00
 -15.460  0.000E+00  0.000E+00
 -15.450  0.000E+00  0.000E+00
 -15.440  0.000E+00  0.000E+00
 -15.430  0.000E+00  0.000E+00
 -15.420  0.000E+00  0.000E+00
 -15.410  0.000E+00  0.000E+00
 -15.400  0.000E+00  0.000E+00
 -15.390  0.000E+00  0.000E+00
 -15.380  0.000E+00  0.000E+00
 -15.370  0.000E+00  0.000E+00
 -15.360  0.000E+00  0.000E+00
 -15.350  0.000E+00  0.000E+00
 -15.340  0.000E+00  0.000E+00
 -15.330  0.000E+00  0.000E+00
 -15.320  0.000E+00  0.000E+00
 -15.310  0.000E+00  0.000E+00
 -15.300  0.000E+00  0.000E+00
 -15.290  0.000E+00  0.000E+00
 -15.280  0.000E+00  0.000E+00
 -15.270  0.000E+00  0.000E+00
 -15.260  0.000E+00  0.000E+00
 -15.250  0.000E+00  0.000E+00
 -15.240  0.000E+00  0.000E+00
 -15.230  0.000E+00  0.000E+00
 -15.220  0.000E+00  0.000E+00
 -15.210  0.000E+00  0.000E+00
 -15.200  0.000E+00  0.000E+00
 -15.190  0.000E+00  0.000E+00
 -15.180  0.000E+00  0.000E+00
 -15.170  0.000E+00  0.000E+00
 -15.160  0.000E+00  0.000E+00
 -15.150  0.000E+00  0.000E+00
 -15.140  0.000E+00  0.000E+00
 -15.130  0.000E+00  0.000E+00
 -15.120  0.000E+00  0.000E+00
 -15.110  0.000E+00  0.000E+00
 -15.100  0.000E+00  0.000E+00
 -15.090  0.000E+00  0.000E+00
 -15.080  0.000E+00  0.000E+00
 -15.070  0.000E+00  0.000E+00
 -15.060  0.000E+00  0.000E+00
 -15.050  0.000E+00  0.000E+00
 -15.040  0.000E+00  0.000E+00
 -15.030  0.000E+00  0.000E+00
 -15.020  0.000E+00  0.000E+00
 -15.010  0.000E+00  0.000E+00
 -15.000  0.000E+00  0.000E+00
 -14.990  0.000E+00  0.000E+00
 -14.980  0.000E+00  0.000E+00
 -14.970  0.000E+00  0.000E+00
 -14.960  0.000E+00  0.000E+00
 -14.950  0.000E+00  0.000E+00
 -14.940  0.000E+00  0.000E+00
 -14.930  0.000E+00  0.000E+00
 -14.920  0.000E+00  0.000E+00
 -14.910  0.000E+00  0.000E+00
 -14.900  0.000E+00  0.000E+00
 -14.890  0.000E+00  0.000E+00
 -14.880  0.000E+00  0.000E+00
 -14.870  0.000E+00  0.000E+00
 -14.860  0.000E+00  0.000E+00
 -14.850  0.000E+00  0.000E+00
 -14.840  0.000E+00  0.000E+00
 -14.830  0.000E+00  0.000E+00
 -14.820  0.000E+00  0.000E+00
 -14.810  0.000E+00  0.000E+00
 -14.800  0.000E+00  0.000E+00
 -14.790  0.000E+00  0.000E+00
 -14.780  0.000E+00  0.000E+00
 -14.770  0.000E+00  0.000E+00
 -14.760  0.000E+00  0.000E+00
 -14.750  0.000E+00  0.000E+00
 -14.740  0.000E+00  0.000E+00
 -14.730  0.000E+00  0.000E+00
 -14.720  0.000E+00  0.000E+00
 -14.710  0.000E+00  0.000E+00
 -14.700  0.000E+00  0.000E+00
 -14.690  0.000E+00  0.000E+00
 -14.680  0.000E+00  0.000E+00
 -14.670  0.000E+00  0.000E+00
 -14.660  0.000E+00  0.000E+00
 -14.650  0.000E+00  0.000E+00
 -14.640  0.000E+00  0.000E+00
 -14.630  0.000E+00  0.000E+00
 -14.620  0.000E+00  0.000E+00
 -14.610  0.000E+00  0.000E+00
 -14.600  0.000E+00  0.000E+00
 -14.590  0.000E+00  0.000E+00
 -14.580  0.000E+00  0.000E+00
 -14.570  0.000E+00  0.000E+00
 -14.560  0.000E+00  0.000E+00
 -14.550  0.000E+00  0.000E+00
 -14.540  0.000E+00  0.000E+00
 -14.530  0.000E+00  0.000E+00
 -14.520  0.000E+00  0.000E+00
 -14.510  0.000E+00  0.000E+00
 -14.500  0.000E+00  0.000E+00
 -14.490  0.000E+00  0.000E+00
 -14.480  0.000E+00  0.000E+00
 -14.470  0.000E+00  0.000E+00
 -14.460  0.000E+00  0.000E+00
 -14.450  0.000E+00  0.000E+00
 -14.440  0.000E+00  0.000E+00
 -14.430  0.000E+00  0.000E+00
 -14.420  0.000E+00  0.000E+00
 -14.410  0.000E+00  0.000E+00
 -14.400  0.000E+00  0.000E+00
 -14.390  0.000E+00  0.000E+00
 -14.380  0.000E+00  0.000E+00
 -14.370  0.000E+00  0.000E+00
 -14.360  0.000E+00  0.000E+00
 -14.350  0.000E+00  0.000E+00
 -14.340  0.000E+00  0.000E+00
 -14.330  0.000E+00  0.000E+00
 -14.320  0.000E+00  0.000E+00
 -14.310  0.000E+00  0.000E+00
 -14.300  0.000E+00  0.000E+00
 -14.290  0.000E+00  0.000E+00
 -14.280  0.000E+00  0.000E+00
 -14.270  0.000E+00  0.000E+00
 -14.260  0.000E+00  0.000E+00
 -14.250  0.000E+00  0.000E+00
 -14.240  0.000E+00  0.000E+00
 -14.230  0.000E+00  0.000E+00
 -14.220  0.000E+00  0.000E+00
 -14.210  0.000E+00  0.000E+00
 -14.200  0.000E+00  0.000E+00
 -14.190  0.000E+00  0.000E+00
 -14.180  0.000E+00  0.000E+00
 -14.170  0.000E+00  0.000E+00
 -14.160  0.000E+00  0.000E+00
 -14.150  0.000E+00  0.000E+00
 -14.140  0.000E+00  0.000E+00
 -14.130  0.000E+00  0.000E+00
 -14.120  0.000E+00  0.000E+00
 -14.110  0.000E+00  0.000E+00
 -14.100  0.000E+00  0.000E+00
 -14.090  0.000E+00  0.000E+00
 -14.080  0.000E+00  0.000E+00
 -14.070  0.000E+00  0.000E+00
 -14.060  0.000E+00  0.000E+00
 -14.050  0.000E+00  0.000E+00
 -14.040  0.000E+00  0.000E+00
 -14.030  0.000E+00  0.000E+00
 -14.020  0.000E+00  0.000E+00
 -14.010  0.000E+00  0.000E+00
 -14.000  0.000E+00  0.000E+00
 -13.990  0.000E+00  0.000E+00
 -13.980  0.000E+00  0.000E+00
 -13.970  0.000E+00  0.000E+00
 -13.960  0.000E+00  0.000E+00
 -13.950  0.000E+00  0.000E+00
 -13.940  0.000E+00  0.000E+00
 -13.930  0.000E+00  0.000E+00
 -13.920  0.000E+00  0.000E+00
 -13.910  0.000E+00  0.000E+00
 -13.900  0.000E+00  0.000E+00
 -13.890  0.000E+00  0.000E+00
 -13.880  0.000E+00  0.000E+00
 -13.870  0.000E+00  0.000E+00
 -13.860  0.000E+00  0.000E+00
 -13.850  0.000E+00  0.000E+00
 -13.840  0.000E+00  0.000E+00
 -13.830  0.000E+00  0.000E+00
 -13.820  0.000E+00  0.000E+00
 -13.810  0.000E+00  0.000E+00
 -13.800  0.000E+00  0.000E+00
 -13.790  0.000E+00  0.000E+00
 -13.780  0.000E+00  0.000E+00
 -13.770  0.000E+00  0.000E+00
 -13.760  0.000E+00  0.000E+00
 -13.750  0.000E+00  0.000E+00
 -13.740  0.000E+00  0.000E+00
 -13.730  0.000E+00  0.000E+00
 -13.720  0.000E+00  0.000E+00
 -13.710  0.000E+00  0.000E+00
 -13.700  0.000E+00  0.000E+00
 -13.690  0.000E+00  0.000E+00
 -13.680  0.000E+00  0.000E+00
 -13.670  0.000E+00  0.000E+00
 -13.660  0.000E+00  0.000E+00
 -13.650  0.000E+00  0.000E+00
 -13.640  0.000E+00  0.000E+00
 -13.630  0.000E+00  0.000E+00
 -13.620  0.000E+00  0.000E+00
 -13.610  0.000E+00  0.000E+00
 -13.600  0.000E+00  0.000E+00
 -13.590  0.000E+00  0.000E+00
 -13.580  0.000E+00  0.000E+00
 -13.570  0.000E+00  0.000E+00
 -13.560  0.000E+00  0.000E+00
 -13.550  0.000E+00  0.000E+00
 -13.540  0.000E+00  0.000E+00
 -13.530  0.000E+00  0.000E+00
 -13.520  0.000E+00  0.000E+00
 -13.510  0.000E+00  0.000E+00
 -13.500  0.000E+00  0.000E+00
 -13.490  0.000E+00  0.000E+00
 -13.480  0.000E+00  0.000E+00
 -13.470  0.000E+00  0.000E+00
 -13.460  0.000E+00  0.000E+00
 -13.450  0.000E+00  0.000E+00
 -13.440  0.000E+00  0.000E+00
 -13.430  0.000E+00  0.000E+00
 -13.420  0.000E+00  0.000E+00
 -13.410  0.000E+00  0.000E+00
 -13.400  0.000E+00  0.000E+00
 -13.390  0.000E+00  0.000E+00
 -13.380  0.000E+00  0.000E+00
 -13.370  0.000E+00  0.000E+00
 -13.360  0.000E+00  0.000E+00
 -13.350  0.000E+00  0.000E+00
 -13.340  0.000E+00  0.000E+00
 -13.330  0.000E+00  0.000E+00
 -13.320  0.000E+00  0.000E+00
 -13.310  0.000E+00  0.000E+00
 -13.300  0.000E+00  0.000E+00
 -13.290  0.000E+00  0.000E+00
 -13.280  0.000E+00  0.000E+00
 -13.270  0.000E+00  0.000E+00
 -13.260  0.000E+00  0.000E+00
 -13.250  0.000E+00  0.000E+00
 -13.240  0.000E+00  0.000E+00
 -13.230  0.000E+00  0.000E+00
 -13.220  0.000E+00  0.000E+00
 -13.210  0.000E+00  0.000E+00
 -13.200  0.000E+00  0.000E+00
 -13.190  0.000E+00  0.000E+00
 -13.180  0.000E+00  0.000E+00
 -13.170  0.000E+00  0.000E+00
 -13.160  0.000E+00  0.000E+00
 -13.150  0.000E+00  0.000E+00
 -13.140  0.000E+00  0.000E+00
 -13.130  0.000E+00  0.000E+00
 -13.120  0.000E+00  0.000E+00
 -13.110  0.000E+00  0.000E+00
 -13.100  0.000E+00  0.000E+00
 -13.090  0.000E+00  0.000E+00
 -13.080  0.000E+00  0.000E+00
 -13.070  0.000E+00  0.000E+00
 -13.060  0.000E+00  0.000E+00
 -13.050  0.000E+00  0.000E+00
 -13.040  0.000E+00  0.000E+00
 -13.030  0.000E+00  0.000E+00
 -13.020  0.000E+00  0.000E+00
 -13.010  0.000E+00  0.000E+00
 -13.000  0.000E+00  0.000E+00
 -12.990  0.000E+00  0.000E+00
 -12.980  0.000E+00  0.000E+00
 -12.970  0.000E+00  0.000E+00
 -12.960  0.000E+00  0.000E+00
 -12.950  0.000E+00  0.000E+00
 -12.940  0.000E+00  0.000E+00
 -12.930  0.000E+00  0.000E+00
 -12.920  0.000E+00  0.000E+00
 -12.910  0.000E+00  0.000E+00
 -12.900  0.000E+00  0.000E+00
 -12.890  0.000E+00  0.000E+00
 -12.880  0.000E+00  0.000E+00
 -12.870  0.000E+00  0.000E+00
 -12.860  0.000E+00  0.000E+00
 -12.850  0.000E+00  0.000E+00
 -12.840  0.000E+00  0.000E+00
 -12.830  0.000E+00  0.000E+00
 -12.820  0.121E-17  0.121E-17
 -12.810  0.655E-17  0.655E-17
 -12.800  0.528E-16  0.528E-16
 -12.790  0.268E-15  0.268E-15
 -12.780  0.131E-14  0.131E-14
 -12.770  0.610E-14  0.610E-14
 -12.760  0.273E-13  0.273E-13
 -12.750  0.117E-12  0.117E-12
 -12.740  0.479E-12  0.479E-12
 -12.730  0.188E-11  0.188E-11
 -12.720  0.708E-11  0.708E-11
 -12.710  0.255E-10  0.255E-10
 -12.700  0.882E-10  0.882E-10
 -12.690  0.292E-09  0.292E-09
 -12.680  0.928E-09  0.928E-09
 -12.670  0.282E-08  0.282E-08
 -12.660  0.822E-08  0.822E-08
 -12.650  0.230E-07  0.230E-07
 -12.640  0.614E-07  0.614E-07
 -12.630  0.158E-06  0.158E-06
 -12.620  0.387E-06  0.387E-06
 -12.610  0.913E-06  0.913E-06
 -12.600  0.206E-05  0.206E-05
 -12.590  0.446E-05  0.446E-05
 -12.580  0.926E-05  0.926E-05
 -12.570  0.184E-04  0.184E-04
 -12.560  0.352E-04  0.352E-04
 -12.550  0.644E-04  0.644E-04
 -12.540  0.113E-03  0.113E-03
 -12.530  0.191E-03  0.191E-03
 -12.520  0.309E-03  0.309E-03
 -12.510  0.481E-03  0.481E-03
 -12.500  0.718E-03  0.718E-03
 -12.490  0.103E-02  0.103E-02
 -12.480  0.143E-02  0.143E-02
 -12.470  0.190E-02  0.190E-02
 -12.460  0.244E-02  0.244E-02
 -12.450  0.303E-02  0.303E-02
 -12.440  0.364E-02  0.364E-02
 -12.430  0.423E-02  0.423E-02
 -12.420  0.478E-02  0.478E-02
 -12.410  0.526E-02  0.526E-02
 -12.400  0.566E-02  0.566E-02
 -12.390  0.598E-02  0.598E-02
 -12.380  0.622E-02  0.622E-02
 -12.370  0.639E-02  0.639E-02
 -12.360  0.652E-02  0.652E-02
 -12.350  0.662E-02  0.662E-02
 -12.340  0.670E-02  0.670E-02
 -12.330  0.678E-02  0.678E-02
 -12.320  0.686E-02  0.686E-02
 -12.310  0.694E-02  0.694E-02
 -12.300  0.705E-02  0.705E-02
 -12.290  0.717E-02  0.717E-02
 -12.280  0.733E-02  0.733E-02
 -12.270  0.750E-02  0.750E-02
 -12.260  0.768E-02  0.768E-02
 -12.250  0.785E-02  0.785E-02
 -12.240  0.800E-02  0.800E-02
 -12.230  0.810E-02  0.810E-02
 -12.220  0.816E-02  0.816E-02
 -12.210  0.820E-02  0.820E-02
 -12.200  0.826E-02  0.826E-02
 -12.190  0.837E-02  0.837E-02
 -12.180  0.856E-02  0.856E-02
 -12.170  0.884E-02  0.884E-02
 -12.160  0.917E-02  0.917E-02
 -12.150  0.950E-02  0.950E-02
 -12.140  0.978E-02  0.978E-02
 -12.130  0.993E-02  0.993E-02
 -12.120  0.995E-02  0.995E-02
 -12.110  0.984E-02  0.984E-02
 -12.100  0.968E-02  0.968E-02
 -12.090  0.954E-02  0.954E-02
 -12.080  0.953E-02  0.953E-02
 -12.070  0.970E-02  0.970E-02
 -12.060  0.101E-01  0.101E-01
 -12.050  0.106E-01  0.106E-01
 -12.040  0.112E-01  0.112E-01
 -12.030  0.118E-01  0.118E-01
 -12.020  0.122E-01  0.122E-01
 -12.010  0.124E-01  0.124E-01
 -12.000  0.123E-01  0.123E-01
 -11.990  0.119E-01  0.119E-01
 -11.980  0.115E-01  0.115E-01
 -11.970  0.111E-01  0.111E-01
 -11.960  0.108E-01  0.108E-01
 -11.950  0.109E-01  0.109E-01
 -11.940  0.113E-01  0.113E-01
 -11.930  0.120E-01  0.120E-01
 -11.920  0.128E-01  0.128E-01
 -11.910  0.138E-01  0.138E-01
 -11.900  0.145E-01  0.145E-01
 -11.890  0.150E-01  0.150E-01
 -11.880  0.152E-01  0.152E-01
 -11.870  0.149E-01  0.149E-01
 -11.860  0.144E-01  0.144E-01
 -11.850  0.138E-01  0.138E-01
 -11.840  0.131E-01  0.131E-01
 -11.830  0.127E-01  0.127E-01
 -11.820  0.127E-01  0.127E-01
 -11.810  0.130E-01  0.130E-01
 -11.800  0.138E-01  0.138E-01
 -11.790  0.149E-01  0.149E-01
 -11.780  0.161E-01  0.161E-01
 -11.770  0.171E-01  0.171E-01
 -11.760  0.179E-01  0.179E-01
 -11.750  0.183E-01  0.183E-01
 -11.740  0.183E-01  0.183E-01
 -11.730  0.179E-01  0.179E-01
 -11.720  0.172E-01  0.172E-01
 -11.710  0.164E-01  0.164E-01
 -11.700  0.159E-01  0.159E-01
 -11.690  0.156E-01  0.156E-01
 -11.680  0.158E-01  0.158E-01
 -11.670  0.165E-01  0.165E-01
 -11.660  0.176E-01  0.176E-01
 -11.650  0.190E-01  0.190E-01
 -11.640  0.206E-01  0.206E-01
 -11.630  0.220E-01  0.220E-01
 -11.620  0.231E-01  0.231E-01
 -11.610  0.238E-01  0.238E-01
 -11.600  0.240E-01  0.240E-01
 -11.590  0.237E-01  0.237E-01
 -11.580  0.231E-01  0.231E-01
 -11.570  0.224E-01  0.224E-01
 -11.560  0.218E-01  0.218E-01
 -11.550  0.213E-01  0.213E-01
 -11.540  0.211E-01  0.211E-01
 -11.530  0.213E-01  0.213E-01
 -11.520  0.217E-01  0.217E-01
 -11.510  0.222E-01  0.222E-01
 -11.500  0.229E-01  0.229E-01
 -11.490  0.235E-01  0.235E-01
 -11.480  0.239E-01  0.239E-01
 -11.470  0.241E-01  0.241E-01
 -11.460  0.240E-01  0.240E-01
 -11.450  0.236E-01  0.236E-01
 -11.440  0.229E-01  0.229E-01
 -11.430  0.219E-01  0.219E-01
 -11.420  0.208E-01  0.208E-01
 -11.410  0.197E-01  0.197E-01
 -11.400  0.189E-01  0.189E-01
 -11.390  0.184E-01  0.184E-01
 -11.380  0.183E-01  0.183E-01
 -11.370  0.187E-01  0.187E-01
 -11.360  0.194E-01  0.194E-01
 -11.350  0.204E-01  0.204E-01
 -11.340  0.215E-01  0.215E-01
 -11.330  0.225E-01  0.225E-01
 -11.320  0.233E-01  0.233E-01
 -11.310  0.238E-01  0.238E-01
 -11.300  0.239E-01  0.239E-01
 -11.290  0.236E-01  0.236E-01
 -11.280  0.229E-01  0.229E-01
 -11.270  0.219E-01  0.219E-01
 -11.260  0.207E-01  0.207E-01
 -11.250  0.195E-01  0.195E-01
 -11.240  0.185E-01  0.185E-01
 -11.230  0.178E-01  0.178E-01
 -11.220  0.176E-01  0.176E-01
 -11.210  0.179E-01  0.179E-01
 -11.200  0.186E-01  0.186E-01
 -11.190  0.197E-01  0.197E-01
 -11.180  0.209E-01  0.209E-01
 -11.170  0.221E-01  0.221E-01
 -11.160  0.230E-01  0.230E-01
 -11.150  0.234E-01  0.234E-01
 -11.140  0.234E-01  0.234E-01
 -11.130  0.229E-01  0.229E-01
 -11.120  0.220E-01  0.220E-01
 -11.110  0.211E-01  0.211E-01
 -11.100  0.201E-01  0.201E-01
 -11.090  0.194E-01  0.194E-01
 -11.080  0.191E-01  0.191E-01
 -11.070  0.190E-01  0.190E-01
 -11.060  0.193E-01  0.193E-01
 -11.050  0.196E-01  0.196E-01
 -11.040  0.200E-01  0.200E-01
 -11.030  0.202E-01  0.202E-01
 -11.020  0.202E-01  0.202E-01
 -11.010  0.200E-01  0.200E-01
 -11.000  0.197E-01  0.197E-01
 -10.990  0.196E-01  0.196E-01
 -10.980  0.195E-01  0.195E-01
 -10.970  0.197E-01  0.197E-01
 -10.960  0.202E-01  0.202E-01
 -10.950  0.208E-01  0.208E-01
 -10.940  0.215E-01  0.215E-01
 -10.930  0.221E-01  0.221E-01
 -10.920  0.225E-01  0.225E-01
 -10.910  0.225E-01  0.225E-01
 -10.900  0.221E-01  0.221E-01
 -10.890  0.212E-01  0.212E-01
 -10.880  0.200E-01  0.200E-01
 -10.870  0.187E-01  0.187E-01
 -10.860  0.173E-01  0.173E-01
 -10.850  0.162E-01  0.162E-01
 -10.840  0.156E-01  0.156E-01
 -10.830  0.156E-01  0.156E-01
 -10.820  0.163E-01  0.163E-01
 -10.810  0.177E-01  0.177E-01
 -10.800  0.195E-01  0.195E-01
 -10.790  0.216E-01  0.216E-01
 -10.780  0.236E-01  0.236E-01
 -10.770  0.252E-01  0.252E-01
 -10.760  0.261E-01  0.261E-01
 -10.750  0.262E-01  0.262E-01
 -10.740  0.252E-01  0.252E-01
 -10.730  0.234E-01  0.234E-01
 -10.720  0.208E-01  0.208E-01
 -10.710  0.177E-01  0.177E-01
 -10.700  0.147E-01  0.147E-01
 -10.690  0.121E-01  0.121E-01
 -10.680  0.104E-01  0.104E-01
 -10.670  0.974E-02  0.974E-02
 -10.660  0.104E-01  0.104E-01
 -10.650  0.122E-01  0.122E-01
 -10.640  0.152E-01  0.152E-01
 -10.630  0.188E-01  0.188E-01
 -10.620  0.227E-01  0.227E-01
 -10.610  0.264E-01  0.264E-01
 -10.600  0.294E-01  0.294E-01
 -10.590  0.314E-01  0.314E-01
 -10.580  0.320E-01  0.320E-01
 -10.570  0.311E-01  0.311E-01
 -10.560  0.287E-01  0.287E-01
 -10.550  0.250E-01  0.250E-01
 -10.540  0.205E-01  0.205E-01
 -10.530  0.157E-01  0.157E-01
 -10.520  0.112E-01  0.112E-01
 -10.510  0.755E-02  0.755E-02
 -10.500  0.508E-02  0.508E-02
 -10.490  0.408E-02  0.408E-02
 -10.480  0.460E-02  0.460E-02
 -10.470  0.657E-02  0.657E-02
 -10.460  0.976E-02  0.976E-02
 -10.450  0.139E-01  0.139E-01
 -10.440  0.185E-01  0.185E-01
 -10.430  0.233E-01  0.233E-01
 -10.420  0.279E-01  0.279E-01
 -10.410  0.317E-01  0.317E-01
 -10.400  0.343E-01  0.343E-01
 -10.390  0.354E-01  0.354E-01
 -10.380  0.348E-01  0.348E-01
 -10.370  0.325E-01  0.325E-01
 -10.360  0.286E-01  0.286E-01
 -10.350  0.235E-01  0.235E-01
 -10.340  0.180E-01  0.180E-01
 -10.330  0.126E-01  0.126E-01
 -10.320  0.799E-02  0.799E-02
 -10.310  0.459E-02  0.459E-02
 -10.300  0.274E-02  0.274E-02
 -10.290  0.252E-02  0.252E-02
 -10.280  0.385E-02  0.385E-02
 -10.270  0.649E-02  0.649E-02
 -10.260  0.101E-01  0.101E-01
 -10.250  0.143E-01  0.143E-01
 -10.240  0.188E-01  0.188E-01
 -10.230  0.230E-01  0.230E-01
 -10.220  0.267E-01  0.267E-01
 -10.210  0.294E-01  0.294E-01
 -10.200  0.309E-01  0.309E-01
 -10.190  0.311E-01  0.311E-01
 -10.180  0.300E-01  0.300E-01
 -10.170  0.277E-01  0.277E-01
 -10.160  0.247E-01  0.247E-01
 -10.150  0.212E-01  0.212E-01
 -10.140  0.177E-01  0.177E-01
 -10.130  0.146E-01  0.146E-01
 -10.120  0.120E-01  0.120E-01
 -10.110  0.101E-01  0.101E-01
 -10.100  0.903E-02  0.903E-02
 -10.090  0.878E-02  0.878E-02
 -10.080  0.934E-02  0.934E-02
 -10.070  0.107E-01  0.107E-01
 -10.060  0.127E-01  0.127E-01
 -10.050  0.153E-01  0.153E-01
 -10.040  0.183E-01  0.183E-01
 -10.030  0.212E-01  0.212E-01
 -10.020  0.238E-01  0.238E-01
 -10.010  0.257E-01  0.257E-01
 -10.000  0.266E-01  0.266E-01
  -9.990  0.262E-01  0.262E-01
  -9.980  0.247E-01  0.247E-01
  -9.970  0.221E-01  0.221E-01
  -9.960  0.190E-01  0.190E-01
  -9.950  0.157E-01  0.157E-01
  -9.940  0.127E-01  0.127E-01
  -9.930  0.104E-01  0.104E-01
  -9.920  0.896E-02  0.896E-02
  -9.910  0.848E-02  0.848E-02
  -9.900  0.891E-02  0.891E-02
  -9.890  0.101E-01  0.101E-01
  -9.880  0.119E-01  0.119E-01
  -9.870  0.142E-01  0.142E-01
  -9.860  0.169E-01  0.169E-01
  -9.850  0.198E-01  0.198E-01
  -9.840  0.227E-01  0.227E-01
  -9.830  0.254E-01  0.254E-01
  -9.820  0.276E-01  0.276E-01
  -9.810  0.289E-01  0.289E-01
  -9.800  0.292E-01  0.292E-01
  -9.790  0.282E-01  0.282E-01
  -9.780  0.259E-01  0.259E-01
  -9.770  0.227E-01  0.227E-01
  -9.760  0.188E-01  0.188E-01
  -9.750  0.147E-01  0.147E-01
  -9.740  0.109E-01  0.109E-01
  -9.730  0.783E-02  0.783E-02
  -9.720  0.574E-02  0.574E-02
  -9.710  0.473E-02  0.473E-02
  -9.700  0.476E-02  0.476E-02
  -9.690  0.566E-02  0.566E-02
  -9.680  0.720E-02  0.720E-02
  -9.670  0.917E-02  0.917E-02
  -9.660  0.114E-01  0.114E-01
  -9.650  0.138E-01  0.138E-01
  -9.640  0.164E-01  0.164E-01
  -9.630  0.190E-01  0.190E-01
  -9.620  0.218E-01  0.218E-01
  -9.610  0.245E-01  0.245E-01
  -9.600  0.269E-01  0.269E-01
  -9.590  0.287E-01  0.287E-01
  -9.580  0.297E-01  0.297E-01
  -9.570  0.294E-01  0.294E-01
  -9.560  0.280E-01  0.280E-01
  -9.550  0.254E-01  0.254E-01
  -9.540  0.220E-01  0.220E-01
  -9.530  0.180E-01  0.180E-01
  -9.520  0.141E-01  0.141E-01
  -9.510  0.107E-01  0.107E-01
  -9.500  0.799E-02  0.799E-02
  -9.490  0.631E-02  0.631E-02
  -9.480  0.569E-02  0.569E-02
  -9.470  0.602E-02  0.602E-02
  -9.460  0.715E-02  0.715E-02
  -9.450  0.885E-02  0.885E-02
  -9.440  0.109E-01  0.109E-01
  -9.430  0.131E-01  0.131E-01
  -9.420  0.152E-01  0.152E-01
  -9.410  0.172E-01  0.172E-01
  -9.400  0.189E-01  0.189E-01
  -9.390  0.203E-01  0.203E-01
  -9.380  0.212E-01  0.212E-01
  -9.370  0.216E-01  0.216E-01
  -9.360  0.214E-01  0.214E-01
  -9.350  0.207E-01  0.207E-01
  -9.340  0.195E-01  0.195E-01
  -9.330  0.180E-01  0.180E-01
  -9.320  0.164E-01  0.164E-01
  -9.310  0.148E-01  0.148E-01
  -9.300  0.135E-01  0.135E-01
  -9.290  0.127E-01  0.127E-01
  -9.280  0.124E-01  0.124E-01
  -9.270  0.127E-01  0.127E-01
  -9.260  0.135E-01  0.135E-01
  -9.250  0.146E-01  0.146E-01
  -9.240  0.159E-01  0.159E-01
  -9.230  0.172E-01  0.172E-01
  -9.220  0.184E-01  0.184E-01
  -9.210  0.193E-01  0.193E-01
  -9.200  0.199E-01  0.199E-01
  -9.190  0.201E-01  0.201E-01
  -9.180  0.199E-01  0.199E-01
  -9.170  0.194E-01  0.194E-01
  -9.160  0.185E-01  0.185E-01
  -9.150  0.173E-01  0.173E-01
  -9.140  0.157E-01  0.157E-01
  -9.130  0.140E-01  0.140E-01
  -9.120  0.123E-01  0.123E-01
  -9.110  0.106E-01  0.106E-01
  -9.100  0.927E-02  0.927E-02
  -9.090  0.830E-02  0.830E-02
  -9.080  0.781E-02  0.781E-02
  -9.070  0.779E-02  0.779E-02
  -9.060  0.818E-02  0.818E-02
  -9.050  0.890E-02  0.890E-02
  -9.040  0.991E-02  0.991E-02
  -9.030  0.112E-01  0.112E-01
  -9.020  0.127E-01  0.127E-01
  -9.010  0.146E-01  0.146E-01
  -9.000  0.169E-01  0.169E-01
  -8.990  0.194E-01  0.194E-01
  -8.980  0.221E-01  0.221E-01
  -8.970  0.245E-01  0.245E-01
  -8.960  0.264E-01  0.264E-01
  -8.950  0.274E-01  0.274E-01
  -8.940  0.273E-01  0.273E-01
  -8.930  0.260E-01  0.260E-01
  -8.920  0.234E-01  0.234E-01
  -8.910  0.200E-01  0.200E-01
  -8.900  0.161E-01  0.161E-01
  -8.890  0.122E-01  0.122E-01
  -8.880  0.875E-02  0.875E-02
  -8.870  0.607E-02  0.607E-02
  -8.860  0.438E-02  0.438E-02
  -8.850  0.374E-02  0.374E-02
  -8.840  0.403E-02  0.403E-02
  -8.830  0.505E-02  0.505E-02
  -8.820  0.655E-02  0.655E-02
  -8.810  0.827E-02  0.827E-02
  -8.800  0.100E-01  0.100E-01
  -8.790  0.117E-01  0.117E-01
  -8.780  0.132E-01  0.132E-01
  -8.770  0.146E-01  0.146E-01
  -8.760  0.159E-01  0.159E-01
  -8.750  0.172E-01  0.172E-01
  -8.740  0.183E-01  0.183E-01
  -8.730  0.192E-01  0.192E-01
  -8.720  0.198E-01  0.198E-01
  -8.710  0.200E-01  0.200E-01
  -8.700  0.197E-01  0.197E-01
  -8.690  0.189E-01  0.189E-01
  -8.680  0.178E-01  0.178E-01
  -8.670  0.164E-01  0.164E-01
  -8.660  0.149E-01  0.149E-01
  -8.650  0.135E-01  0.135E-01
  -8.640  0.124E-01  0.124E-01
  -8.630  0.116E-01  0.116E-01
  -8.620  0.113E-01  0.113E-01
  -8.610  0.114E-01  0.114E-01
  -8.600  0.117E-01  0.117E-01
  -8.590  0.123E-01  0.123E-01
  -8.580  0.130E-01  0.130E-01
  -8.570  0.136E-01  0.136E-01
  -8.560  0.142E-01  0.142E-01
  -8.550  0.147E-01  0.147E-01
  -8.540  0.151E-01  0.151E-01
  -8.530  0.153E-01  0.153E-01
  -8.520  0.153E-01  0.153E-01
  -8.510  0.150E-01  0.150E-01
  -8.500  0.145E-01  0.145E-01
  -8.490  0.137E-01  0.137E-01
  -8.480  0.127E-01  0.127E-01
  -8.470  0.116E-01  0.116E-01
  -8.460  0.105E-01  0.105E-01
  -8.450  0.957E-02  0.957E-02
  -8.440  0.885E-02  0.885E-02
  -8.430  0.842E-02  0.842E-02
  -8.420  0.828E-02  0.828E-02
  -8.410  0.839E-02  0.839E-02
  -8.400  0.872E-02  0.872E-02
  -8.390  0.923E-02  0.923E-02
  -8.380  0.995E-02  0.995E-02
  -8.370  0.109E-01  0.109E-01
  -8.360  0.122E-01  0.122E-01
  -8.350  0.139E-01  0.139E-01
  -8.340  0.159E-01  0.159E-01
  -8.330  0.180E-01  0.180E-01
  -8.320  0.201E-01  0.201E-01
  -8.310  0.217E-01  0.217E-01
  -8.300  0.227E-01  0.227E-01
  -8.290  0.227E-01  0.227E-01
  -8.280  0.217E-01  0.217E-01
  -8.270  0.198E-01  0.198E-01
  -8.260  0.171E-01  0.171E-01
  -8.250  0.140E-01  0.140E-01
  -8.240  0.108E-01  0.108E-01
  -8.230  0.801E-02  0.801E-02
  -8.220  0.580E-02  0.580E-02
  -8.210  0.435E-02  0.435E-02
  -8.200  0.371E-02  0.371E-02
  -8.190  0.383E-02  0.383E-02
  -8.180  0.455E-02  0.455E-02
  -8.170  0.568E-02  0.568E-02
  -8.160  0.702E-02  0.702E-02
  -8.150  0.839E-02  0.839E-02
  -8.140  0.967E-02  0.967E-02
  -8.130  0.108E-01  0.108E-01
  -8.120  0.118E-01  0.118E-01
  -8.110  0.127E-01  0.127E-01
  -8.100  0.134E-01  0.134E-01
  -8.090  0.141E-01  0.141E-01
  -8.080  0.147E-01  0.147E-01
  -8.070  0.152E-01  0.152E-01
  -8.060  0.154E-01  0.154E-01
  -8.050  0.154E-01  0.154E-01
  -8.040  0.150E-01  0.150E-01
  -8.030  0.144E-01  0.144E-01
  -8.020  0.137E-01  0.137E-01
  -8.010  0.128E-01  0.128E-01
  -8.000  0.120E-01  0.120E-01
  -7.990  0.113E-01  0.113E-01
  -7.980  0.109E-01  0.109E-01
  -7.970  0.108E-01  0.108E-01
  -7.960  0.108E-01  0.108E-01
  -7.950  0.110E-01  0.110E-01
  -7.940  0.112E-01  0.112E-01
  -7.930  0.115E-01  0.115E-01
  -7.920  0.116E-01  0.116E-01
  -7.910  0.117E-01  0.117E-01
  -7.900  0.117E-01  0.117E-01
  -7.890  0.116E-01  0.116E-01
  -7.880  0.113E-01  0.113E-01
  -7.870  0.110E-01  0.110E-01
  -7.860  0.106E-01  0.106E-01
  -7.850  0.101E-01  0.101E-01
  -7.840  0.941E-02  0.941E-02
  -7.830  0.870E-02  0.870E-02
  -7.820  0.798E-02  0.798E-02
  -7.810  0.732E-02  0.732E-02
  -7.800  0.681E-02  0.681E-02
  -7.790  0.650E-02  0.650E-02
  -7.780  0.643E-02  0.643E-02
  -7.770  0.657E-02  0.657E-02
  -7.760  0.687E-02  0.687E-02
  -7.750  0.728E-02  0.728E-02
  -7.740  0.776E-02  0.776E-02
  -7.730  0.828E-02  0.828E-02
  -7.720  0.890E-02  0.890E-02
  -7.710  0.968E-02  0.968E-02
  -7.700  0.107E-01  0.107E-01
  -7.690  0.119E-01  0.119E-01
  -7.680  0.133E-01  0.133E-01
  -7.670  0.147E-01  0.147E-01
  -7.660  0.159E-01  0.159E-01
  -7.650  0.167E-01  0.167E-01
  -7.640  0.168E-01  0.168E-01
  -7.630  0.162E-01  0.162E-01
  -7.620  0.148E-01  0.148E-01
  -7.610  0.128E-01  0.128E-01
  -7.600  0.104E-01  0.104E-01
  -7.590  0.796E-02  0.796E-02
  -7.580  0.572E-02  0.572E-02
  -7.570  0.394E-02  0.394E-02
  -7.560  0.277E-02  0.277E-02
  -7.550  0.226E-02  0.226E-02
  -7.540  0.237E-02  0.237E-02
  -7.530  0.299E-02  0.299E-02
  -7.520  0.396E-02  0.396E-02
  -7.510  0.510E-02  0.510E-02
  -7.500  0.624E-02  0.624E-02
  -7.490  0.725E-02  0.725E-02
  -7.480  0.805E-02  0.805E-02
  -7.470  0.861E-02  0.861E-02
  -7.460  0.895E-02  0.895E-02
  -7.450  0.913E-02  0.913E-02
  -7.440  0.920E-02  0.920E-02
  -7.430  0.921E-02  0.921E-02
  -7.420  0.921E-02  0.921E-02
  -7.410  0.921E-02  0.921E-02
  -7.400  0.919E-02  0.919E-02
  -7.390  0.916E-02  0.916E-02
  -7.380  0.908E-02  0.908E-02
  -7.370  0.897E-02  0.897E-02
  -7.360  0.884E-02  0.884E-02
  -7.350  0.870E-02  0.870E-02
  -7.340  0.859E-02  0.859E-02
  -7.330  0.854E-02  0.854E-02
  -7.320  0.857E-02  0.857E-02
  -7.310  0.868E-02  0.868E-02
  -7.300  0.885E-02  0.885E-02
  -7.290  0.904E-02  0.904E-02
  -7.280  0.920E-02  0.920E-02
  -7.270  0.928E-02  0.928E-02
  -7.260  0.921E-02  0.921E-02
  -7.250  0.897E-02  0.897E-02
  -7.240  0.852E-02  0.852E-02
  -7.230  0.788E-02  0.788E-02
  -7.220  0.706E-02  0.706E-02
  -7.210  0.613E-02  0.613E-02
  -7.200  0.515E-02  0.515E-02
  -7.190  0.424E-02  0.424E-02
  -7.180  0.348E-02  0.348E-02
  -7.170  0.298E-02  0.298E-02
  -7.160  0.278E-02  0.278E-02
  -7.150  0.290E-02  0.290E-02
  -7.140  0.332E-02  0.332E-02
  -7.130  0.395E-02  0.395E-02
  -7.120  0.471E-02  0.471E-02
  -7.110  0.548E-02  0.548E-02
  -7.100  0.619E-02  0.619E-02
  -7.090  0.681E-02  0.681E-02
  -7.080  0.734E-02  0.734E-02
  -7.070  0.782E-02  0.782E-02
  -7.060  0.832E-02  0.832E-02
  -7.050  0.888E-02  0.888E-02
  -7.040  0.950E-02  0.950E-02
  -7.030  0.101E-01  0.101E-01
  -7.020  0.106E-01  0.106E-01
  -7.010  0.109E-01  0.109E-01
  -7.000  0.109E-01  0.109E-01
  -6.990  0.104E-01  0.104E-01
  -6.980  0.942E-02  0.942E-02
  -6.970  0.815E-02  0.815E-02
  -6.960  0.667E-02  0.667E-02
  -6.950  0.518E-02  0.518E-02
  -6.940  0.386E-02  0.386E-02
  -6.930  0.285E-02  0.285E-02
  -6.920  0.225E-02  0.225E-02
  -6.910  0.209E-02  0.209E-02
  -6.900  0.234E-02  0.234E-02
  -6.890  0.290E-02  0.290E-02
  -6.880  0.366E-02  0.366E-02
  -6.870  0.448E-02  0.448E-02
  -6.860  0.522E-02  0.522E-02
  -6.850  0.577E-02  0.577E-02
  -6.840  0.608E-02  0.608E-02
  -6.830  0.612E-02  0.612E-02
  -6.820  0.592E-02  0.592E-02
  -6.810  0.557E-02  0.557E-02
  -6.800  0.516E-02  0.516E-02
  -6.790  0.478E-02  0.478E-02
  -6.780  0.453E-02  0.453E-02
  -6.770  0.445E-02  0.445E-02
  -6.760  0.456E-02  0.456E-02
  -6.750  0.482E-02  0.482E-02
  -6.740  0.521E-02  0.521E-02
  -6.730  0.566E-02  0.566E-02
  -6.720  0.612E-02  0.612E-02
  -6.710  0.657E-02  0.657E-02
  -6.700  0.699E-02  0.699E-02
  -6.690  0.736E-02  0.736E-02
  -6.680  0.767E-02  0.767E-02
  -6.670  0.788E-02  0.788E-02
  -6.660  0.795E-02  0.795E-02
  -6.650  0.782E-02  0.782E-02
  -6.640  0.746E-02  0.746E-02
  -6.630  0.683E-02  0.683E-02
  -6.620  0.597E-02  0.597E-02
  -6.610  0.493E-02  0.493E-02
  -6.600  0.381E-02  0.381E-02
  -6.590  0.273E-02  0.273E-02
  -6.580  0.180E-02  0.180E-02
  -6.570  0.113E-02  0.113E-02
  -6.560  0.779E-03  0.779E-03
  -6.550  0.759E-03  0.759E-03
  -6.540  0.105E-02  0.105E-02
  -6.530  0.160E-02  0.160E-02
  -6.520  0.233E-02  0.233E-02
  -6.510  0.314E-02  0.314E-02
  -6.500  0.394E-02  0.394E-02
  -6.490  0.465E-02  0.465E-02
  -6.480  0.523E-02  0.523E-02
  -6.470  0.564E-02  0.564E-02
  -6.460  0.590E-02  0.590E-02
  -6.450  0.604E-02  0.604E-02
  -6.440  0.609E-02  0.609E-02
  -6.430  0.609E-02  0.609E-02
  -6.420  0.607E-02  0.607E-02
  -6.410  0.603E-02  0.603E-02
  -6.400  0.593E-02  0.593E-02
  -6.390  0.576E-02  0.576E-02
  -6.380  0.548E-02  0.548E-02
  -6.370  0.509E-02  0.509E-02
  -6.360  0.460E-02  0.460E-02
  -6.350  0.407E-02  0.407E-02
  -6.340  0.354E-02  0.354E-02
  -6.330  0.311E-02  0.311E-02
  -6.320  0.280E-02  0.280E-02
  -6.310  0.266E-02  0.266E-02
  -6.300  0.267E-02  0.267E-02
  -6.290  0.279E-02  0.279E-02
  -6.280  0.294E-02  0.294E-02
  -6.270  0.306E-02  0.306E-02
  -6.260  0.309E-02  0.309E-02
  -6.250  0.299E-02  0.299E-02
  -6.240  0.277E-02  0.277E-02
  -6.230  0.249E-02  0.249E-02
  -6.220  0.222E-02  0.222E-02
  -6.210  0.203E-02  0.203E-02
  -6.200  0.198E-02  0.198E-02
  -6.190  0.212E-02  0.212E-02
  -6.180  0.243E-02  0.243E-02
  -6.170  0.288E-02  0.288E-02
  -6.160  0.342E-02  0.342E-02
  -6.150  0.398E-02  0.398E-02
  -6.140  0.450E-02  0.450E-02
  -6.130  0.494E-02  0.494E-02
  -6.120  0.525E-02  0.525E-02
  -6.110  0.541E-02  0.541E-02
  -6.100  0.541E-02  0.541E-02
  -6.090  0.524E-02  0.524E-02
  -6.080  0.490E-02  0.490E-02
  -6.070  0.439E-02  0.439E-02
  -6.060  0.375E-02  0.375E-02
  -6.050  0.303E-02  0.303E-02
  -6.040  0.231E-02  0.231E-02
  -6.030  0.165E-02  0.165E-02
  -6.020  0.114E-02  0.114E-02
  -6.010  0.820E-03  0.820E-03
  -6.000  0.724E-03  0.724E-03
  -5.990  0.838E-03  0.838E-03
  -5.980  0.112E-02  0.112E-02
  -5.970  0.150E-02  0.150E-02
  -5.960  0.191E-02  0.191E-02
  -5.950  0.227E-02  0.227E-02
  -5.940  0.255E-02  0.255E-02
  -5.930  0.271E-02  0.271E-02
  -5.920  0.277E-02  0.277E-02
  -5.910  0.277E-02  0.277E-02
  -5.900  0.273E-02  0.273E-02
  -5.890  0.273E-02  0.273E-02
  -5.880  0.278E-02  0.278E-02
  -5.870  0.289E-02  0.289E-02
  -5.860  0.305E-02  0.305E-02
  -5.850  0.323E-02  0.323E-02
  -5.840  0.336E-02  0.336E-02
  -5.830  0.341E-02  0.341E-02
  -5.820  0.335E-02  0.335E-02
  -5.810  0.317E-02  0.317E-02
  -5.800  0.288E-02  0.288E-02
  -5.790  0.252E-02  0.252E-02
  -5.780  0.212E-02  0.212E-02
  -5.770  0.171E-02  0.171E-02
  -5.760  0.134E-02  0.134E-02
  -5.750  0.103E-02  0.103E-02
  -5.740  0.802E-03  0.802E-03
  -5.730  0.679E-03  0.679E-03
  -5.720  0.663E-03  0.663E-03
  -5.710  0.754E-03  0.754E-03
  -5.700  0.939E-03  0.939E-03
  -5.690  0.120E-02  0.120E-02
  -5.680  0.150E-02  0.150E-02
  -5.670  0.180E-02  0.180E-02
  -5.660  0.208E-02  0.208E-02
  -5.650  0.230E-02  0.230E-02
  -5.640  0.245E-02  0.245E-02
  -5.630  0.252E-02  0.252E-02
  -5.620  0.251E-02  0.251E-02
  -5.610  0.243E-02  0.243E-02
  -5.600  0.230E-02  0.230E-02
  -5.590  0.213E-02  0.213E-02
  -5.580  0.193E-02  0.193E-02
  -5.570  0.172E-02  0.172E-02
  -5.560  0.150E-02  0.150E-02
  -5.550  0.129E-02  0.129E-02
  -5.540  0.110E-02  0.110E-02
  -5.530  0.943E-03  0.943E-03
  -5.520  0.822E-03  0.822E-03
  -5.510  0.742E-03  0.742E-03
  -5.500  0.701E-03  0.701E-03
  -5.490  0.698E-03  0.698E-03
  -5.480  0.731E-03  0.731E-03
  -5.470  0.800E-03  0.800E-03
  -5.460  0.902E-03  0.902E-03
  -5.450  0.103E-02  0.103E-02
  -5.440  0.118E-02  0.118E-02
  -5.430  0.133E-02  0.133E-02
  -5.420  0.146E-02  0.146E-02
  -5.410  0.155E-02  0.155E-02
  -5.400  0.157E-02  0.157E-02
  -5.390  0.152E-02  0.152E-02
  -5.380  0.140E-02  0.140E-02
  -5.370  0.122E-02  0.122E-02
  -5.360  0.101E-02  0.101E-02
  -5.350  0.801E-03  0.801E-03
  -5.340  0.620E-03  0.620E-03
  -5.330  0.485E-03  0.485E-03
  -5.320  0.408E-03  0.408E-03
  -5.310  0.387E-03  0.387E-03
  -5.300  0.413E-03  0.413E-03
  -5.290  0.471E-03  0.471E-03
  -5.280  0.546E-03  0.546E-03
  -5.270  0.622E-03  0.622E-03
  -5.260  0.687E-03  0.687E-03
  -5.250  0.732E-03  0.732E-03
  -5.240  0.752E-03  0.752E-03
  -5.230  0.743E-03  0.743E-03
  -5.220  0.707E-03  0.707E-03
  -5.210  0.646E-03  0.646E-03
  -5.200  0.567E-03  0.567E-03
  -5.190  0.479E-03  0.479E-03
  -5.180  0.394E-03  0.394E-03
  -5.170  0.319E-03  0.319E-03
  -5.160  0.265E-03  0.265E-03
  -5.150  0.232E-03  0.232E-03
  -5.140  0.220E-03  0.220E-03
  -5.130  0.222E-03  0.222E-03
  -5.120  0.231E-03  0.231E-03
  -5.110  0.238E-03  0.238E-03
  -5.100  0.237E-03  0.237E-03
  -5.090  0.225E-03  0.225E-03
  -5.080  0.203E-03  0.203E-03
  -5.070  0.172E-03  0.172E-03
  -5.060  0.136E-03  0.136E-03
  -5.050  0.102E-03  0.102E-03
  -5.040  0.702E-04  0.702E-04
  -5.030  0.446E-04  0.446E-04
  -5.020  0.251E-04  0.251E-04
  -5.010  0.113E-04  0.113E-04
  -5.000  0.191E-05  0.191E-05
  -4.990 -0.422E-05 -0.422E-05
  -4.980 -0.813E-05 -0.813E-05
  -4.970 -0.105E-04 -0.105E-04
  -4.960 -0.118E-04 -0.118E-04
  -4.950 -0.121E-04 -0.121E-04
  -4.940 -0.116E-04 -0.116E-04
  -4.930 -0.104E-04 -0.104E-04
  -4.920 -0.884E-05 -0.884E-05
  -4.910 -0.710E-05 -0.710E-05
  -4.900 -0.539E-05 -0.539E-05
  -4.890 -0.388E-05 -0.388E-05
  -4.880 -0.265E-05 -0.265E-05
  -4.870 -0.171E-05 -0.171E-05
  -4.860 -0.106E-05 -0.106E-05
  -4.850 -0.617E-06 -0.617E-06
  -4.840 -0.344E-06 -0.344E-06
  -4.830 -0.182E-06 -0.182E-06
  -4.820 -0.920E-07 -0.920E-07
  -4.810 -0.443E-07 -0.443E-07
  -4.800 -0.203E-07 -0.203E-07
  -4.790 -0.890E-08 -0.890E-08
  -4.780 -0.372E-08 -0.372E-08
  -4.770 -0.148E-08 -0.148E-08
  -4.760 -0.560E-09 -0.560E-09
  -4.750 -0.199E-09 -0.199E-09
  -4.740 -0.635E-10 -0.635E-10
  -4.730 -0.151E-10 -0.151E-10
  -4.720  0.152E-11  0.152E-11
  -4.710  0.689E-11  0.689E-11
  -4.700  0.838E-11  0.838E-11
  -4.690  0.867E-11  0.867E-11
  -4.680  0.813E-11  0.813E-11
  -4.670  0.748E-11  0.748E-11
  -4.660  0.680E-11  0.680E-11
  -4.650  0.613E-11  0.613E-11
  -4.640  0.553E-11  0.553E-11
  -4.630  0.500E-11  0.500E-11
  -4.620  0.456E-11  0.456E-11
  -4.610  0.421E-11  0.421E-11
  -4.600  0.401E-11  0.401E-11
  -4.590  0.399E-11  0.399E-11
  -4.580  0.426E-11  0.426E-11
  -4.570  0.490E-11  0.490E-11
  -4.560  0.598E-11  0.598E-11
  -4.550  0.754E-11  0.754E-11
  -4.540  0.954E-11  0.954E-11
  -4.530  0.119E-10  0.119E-10
  -4.520  0.144E-10  0.144E-10
  -4.510  0.168E-10  0.168E-10
  -4.500  0.188E-10  0.188E-10
  -4.490  0.202E-10  0.202E-10
  -4.480  0.206E-10  0.206E-10
  -4.470  0.201E-10  0.201E-10
  -4.460  0.185E-10  0.185E-10
  -4.450  0.162E-10  0.162E-10
  -4.440  0.133E-10  0.133E-10
  -4.430  0.103E-10  0.103E-10
  -4.420  0.743E-11  0.743E-11
  -4.410  0.501E-11  0.501E-11
  -4.400  0.323E-11  0.323E-11
  -4.390  0.214E-11  0.214E-11
  -4.380  0.172E-11  0.172E-11
  -4.370  0.186E-11  0.186E-11
  -4.360  0.239E-11  0.239E-11
  -4.350  0.317E-11  0.317E-11
  -4.340  0.404E-11  0.404E-11
  -4.330  0.488E-11  0.488E-11
  -4.320  0.562E-11  0.562E-11
  -4.310  0.618E-11  0.618E-11
  -4.300  0.651E-11  0.651E-11
  -4.290  0.661E-11  0.661E-11
  -4.280  0.647E-11  0.647E-11
  -4.270  0.613E-11  0.613E-11
  -4.260  0.566E-11  0.566E-11
  -4.250  0.518E-11  0.518E-11
  -4.240  0.482E-11  0.482E-11
  -4.230  0.469E-11  0.469E-11
  -4.220  0.489E-11  0.489E-11
  -4.210  0.546E-11  0.546E-11
  -4.200  0.639E-11  0.639E-11
  -4.190  0.757E-11  0.757E-11
  -4.180  0.889E-11  0.889E-11
  -4.170  0.102E-10  0.102E-10
  -4.160  0.113E-10  0.113E-10
  -4.150  0.122E-10  0.122E-10
  -4.140  0.128E-10  0.128E-10
  -4.130  0.129E-10  0.129E-10
  -4.120  0.128E-10  0.128E-10
  -4.110  0.123E-10  0.123E-10
  -4.100  0.116E-10  0.116E-10
  -4.090  0.108E-10  0.108E-10
  -4.080  0.998E-11  0.998E-11
  -4.070  0.920E-11  0.920E-11
  -4.060  0.860E-11  0.860E-11
  -4.050  0.829E-11  0.829E-11
  -4.040  0.834E-11  0.834E-11
  -4.030  0.881E-11  0.881E-11
  -4.020  0.971E-11  0.971E-11
  -4.010  0.110E-10  0.110E-10
  -4.000  0.127E-10  0.127E-10
  -3.990  0.146E-10  0.146E-10
  -3.980  0.166E-10  0.166E-10
  -3.970  0.187E-10  0.187E-10
  -3.960  0.205E-10  0.205E-10
  -3.950  0.219E-10  0.219E-10
  -3.940  0.228E-10  0.228E-10
  -3.930  0.231E-10  0.231E-10
  -3.920  0.228E-10  0.228E-10
  -3.910  0.221E-10  0.221E-10
  -3.900  0.214E-10  0.214E-10
  -3.890  0.209E-10  0.209E-10
  -3.880  0.210E-10  0.210E-10
  -3.870  0.217E-10  0.217E-10
  -3.860  0.232E-10  0.232E-10
  -3.850  0.251E-10  0.251E-10
  -3.840  0.271E-10  0.271E-10
  -3.830  0.288E-10  0.288E-10
  -3.820  0.298E-10  0.298E-10
  -3.810  0.297E-10  0.297E-10
  -3.800  0.285E-10  0.285E-10
  -3.790  0.263E-10  0.263E-10
  -3.780  0.232E-10  0.232E-10
  -3.770  0.199E-10  0.199E-10
  -3.760  0.166E-10  0.166E-10
  -3.750  0.138E-10  0.138E-10
  -3.740  0.118E-10  0.118E-10
  -3.730  0.108E-10  0.108E-10
  -3.720  0.107E-10  0.107E-10
  -3.710  0.114E-10  0.114E-10
  -3.700  0.128E-10  0.128E-10
  -3.690  0.146E-10  0.146E-10
  -3.680  0.165E-10  0.165E-10
  -3.670  0.182E-10  0.182E-10
  -3.660  0.195E-10  0.195E-10
  -3.650  0.201E-10  0.201E-10
  -3.640  0.198E-10  0.198E-10
  -3.630  0.186E-10  0.186E-10
  -3.620  0.165E-10  0.165E-10
  -3.610  0.137E-10  0.137E-10
  -3.600  0.105E-10  0.105E-10
  -3.590  0.717E-11  0.717E-11
  -3.580  0.407E-11  0.407E-11
  -3.570  0.146E-11  0.146E-11
  -3.560 -0.485E-12 -0.485E-12
  -3.550 -0.173E-11 -0.173E-11
  -3.540 -0.235E-11 -0.235E-11
  -3.530 -0.248E-11 -0.248E-11
  -3.520 -0.227E-11 -0.227E-11
  -3.510 -0.189E-11 -0.189E-11
  -3.500 -0.145E-11 -0.145E-11
  -3.490 -0.105E-11 -0.105E-11
  -3.480 -0.709E-12 -0.709E-12
  -3.470 -0.454E-12 -0.454E-12
  -3.460 -0.276E-12 -0.276E-12
  -3.450 -0.159E-12 -0.159E-12
  -3.440 -0.875E-13 -0.875E-13
  -3.430 -0.459E-13 -0.459E-13
  -3.420 -0.229E-13 -0.229E-13
  -3.410 -0.110E-13 -0.110E-13
  -3.400 -0.500E-14 -0.500E-14
  -3.390 -0.218E-14 -0.218E-14
  -3.380 -0.910E-15 -0.910E-15
  -3.370 -0.363E-15 -0.363E-15
  -3.360 -0.139E-15 -0.139E-15
  -3.350 -0.508E-16 -0.508E-16
  -3.340 -0.178E-16 -0.178E-16
  -3.330 -0.597E-17 -0.597E-17
  -3.320 -0.192E-17 -0.192E-17
  -3.310 -0.590E-18 -0.590E-18
  -3.300 -0.127E-18 -0.127E-18
  -3.290 -0.368E-19 -0.368E-19
  -3.280  0.000E+00  0.000E+00
  -3.270  0.000E+00  0.000E+00
  -3.260  0.000E+00  0.000E+00
  -3.250  0.000E+00  0.000E+00
  -3.240  0.000E+00  0.000E+00
  -3.230  0.000E+00  0.000E+00
  -3.220  0.000E+00  0.000E+00
  -3.210  0.000E+00  0.000E+00
  -3.200  0.000E+00  0.000E+00
  -3.190  0.000E+00  0.000E+00
  -3.180  0.000E+00  0.000E+00
  -3.170  0.000E+00  0.000E+00
  -3.160  0.000E+00  0.000E+00
  -3.150  0.000E+00  0.000E+00
  -3.140  0.000E+00  0.000E+00
  -3.130  0.000E+00  0.000E+00
  -3.120  0.000E+00  0.000E+00
  -3.110  0.000E+00  0.000E+00
  -3.100  0.000E+00  0.000E+00
  -3.090  0.000E+00  0.000E+00
  -3.080  0.000E+00  0.000E+00
  -3.070  0.000E+00  0.000E+00
  -3.060  0.000E+00  0.000E+00
  -3.050  0.000E+00  0.000E+00
  -3.040  0.000E+00  0.000E+00
  -3.030  0.000E+00  0.000E+00
  -3.020  0.000E+00  0.000E+00
  -3.010  0.000E+00  0.000E+00
  -3.000  0.000E+00  0.000E+00
  -2.990  0.000E+00  0.000E+00
  -2.980  0.000E+00  0.000E+00
  -2.970  0.000E+00  0.000E+00
  -2.960  0.000E+00  0.000E+00
  -2.950  0.000E+00  0.000E+00
  -2.940  0.000E+00  0.000E+00
  -2.930  0.000E+00  0.000E+00
  -2.920  0.000E+00  0.000E+00
  -2.910  0.000E+00  0.000E+00
  -2.900  0.000E+00  0.000E+00
  -2.890  0.000E+00  0.000E+00
  -2.880  0.000E+00  0.000E+00
  -2.870  0.000E+00  0.000E+00
  -2.860  0.000E+00  0.000E+00
  -2.850  0.000E+00  0.000E+00
  -2.840  0.000E+00  0.000E+00
  -2.830  0.000E+00  0.000E+00
  -2.820  0.000E+00  0.000E+00
  -2.810  0.000E+00  0.000E+00
  -2.800  0.000E+00  0.000E+00
  -2.790  0.000E+00  0.000E+00
  -2.780  0.000E+00  0.000E+00
  -2.770  0.000E+00  0.000E+00
  -2.760  0.000E+00  0.000E+00
  -2.750  0.000E+00  0.000E+00
  -2.740  0.000E+00  0.000E+00
  -2.730  0.000E+00  0.000E+00
  -2.720  0.000E+00  0.000E+00
  -2.710  0.000E+00  0.000E+00
  -2.700  0.000E+00  0.000E+00
  -2.690  0.000E+00  0.000E+00
  -2.680  0.000E+00  0.000E+00
  -2.670  0.000E+00  0.000E+00
  -2.660  0.000E+00  0.000E+00
  -2.650  0.000E+00  0.000E+00
  -2.640  0.000E+00  0.000E+00
  -2.630  0.000E+00  0.000E+00
  -2.620  0.000E+00  0.000E+00
  -2.610  0.000E+00  0.000E+00
  -2.600  0.000E+00  0.000E+00
  -2.590  0.000E+00  0.000E+00
  -2.580  0.000E+00  0.000E+00
  -2.570  0.000E+00  0.000E+00
  -2.560  0.000E+00  0.000E+00
  -2.550  0.000E+00  0.000E+00
  -2.540  0.000E+00  0.000E+00
  -2.530  0.000E+00  0.000E+00
  -2.520  0.000E+00  0.000E+00
  -2.510  0.000E+00  0.000E+00
  -2.500  0.000E+00  0.000E+00
  -2.490  0.000E+00  0.000E+00
  -2.480  0.000E+00  0.000E+00
  -2.470  0.000E+00  0.000E+00
  -2.460  0.000E+00  0.000E+00
  -2.450  0.000E+00  0.000E+00
  -2.440  0.000E+00  0.000E+00
  -2.430  0.000E+00  0.000E+00
  -2.420  0.000E+00  0.000E+00
  -2.410  0.000E+00  0.000E+00
  -2.400  0.000E+00  0.000E+00
  -2.390  0.000E+00  0.000E+00
  -2.380  0.000E+00  0.000E+00
  -2.370  0.000E+00  0.000E+00
  -2.360  0.000E+00  0.000E+00
  -2.350  0.000E+00  0.000E+00
  -2.340  0.000E+00  0.000E+00
  -2.330  0.000E+00  0.000E+00
  -2.320  0.000E+00  0.000E+00
  -2.310  0.000E+00  0.000E+00
  -2.300  0.000E+00  0.000E+00
  -2.290  0.000E+00  0.000E+00
  -2.280  0.000E+00  0.000E+00
  -2.270  0.000E+00  0.000E+00
  -2.260  0.000E+00  0.000E+00
  -2.250  0.000E+00  0.000E+00
  -2.240  0.000E+00  0.000E+00
  -2.230  0.000E+00  0.000E+00
  -2.220  0.000E+00  0.000E+00
  -2.210  0.000E+00  0.000E+00
  -2.200  0.000E+00  0.000E+00
  -2.190  0.000E+00  0.000E+00
  -2.180  0.000E+00  0.000E+00
  -2.170  0.000E+00  0.000E+00
  -2.160  0.000E+00  0.000E+00
  -2.150  0.000E+00  0.000E+00
  -2.140  0.000E+00  0.000E+00
  -2.130  0.000E+00  0.000E+00
  -2.120  0.000E+00  0.000E+00
  -2.110  0.000E+00  0.000E+00
  -2.100  0.000E+00  0.000E+00
  -2.090  0.000E+00  0.000E+00
  -2.080  0.000E+00  0.000E+00
  -2.070  0.000E+00  0.000E+00
  -2.060  0.000E+00  0.000E+00
  -2.050  0.000E+00  0.000E+00
  -2.040  0.000E+00  0.000E+00
  -2.030  0.000E+00  0.000E+00
  -2.020  0.000E+00  0.000E+00
  -2.010  0.000E+00  0.000E+00
  -2.000  0.000E+00  0.000E+00
  -1.990  0.000E+00  0.000E+00
  -1.980  0.000E+00  0.000E+00
  -1.970  0.000E+00  0.000E+00
  -1.960  0.000E+00  0.000E+00
  -1.950  0.000E+00  0.000E+00
  -1.940  0.000E+00  0.000E+00
  -1.930  0.000E+00  0.000E+00
  -1.920  0.000E+00  0.000E+00
  -1.910  0.000E+00  0.000E+00
  -1.900  0.000E+00  0.000E+00
  -1.890  0.000E+00  0.000E+00
  -1.880  0.000E+00  0.000E+00
  -1.870  0.000E+00  0.000E+00
  -1.860  0.000E+00  0.000E+00
  -1.850  0.000E+00  0.000E+00
  -1.840  0.000E+00  0.000E+00
  -1.830  0.000E+00  0.000E+00
  -1.820  0.000E+00  0.000E+00
  -1.810  0.000E+00  0.000E+00
  -1.800  0.000E+00  0.000E+00
  -1.790  0.000E+00  0.000E+00
  -1.780  0.000E+00  0.000E+00
  -1.770  0.000E+00  0.000E+00
  -1.760  0.000E+00  0.000E+00
  -1.750  0.000E+00  0.000E+00
  -1.740  0.000E+00  0.000E+00
  -1.730  0.000E+00  0.000E+00
  -1.720  0.000E+00  0.000E+00
  -1.710  0.000E+00  0.000E+00
  -1.700  0.000E+00  0.000E+00
  -1.690  0.000E+00  0.000E+00
  -1.680  0.000E+00  0.000E+00
  -1.670  0.000E+00  0.000E+00
  -1.660  0.000E+00  0.000E+00
  -1.650  0.000E+00  0.000E+00
  -1.640  0.000E+00  0.000E+00
  -1.630  0.000E+00  0.000E+00
  -1.620  0.000E+00  0.000E+00
  -1.610  0.000E+00  0.000E+00
  -1.600  0.000E+00  0.000E+00
  -1.590  0.000E+00  0.000E+00
  -1.580  0.000E+00  0.000E+00
  -1.570  0.000E+00  0.000E+00
  -1.560  0.000E+00  0.000E+00
  -1.550  0.000E+00  0.000E+00
  -1.540  0.000E+00  0.000E+00
  -1.530  0.000E+00  0.000E+00
  -1.520  0.000E+00  0.000E+00
  -1.510  0.000E+00  0.000E+00
  -1.500  0.000E+00  0.000E+00
  -1.490  0.000E+00  0.000E+00
  -1.480  0.000E+00  0.000E+00
  -1.470  0.000E+00  0.000E+00
  -1.460  0.000E+00  0.000E+00
  -1.450  0.000E+00  0.000E+00
  -1.440  0.000E+00  0.000E+00
  -1.430  0.000E+00  0.000E+00
  -1.420  0.000E+00  0.000E+00
  -1.410  0.000E+00  0.000E+00
  -1.400  0.000E+00  0.000E+00
  -1.390  0.000E+00  0.000E+00
  -1.380  0.000E+00  0.000E+00
  -1.370  0.000E+00  0.000E+00
  -1.360  0.000E+00  0.000E+00
  -1.350  0.000E+00  0.000E+00
  -1.340  0.000E+00  0.000E+00
  -1.330  0.000E+00  0.000E+00
  -1.320  0.000E+00  0.000E+00
  -1.310  0.000E+00  0.000E+00
  -1.300  0.000E+00  0.000E+00
  -1.290  0.000E+00  0.000E+00
  -1.280  0.000E+00  0.000E+00
  -1.270  0.000E+00  0.000E+00
  -1.260  0.000E+00  0.000E+00
  -1.250  0.000E+00  0.000E+00
  -1.240  0.000E+00  0.000E+00
  -1.230  0.000E+00  0.000E+00
  -1.220  0.000E+00  0.000E+00
  -1.210  0.000E+00  0.000E+00
  -1.200  0.000E+00  0.000E+00
  -1.190  0.000E+00  0.000E+00
  -1.180  0.000E+00  0.000E+00
  -1.170  0.000E+00  0.000E+00
  -1.160  0.000E+00  0.000E+00
  -1.150  0.000E+00  0.000E+00
  -1.140  0.000E+00  0.000E+00
  -1.130  0.000E+00  0.000E+00
  -1.120  0.000E+00  0.000E+00
  -1.110  0.000E+00  0.000E+00
  -1.100  0.000E+00  0.000E+00
  -1.090  0.000E+00  0.000E+00
  -1.080  0.000E+00  0.000E+00
  -1.070  0.000E+00  0.000E+00
  -1.060  0.000E+00  0.000E+00
  -1.050  0.000E+00  0.000E+00
  -1.040  0.000E+00  0.000E+00
  -1.030  0.000E+00  0.000E+00
  -1.020  0.000E+00  0.000E+00
  -1.010  0.000E+00  0.000E+00
  -1.000  0.000E+00  0.000E+00
  -0.990  0.000E+00  0.000E+00
  -0.980  0.000E+00  0.000E+00
  -0.970  0.000E+00  0.000E+00
  -0.960  0.000E+00  0.000E+00
  -0.950  0.000E+00  0.000E+00
  -0.940  0.000E+00  0.000E+00
  -0.930  0.000E+00  0.000E+00
  -0.920  0.000E+00  0.000E+00
  -0.910  0.000E+00  0.000E+00
  -0.900  0.000E+00  0.000E+00
  -0.890  0.000E+00  0.000E+00
  -0.880  0.000E+00  0.000E+00
  -0.870  0.000E+00  0.000E+00
  -0.860  0.000E+00  0.000E+00
  -0.850  0.000E+00  0.000E+00
  -0.840  0.000E+00  0.000E+00
  -0.830  0.000E+00  0.000E+00
  -0.820  0.000E+00  0.000E+00
  -0.810  0.000E+00  0.000E+00
  -0.800  0.000E+00  0.000E+00
  -0.790  0.000E+00  0.000E+00
  -0.780  0.000E+00  0.000E+00
  -0.770  0.000E+00  0.000E+00
  -0.760  0.000E+00  0.000E+00
  -0.750  0.000E+00  0.000E+00
  -0.740  0.000E+00  0.000E+00
  -0.730  0.000E+00  0.000E+00
  -0.720  0.000E+00  0.000E+00
  -0.710  0.000E+00  0.000E+00
  -0.700  0.000E+00  0.000E+00
  -0.690  0.000E+00  0.000E+00
  -0.680  0.000E+00  0.000E+00
  -0.670  0.000E+00  0.000E+00
  -0.660  0.000E+00  0.000E+00
  -0.650  0.000E+00  0.000E+00
  -0.640  0.000E+00  0.000E+00
  -0.630  0.000E+00  0.000E+00
  -0.620  0.000E+00  0.000E+00
  -0.610  0.000E+00  0.000E+00
  -0.600  0.000E+00  0.000E+00
  -0.590  0.000E+00  0.000E+00
  -0.580  0.000E+00  0.000E+00
  -0.570  0.000E+00  0.000E+00
  -0.560  0.000E+00  0.000E+00
  -0.550  0.000E+00  0.000E+00
  -0.540  0.000E+00  0.000E+00
  -0.530  0.000E+00  0.000E+00
  -0.520  0.000E+00  0.000E+00
  -0.510  0.000E+00  0.000E+00
  -0.500  0.000E+00  0.000E+00
  -0.490  0.000E+00  0.000E+00
  -0.480  0.000E+00  0.000E+00
  -0.470  0.000E+00  0.000E+00
  -0.460  0.000E+00  0.000E+00
  -0.450  0.000E+00  0.000E+00
  -0.440  0.000E+00  0.000E+00
  -0.430  0.000E+00  0.000E+00
  -0.420  0.000E+00  0.000E+00
  -0.410  0.000E+00  0.000E+00
  -0.400  0.000E+00  0.000E+00
  -0.390  0.000E+00  0.000E+00
  -0.380  0.000E+00  0.000E+00
  -0.370  0.000E+00  0.000E+00
  -0.360  0.000E+00  0.000E+00
  -0.350  0.000E+00  0.000E+00
  -0.340  0.000E+00  0.000E+00
  -0.330  0.000E+00  0.000E+00
  -0.320  0.000E+00  0.000E+00
  -0.310  0.000E+00  0.000E+00
  -0.300  0.000E+00  0.000E+00
  -0.290  0.000E+00  0.000E+00
  -0.280  0.000E+00  0.000E+00
  -0.270  0.000E+00  0.000E+00
  -0.260  0.000E+00  0.000E+00
  -0.250  0.000E+00  0.000E+00
  -0.240  0.000E+00  0.000E+00
  -0.230  0.000E+00  0.000E+00
  -0.220  0.000E+00  0.000E+00
  -0.210  0.000E+00  0.000E+00
  -0.200  0.000E+00  0.000E+00
  -0.190  0.000E+00  0.000E+00
  -0.180  0.000E+00  0.000E+00
  -0.170  0.000E+00  0.000E+00
  -0.160  0.000E+00  0.000E+00
  -0.150  0.000E+00  0.000E+00
  -0.140  0.000E+00  0.000E+00
  -0.130  0.000E+00  0.000E+00
  -0.120  0.000E+00  0.000E+00
  -0.110  0.000E+00  0.000E+00
  -0.100  0.000E+00  0.000E+00
  -0.090  0.000E+00  0.000E+00
  -0.080  0.000E+00  0.000E+00
  -0.070  0.000E+00  0.000E+00
  -0.060  0.000E+00  0.000E+00
  -0.050  0.000E+00  0.000E+00
  -0.040  0.000E+00  0.000E+00
  -0.030  0.000E+00  0.000E+00
  -0.020  0.000E+00  0.000E+00
  -0.010  0.000E+00  0.000E+00
   0.000  0.000E+00  0.000E+00
   0.010  0.000E+00  0.000E+00
   0.020  0.000E+00  0.000E+00
   0.030  0.000E+00  0.000E+00
   0.040  0.000E+00  0.000E+00
   0.050  0.000E+00  0.000E+00
   0.060  0.000E+00  0.000E+00
   0.070  0.000E+00  0.000E+00
   0.080  0.000E+00  0.000E+00
   0.090  0.000E+00  0.000E+00
   0.100  0.000E+00  0.000E+00
   0.110  0.000E+00  0.000E+00
   0.120  0.000E+00  0.000E+00
   0.130  0.000E+00  0.000E+00
   0.140  0.000E+00  0.000E+00
   0.150  0.000E+00  0.000E+00
   0.160  0.000E+00  0.000E+00
   0.170  0.000E+00  0.000E+00
   0.180  0.000E+00  0.000E+00
   0.190  0.000E+00  0.000E+00
   0.200  0.000E+00  0.000E+00
   0.210  0.000E+00  0.000E+00
   0.220  0.000E+00  0.000E+00
   0.230  0.000E+00  0.000E+00
   0.240  0.000E+00  0.000E+00
   0.250  0.000E+00  0.000E+00
   0.260  0.000E+00  0.000E+00
   0.270  0.000E+00  0.000E+00
   0.280  0.000E+00  0.000E+00
   0.290  0.000E+00  0.000E+00
   0.300  0.000E+00  0.000E+00
   0.310  0.000E+00  0.000E+00
   0.320  0.000E+00  0.000E+00
   0.330  0.000E+00  0.000E+00
   0.340  0.000E+00  0.000E+00
   0.350  0.000E+00  0.000E+00
   0.360  0.000E+00  0.000E+00
   0.370  0.000E+00  0.000E+00
   0.380  0.000E+00  0.000E+00
   0.390  0.000E+00  0.000E+00
   0.400  0.643E-17  0.643E-17
   0.410  0.562E-16  0.562E-16
   0.420  0.295E-15  0.295E-15
   0.430  0.148E-14  0.148E-14
   0.440  0.719E-14  0.719E-14
   0.450  0.332E-13  0.332E-13
   0.460  0.147E-12  0.147E-12
   0.470  0.623E-12  0.623E-12
   0.480  0.253E-11  0.253E-11
   0.490  0.986E-11  0.986E-11
   0.500  0.368E-10  0.368E-10
   0.510  0.131E-09  0.131E-09
   0.520  0.450E-09  0.450E-09
   0.530  0.147E-08  0.147E-08
   0.540  0.463E-08  0.463E-08
   0.550  0.139E-07  0.139E-07
   0.560  0.402E-07  0.402E-07
   0.570  0.111E-06  0.111E-06
   0.580  0.295E-06  0.295E-06
   0.590  0.748E-06  0.748E-06
   0.600  0.182E-05  0.182E-05
   0.610  0.424E-05  0.424E-05
   0.620  0.946E-05  0.946E-05
   0.630  0.203E-04  0.203E-04
   0.640  0.416E-04  0.416E-04
   0.650  0.819E-04  0.819E-04
   0.660  0.154E-03  0.154E-03
   0.670  0.280E-03  0.280E-03
   0.680  0.485E-03  0.485E-03
   0.690  0.809E-03  0.809E-03
   0.700  0.129E-02  0.129E-02
   0.710  0.199E-02  0.199E-02
   0.720  0.293E-02  0.293E-02
   0.730  0.416E-02  0.416E-02
   0.740  0.567E-02  0.567E-02
   0.750  0.745E-02  0.745E-02
   0.760  0.942E-02  0.942E-02
   0.770  0.115E-01  0.115E-01
   0.780  0.136E-01  0.136E-01
   0.790  0.155E-01  0.155E-01
   0.800  0.172E-01  0.172E-01
   0.810  0.186E-01  0.186E-01
   0.820  0.196E-01  0.196E-01
   0.830  0.203E-01  0.203E-01
   0.840  0.207E-01  0.207E-01
   0.850  0.207E-01  0.207E-01
   0.860  0.206E-01  0.206E-01
   0.870  0.205E-01  0.205E-01
   0.880  0.202E-01  0.202E-01
   0.890  0.201E-01  0.201E-01
   0.900  0.199E-01  0.199E-01
   0.910  0.198E-01  0.198E-01
   0.920  0.198E-01  0.198E-01
   0.930  0.198E-01  0.198E-01
   0.940  0.198E-01  0.198E-01
   0.950  0.197E-01  0.197E-01
   0.960  0.196E-01  0.196E-01
   0.970  0.195E-01  0.195E-01
   0.980  0.195E-01  0.195E-01
   0.990  0.196E-01  0.196E-01
   1.000  0.198E-01  0.198E-01
   1.010  0.201E-01  0.201E-01
   1.020  0.204E-01  0.204E-01
   1.030  0.205E-01  0.205E-01
   1.040  0.204E-01  0.204E-01
   1.050  0.202E-01  0.202E-01
   1.060  0.198E-01  0.198E-01
   1.070  0.194E-01  0.194E-01
   1.080  0.192E-01  0.192E-01
   1.090  0.192E-01  0.192E-01
   1.100  0.196E-01  0.196E-01
   1.110  0.202E-01  0.202E-01
   1.120  0.209E-01  0.209E-01
   1.130  0.215E-01  0.215E-01
   1.140  0.218E-01  0.218E-01
   1.150  0.218E-01  0.218E-01
   1.160  0.213E-01  0.213E-01
   1.170  0.204E-01  0.204E-01
   1.180  0.195E-01  0.195E-01
   1.190  0.187E-01  0.187E-01
   1.200  0.183E-01  0.183E-01
   1.210  0.184E-01  0.184E-01
   1.220  0.190E-01  0.190E-01
   1.230  0.200E-01  0.200E-01
   1.240  0.213E-01  0.213E-01
   1.250  0.225E-01  0.225E-01
   1.260  0.233E-01  0.233E-01
   1.270  0.236E-01  0.236E-01
   1.280  0.233E-01  0.233E-01
   1.290  0.224E-01  0.224E-01
   1.300  0.211E-01  0.211E-01
   1.310  0.197E-01  0.197E-01
   1.320  0.184E-01  0.184E-01
   1.330  0.175E-01  0.175E-01
   1.340  0.172E-01  0.172E-01
   1.350  0.175E-01  0.175E-01
   1.360  0.185E-01  0.185E-01
   1.370  0.200E-01  0.200E-01
   1.380  0.217E-01  0.217E-01
   1.390  0.234E-01  0.234E-01
   1.400  0.247E-01  0.247E-01
   1.410  0.255E-01  0.255E-01
   1.420  0.254E-01  0.254E-01
   1.430  0.246E-01  0.246E-01
   1.440  0.231E-01  0.231E-01
   1.450  0.213E-01  0.213E-01
   1.460  0.193E-01  0.193E-01
   1.470  0.177E-01  0.177E-01
   1.480  0.165E-01  0.165E-01
   1.490  0.160E-01  0.160E-01
   1.500  0.163E-01  0.163E-01
   1.510  0.173E-01  0.173E-01
   1.520  0.188E-01  0.188E-01
   1.530  0.206E-01  0.206E-01
   1.540  0.225E-01  0.225E-01
   1.550  0.243E-01  0.243E-01
   1.560  0.258E-01  0.258E-01
   1.570  0.267E-01  0.267E-01
   1.580  0.269E-01  0.269E-01
   1.590  0.264E-01  0.264E-01
   1.600  0.251E-01  0.251E-01
   1.610  0.233E-01  0.233E-01
   1.620  0.211E-01  0.211E-01
   1.630  0.189E-01  0.189E-01
   1.640  0.169E-01  0.169E-01
   1.650  0.154E-01  0.154E-01
   1.660  0.147E-01  0.147E-01
   1.670  0.149E-01  0.149E-01
   1.680  0.158E-01  0.158E-01
   1.690  0.175E-01  0.175E-01
   1.700  0.197E-01  0.197E-01
   1.710  0.221E-01  0.221E-01
   1.720  0.243E-01  0.243E-01
   1.730  0.262E-01  0.262E-01
   1.740  0.274E-01  0.274E-01
   1.750  0.280E-01  0.280E-01
   1.760  0.278E-01  0.278E-01
   1.770  0.270E-01  0.270E-01
   1.780  0.257E-01  0.257E-01
   1.790  0.240E-01  0.240E-01
   1.800  0.221E-01  0.221E-01
   1.810  0.202E-01  0.202E-01
   1.820  0.183E-01  0.183E-01
   1.830  0.167E-01  0.167E-01
   1.840  0.154E-01  0.154E-01
   1.850  0.145E-01  0.145E-01
   1.860  0.142E-01  0.142E-01
   1.870  0.147E-01  0.147E-01
   1.880  0.159E-01  0.159E-01
   1.890  0.179E-01  0.179E-01
   1.900  0.204E-01  0.204E-01
   1.910  0.233E-01  0.233E-01
   1.920  0.260E-01  0.260E-01
   1.930  0.283E-01  0.283E-01
   1.940  0.298E-01  0.298E-01
   1.950  0.302E-01  0.302E-01
   1.960  0.296E-01  0.296E-01
   1.970  0.281E-01  0.281E-01
   1.980  0.260E-01  0.260E-01
   1.990  0.236E-01  0.236E-01
   2.000  0.213E-01  0.213E-01
   2.010  0.193E-01  0.193E-01
   2.020  0.177E-01  0.177E-01
   2.030  0.166E-01  0.166E-01
   2.040  0.158E-01  0.158E-01
   2.050  0.154E-01  0.154E-01
   2.060  0.152E-01  0.152E-01
   2.070  0.152E-01  0.152E-01
   2.080  0.156E-01  0.156E-01
   2.090  0.163E-01  0.163E-01
   2.100  0.174E-01  0.174E-01
   2.110  0.191E-01  0.191E-01
   2.120  0.213E-01  0.213E-01
   2.130  0.238E-01  0.238E-01
   2.140  0.265E-01  0.265E-01
   2.150  0.289E-01  0.289E-01
   2.160  0.307E-01  0.307E-01
   2.170  0.315E-01  0.315E-01
   2.180  0.312E-01  0.312E-01
   2.190  0.298E-01  0.298E-01
   2.200  0.275E-01  0.275E-01
   2.210  0.246E-01  0.246E-01
   2.220  0.216E-01  0.216E-01
   2.230  0.188E-01  0.188E-01
   2.240  0.165E-01  0.165E-01
   2.250  0.149E-01  0.149E-01
   2.260  0.140E-01  0.140E-01
   2.270  0.138E-01  0.138E-01
   2.280  0.140E-01  0.140E-01
   2.290  0.146E-01  0.146E-01
   2.300  0.155E-01  0.155E-01
   2.310  0.166E-01  0.166E-01
   2.320  0.178E-01  0.178E-01
   2.330  0.192E-01  0.192E-01
   2.340  0.207E-01  0.207E-01
   2.350  0.223E-01  0.223E-01
   2.360  0.240E-01  0.240E-01
   2.370  0.256E-01  0.256E-01
   2.380  0.272E-01  0.272E-01
   2.390  0.285E-01  0.285E-01
   2.400  0.295E-01  0.295E-01
   2.410  0.300E-01  0.300E-01
   2.420  0.298E-01  0.298E-01
   2.430  0.290E-01  0.290E-01
   2.440  0.275E-01  0.275E-01
   2.450  0.255E-01  0.255E-01
   2.460  0.230E-01  0.230E-01
   2.470  0.204E-01  0.204E-01
   2.480  0.178E-01  0.178E-01
   2.490  0.156E-01  0.156E-01
   2.500  0.139E-01  0.139E-01
   2.510  0.128E-01  0.128E-01
   2.520  0.123E-01  0.123E-01
   2.530  0.125E-01  0.125E-01
   2.540  0.132E-01  0.132E-01
   2.550  0.145E-01  0.145E-01
   2.560  0.162E-01  0.162E-01
   2.570  0.184E-01  0.184E-01
   2.580  0.210E-01  0.210E-01
   2.590  0.237E-01  0.237E-01
   2.600  0.265E-01  0.265E-01
   2.610  0.290E-01  0.290E-01
   2.620  0.310E-01  0.310E-01
   2.630  0.324E-01  0.324E-01
   2.640  0.329E-01  0.329E-01
   2.650  0.328E-01  0.328E-01
   2.660  0.320E-01  0.320E-01
   2.670  0.308E-01  0.308E-01
   2.680  0.295E-01  0.295E-01
   2.690  0.282E-01  0.282E-01
   2.700  0.271E-01  0.271E-01
   2.710  0.261E-01  0.261E-01
   2.720  0.251E-01  0.251E-01
   2.730  0.241E-01  0.241E-01
   2.740  0.228E-01  0.228E-01
   2.750  0.213E-01  0.213E-01
   2.760  0.197E-01  0.197E-01
   2.770  0.181E-01  0.181E-01
   2.780  0.167E-01  0.167E-01
   2.790  0.156E-01  0.156E-01
   2.800  0.151E-01  0.151E-01
   2.810  0.152E-01  0.152E-01
   2.820  0.159E-01  0.159E-01
   2.830  0.173E-01  0.173E-01
   2.840  0.192E-01  0.192E-01
   2.850  0.216E-01  0.216E-01
   2.860  0.245E-01  0.245E-01
   2.870  0.275E-01  0.275E-01
   2.880  0.306E-01  0.306E-01
   2.890  0.332E-01  0.332E-01
   2.900  0.352E-01  0.352E-01
   2.910  0.362E-01  0.362E-01
   2.920  0.360E-01  0.360E-01
   2.930  0.348E-01  0.348E-01
   2.940  0.326E-01  0.326E-01
   2.950  0.298E-01  0.298E-01
   2.960  0.269E-01  0.269E-01
   2.970  0.242E-01  0.242E-01
   2.980  0.221E-01  0.221E-01
   2.990  0.208E-01  0.208E-01
   3.000  0.202E-01  0.202E-01
   3.010  0.202E-01  0.202E-01
   3.020  0.205E-01  0.205E-01
   3.030  0.209E-01  0.209E-01
   3.040  0.210E-01  0.210E-01
   3.050  0.208E-01  0.208E-01
   3.060  0.201E-01  0.201E-01
   3.070  0.191E-01  0.191E-01
   3.080  0.180E-01  0.180E-01
   3.090  0.171E-01  0.171E-01
   3.100  0.166E-01  0.166E-01
   3.110  0.166E-01  0.166E-01
   3.120  0.173E-01  0.173E-01
   3.130  0.186E-01  0.186E-01
   3.140  0.205E-01  0.205E-01
   3.150  0.230E-01  0.230E-01
   3.160  0.258E-01  0.258E-01
   3.170  0.288E-01  0.288E-01
   3.180  0.317E-01  0.317E-01
   3.190  0.343E-01  0.343E-01
   3.200  0.362E-01  0.362E-01
   3.210  0.372E-01  0.372E-01
   3.220  0.371E-01  0.371E-01
   3.230  0.358E-01  0.358E-01
   3.240  0.335E-01  0.335E-01
   3.250  0.304E-01  0.304E-01
   3.260  0.269E-01  0.269E-01
   3.270  0.233E-01  0.233E-01
   3.280  0.201E-01  0.201E-01
   3.290  0.176E-01  0.176E-01
   3.300  0.159E-01  0.159E-01
   3.310  0.153E-01  0.153E-01
   3.320  0.156E-01  0.156E-01
   3.330  0.166E-01  0.166E-01
   3.340  0.180E-01  0.180E-01
   3.350  0.195E-01  0.195E-01
   3.360  0.207E-01  0.207E-01
   3.370  0.213E-01  0.213E-01
   3.380  0.214E-01  0.214E-01
   3.390  0.209E-01  0.209E-01
   3.400  0.202E-01  0.202E-01
   3.410  0.195E-01  0.195E-01
   3.420  0.191E-01  0.191E-01
   3.430  0.193E-01  0.193E-01
   3.440  0.202E-01  0.202E-01
   3.450  0.218E-01  0.218E-01
   3.460  0.238E-01  0.238E-01
   3.470  0.260E-01  0.260E-01
   3.480  0.282E-01  0.282E-01
   3.490  0.302E-01  0.302E-01
   3.500  0.318E-01  0.318E-01
   3.510  0.329E-01  0.329E-01
   3.520  0.336E-01  0.336E-01
   3.530  0.338E-01  0.338E-01
   3.540  0.334E-01  0.334E-01
   3.550  0.326E-01  0.326E-01
   3.560  0.313E-01  0.313E-01
   3.570  0.296E-01  0.296E-01
   3.580  0.274E-01  0.274E-01
   3.590  0.250E-01  0.250E-01
   3.600  0.224E-01  0.224E-01
   3.610  0.198E-01  0.198E-01
   3.620  0.174E-01  0.174E-01
   3.630  0.154E-01  0.154E-01
   3.640  0.140E-01  0.140E-01
   3.650  0.134E-01  0.134E-01
   3.660  0.135E-01  0.135E-01
   3.670  0.144E-01  0.144E-01
   3.680  0.157E-01  0.157E-01
   3.690  0.173E-01  0.173E-01
   3.700  0.189E-01  0.189E-01
   3.710  0.203E-01  0.203E-01
   3.720  0.213E-01  0.213E-01
   3.730  0.220E-01  0.220E-01
   3.740  0.224E-01  0.224E-01
   3.750  0.229E-01  0.229E-01
   3.760  0.236E-01  0.236E-01
   3.770  0.246E-01  0.246E-01
   3.780  0.260E-01  0.260E-01
   3.790  0.277E-01  0.277E-01
   3.800  0.294E-01  0.294E-01
   3.810  0.308E-01  0.308E-01
   3.820  0.317E-01  0.317E-01
   3.830  0.318E-01  0.318E-01
   3.840  0.313E-01  0.313E-01
   3.850  0.304E-01  0.304E-01
   3.860  0.291E-01  0.291E-01
   3.870  0.279E-01  0.279E-01
   3.880  0.268E-01  0.268E-01
   3.890  0.260E-01  0.260E-01
   3.900  0.254E-01  0.254E-01
   3.910  0.249E-01  0.249E-01
   3.920  0.244E-01  0.244E-01
   3.930  0.238E-01  0.238E-01
   3.940  0.229E-01  0.229E-01
   3.950  0.216E-01  0.216E-01
   3.960  0.202E-01  0.202E-01
   3.970  0.186E-01  0.186E-01
   3.980  0.171E-01  0.171E-01
   3.990  0.157E-01  0.157E-01
   4.000  0.148E-01  0.148E-01
   4.010  0.143E-01  0.143E-01
   4.020  0.145E-01  0.145E-01
   4.030  0.153E-01  0.153E-01
   4.040  0.166E-01  0.166E-01
   4.050  0.183E-01  0.183E-01
   4.060  0.200E-01  0.200E-01
   4.070  0.217E-01  0.217E-01
   4.080  0.231E-01  0.231E-01
   4.090  0.242E-01  0.242E-01
   4.100  0.251E-01  0.251E-01
   4.110  0.258E-01  0.258E-01
   4.120  0.267E-01  0.267E-01
   4.130  0.276E-01  0.276E-01
   4.140  0.288E-01  0.288E-01
   4.150  0.299E-01  0.299E-01
   4.160  0.309E-01  0.309E-01
   4.170  0.314E-01  0.314E-01
   4.180  0.314E-01  0.314E-01
   4.190  0.307E-01  0.307E-01
   4.200  0.295E-01  0.295E-01
   4.210  0.280E-01  0.280E-01
   4.220  0.265E-01  0.265E-01
   4.230  0.252E-01  0.252E-01
   4.240  0.243E-01  0.243E-01
   4.250  0.240E-01  0.240E-01
   4.260  0.240E-01  0.240E-01
   4.270  0.242E-01  0.242E-01
   4.280  0.244E-01  0.244E-01
   4.290  0.243E-01  0.243E-01
   4.300  0.238E-01  0.238E-01
   4.310  0.228E-01  0.228E-01
   4.320  0.213E-01  0.213E-01
   4.330  0.195E-01  0.195E-01
   4.340  0.174E-01  0.174E-01
   4.350  0.153E-01  0.153E-01
   4.360  0.134E-01  0.134E-01
   4.370  0.120E-01  0.120E-01
   4.380  0.114E-01  0.114E-01
   4.390  0.116E-01  0.116E-01
   4.400  0.128E-01  0.128E-01
   4.410  0.149E-01  0.149E-01
   4.420  0.178E-01  0.178E-01
   4.430  0.212E-01  0.212E-01
   4.440  0.246E-01  0.246E-01
   4.450  0.278E-01  0.278E-01
   4.460  0.304E-01  0.304E-01
   4.470  0.322E-01  0.322E-01
   4.480  0.333E-01  0.333E-01
   4.490  0.336E-01  0.336E-01
   4.500  0.334E-01  0.334E-01
   4.510  0.328E-01  0.328E-01
   4.520  0.320E-01  0.320E-01
   4.530  0.312E-01  0.312E-01
   4.540  0.302E-01  0.302E-01
   4.550  0.292E-01  0.292E-01
   4.560  0.280E-01  0.280E-01
   4.570  0.266E-01  0.266E-01
   4.580  0.252E-01  0.252E-01
   4.590  0.237E-01  0.237E-01
   4.600  0.224E-01  0.224E-01
   4.610  0.215E-01  0.215E-01
   4.620  0.209E-01  0.209E-01
   4.630  0.208E-01  0.208E-01
   4.640  0.212E-01  0.212E-01
   4.650  0.217E-01  0.217E-01
   4.660  0.224E-01  0.224E-01
   4.670  0.228E-01  0.228E-01
   4.680  0.230E-01  0.230E-01
   4.690  0.228E-01  0.228E-01
   4.700  0.222E-01  0.222E-01
   4.710  0.212E-01  0.212E-01
   4.720  0.200E-01  0.200E-01
   4.730  0.186E-01  0.186E-01
   4.740  0.173E-01  0.173E-01
   4.750  0.163E-01  0.163E-01
   4.760  0.156E-01  0.156E-01
   4.770  0.155E-01  0.155E-01
   4.780  0.161E-01  0.161E-01
   4.790  0.176E-01  0.176E-01
   4.800  0.198E-01  0.198E-01
   4.810  0.226E-01  0.226E-01
   4.820  0.258E-01  0.258E-01
   4.830  0.289E-01  0.289E-01
   4.840  0.316E-01  0.316E-01
   4.850  0.335E-01  0.335E-01
   4.860  0.346E-01  0.346E-01
   4.870  0.347E-01  0.347E-01
   4.880  0.341E-01  0.341E-01
   4.890  0.329E-01  0.329E-01
   4.900  0.314E-01  0.314E-01
   4.910  0.298E-01  0.298E-01
   4.920  0.284E-01  0.284E-01
   4.930  0.273E-01  0.273E-01
   4.940  0.263E-01  0.263E-01
   4.950  0.255E-01  0.255E-01
   4.960  0.249E-01  0.249E-01
   4.970  0.243E-01  0.243E-01
   4.980  0.239E-01  0.239E-01
   4.990  0.236E-01  0.236E-01
   5.000  0.236E-01  0.236E-01
   5.010  0.239E-01  0.239E-01
   5.020  0.245E-01  0.245E-01
   5.030  0.253E-01  0.253E-01
   5.040  0.261E-01  0.261E-01
   5.050  0.268E-01  0.268E-01
   5.060  0.270E-01  0.270E-01
   5.070  0.267E-01  0.267E-01
   5.080  0.259E-01  0.259E-01
   5.090  0.244E-01  0.244E-01
   5.100  0.226E-01  0.226E-01
   5.110  0.206E-01  0.206E-01
   5.120  0.187E-01  0.187E-01
   5.130  0.171E-01  0.171E-01
   5.140  0.161E-01  0.161E-01
   5.150  0.159E-01  0.159E-01
   5.160  0.166E-01  0.166E-01
   5.170  0.181E-01  0.181E-01
   5.180  0.204E-01  0.204E-01
   5.190  0.233E-01  0.233E-01
   5.200  0.265E-01  0.265E-01
   5.210  0.297E-01  0.297E-01
   5.220  0.325E-01  0.325E-01
   5.230  0.345E-01  0.345E-01
   5.240  0.355E-01  0.355E-01
   5.250  0.356E-01  0.356E-01
   5.260  0.349E-01  0.349E-01
   5.270  0.338E-01  0.338E-01
   5.280  0.325E-01  0.325E-01
   5.290  0.314E-01  0.314E-01
   5.300  0.309E-01  0.309E-01
   5.310  0.308E-01  0.308E-01
   5.320  0.312E-01  0.312E-01
   5.330  0.319E-01  0.319E-01
   5.340  0.324E-01  0.324E-01
   5.350  0.328E-01  0.328E-01
   5.360  0.327E-01  0.327E-01
   5.370  0.323E-01  0.323E-01
   5.380  0.317E-01  0.317E-01
   5.390  0.309E-01  0.309E-01
   5.400  0.302E-01  0.302E-01
   5.410  0.296E-01  0.296E-01
   5.420  0.291E-01  0.291E-01
   5.430  0.287E-01  0.287E-01
   5.440  0.281E-01  0.281E-01
   5.450  0.274E-01  0.274E-01
   5.460  0.264E-01  0.264E-01
   5.470  0.253E-01  0.253E-01
   5.480  0.242E-01  0.242E-01
   5.490  0.234E-01  0.234E-01
   5.500  0.231E-01  0.231E-01
   5.510  0.235E-01  0.235E-01
   5.520  0.245E-01  0.245E-01
   5.530  0.260E-01  0.260E-01
   5.540  0.275E-01  0.275E-01
   5.550  0.289E-01  0.289E-01
   5.560  0.298E-01  0.298E-01
   5.570  0.301E-01  0.301E-01
   5.580  0.299E-01  0.299E-01
   5.590  0.296E-01  0.296E-01
   5.600  0.295E-01  0.295E-01
   5.610  0.300E-01  0.300E-01
   5.620  0.312E-01  0.312E-01
   5.630  0.334E-01  0.334E-01
   5.640  0.363E-01  0.363E-01
   5.650  0.396E-01  0.396E-01
   5.660  0.430E-01  0.430E-01
   5.670  0.461E-01  0.461E-01
   5.680  0.483E-01  0.483E-01
   5.690  0.496E-01  0.496E-01
   5.700  0.498E-01  0.498E-01
   5.710  0.490E-01  0.490E-01
   5.720  0.474E-01  0.474E-01
   5.730  0.456E-01  0.456E-01
   5.740  0.437E-01  0.437E-01
   5.750  0.422E-01  0.422E-01
   5.760  0.411E-01  0.411E-01
   5.770  0.406E-01  0.406E-01
   5.780  0.404E-01  0.404E-01
   5.790  0.406E-01  0.406E-01
   5.800  0.407E-01  0.407E-01
   5.810  0.406E-01  0.406E-01
   5.820  0.402E-01  0.402E-01
   5.830  0.393E-01  0.393E-01
   5.840  0.380E-01  0.380E-01
   5.850  0.365E-01  0.365E-01
   5.860  0.349E-01  0.349E-01
   5.870  0.336E-01  0.336E-01
   5.880  0.328E-01  0.328E-01
   5.890  0.328E-01  0.328E-01
   5.900  0.339E-01  0.339E-01
   5.910  0.363E-01  0.363E-01
   5.920  0.402E-01  0.402E-01
   5.930  0.457E-01  0.457E-01
   5.940  0.528E-01  0.528E-01
   5.950  0.612E-01  0.612E-01
   5.960  0.704E-01  0.704E-01
   5.970  0.795E-01  0.795E-01
   5.980  0.875E-01  0.875E-01
   5.990  0.933E-01  0.933E-01
   6.000  0.963E-01  0.963E-01
   6.010  0.959E-01  0.959E-01
   6.020  0.924E-01  0.924E-01
   6.030  0.868E-01  0.868E-01
   6.040  0.804E-01  0.804E-01
   6.050  0.748E-01  0.748E-01
   6.060  0.712E-01  0.712E-01
   6.070  0.706E-01  0.706E-01
   6.080  0.733E-01  0.733E-01
   6.090  0.786E-01  0.786E-01
   6.100  0.857E-01  0.857E-01
   6.110  0.931E-01  0.931E-01
   6.120  0.996E-01  0.996E-01
   6.130  0.104E+00  0.104E+00
   6.140  0.106E+00  0.106E+00
   6.150  0.106E+00  0.106E+00
   6.160  0.103E+00  0.103E+00
   6.170  0.997E-01  0.997E-01
   6.180  0.960E-01  0.960E-01
   6.190  0.929E-01  0.929E-01
   6.200  0.909E-01  0.909E-01
   6.210  0.900E-01  0.900E-01
   6.220  0.898E-01  0.898E-01
   6.230  0.899E-01  0.899E-01
   6.240  0.894E-01  0.894E-01
   6.250  0.879E-01  0.879E-01
   6.260  0.850E-01  0.850E-01
   6.270  0.807E-01  0.807E-01
   6.280  0.754E-01  0.754E-01
   6.290  0.695E-01  0.695E-01
   6.300  0.638E-01  0.638E-01
   6.310  0.586E-01  0.586E-01
   6.320  0.543E-01  0.543E-01
   6.330  0.510E-01  0.510E-01
   6.340  0.487E-01  0.487E-01
   6.350  0.470E-01  0.470E-01
   6.360  0.458E-01  0.458E-01
   6.370  0.447E-01  0.447E-01
   6.380  0.434E-01  0.434E-01
   6.390  0.418E-01  0.418E-01
   6.400  0.400E-01  0.400E-01
   6.410  0.379E-01  0.379E-01
   6.420  0.361E-01  0.361E-01
   6.430  0.346E-01  0.346E-01
   6.440  0.338E-01  0.338E-01
   6.450  0.337E-01  0.337E-01
   6.460  0.343E-01  0.343E-01
   6.470  0.356E-01  0.356E-01
   6.480  0.373E-01  0.373E-01
   6.490  0.394E-01  0.394E-01
   6.500  0.419E-01  0.419E-01
   6.510  0.449E-01  0.449E-01
   6.520  0.488E-01  0.488E-01
   6.530  0.535E-01  0.535E-01
   6.540  0.591E-01  0.591E-01
   6.550  0.652E-01  0.652E-01
   6.560  0.712E-01  0.712E-01
   6.570  0.764E-01  0.764E-01
   6.580  0.801E-01  0.801E-01
   6.590  0.816E-01  0.816E-01
   6.600  0.806E-01  0.806E-01
   6.610  0.773E-01  0.773E-01
   6.620  0.720E-01  0.720E-01
   6.630  0.653E-01  0.653E-01
   6.640  0.579E-01  0.579E-01
   6.650  0.504E-01  0.504E-01
   6.660  0.433E-01  0.433E-01
   6.670  0.369E-01  0.369E-01
   6.680  0.315E-01  0.315E-01
   6.690  0.273E-01  0.273E-01
   6.700  0.245E-01  0.245E-01
   6.710  0.232E-01  0.232E-01
   6.720  0.235E-01  0.235E-01
   6.730  0.252E-01  0.252E-01
   6.740  0.280E-01  0.280E-01
   6.750  0.315E-01  0.315E-01
   6.760  0.352E-01  0.352E-01
   6.770  0.387E-01  0.387E-01
   6.780  0.419E-01  0.419E-01
   6.790  0.445E-01  0.445E-01
   6.800  0.469E-01  0.469E-01
   6.810  0.491E-01  0.491E-01
   6.820  0.512E-01  0.512E-01
   6.830  0.533E-01  0.533E-01
   6.840  0.552E-01  0.552E-01
   6.850  0.566E-01  0.566E-01
   6.860  0.572E-01  0.572E-01
   6.870  0.568E-01  0.568E-01
   6.880  0.553E-01  0.553E-01
   6.890  0.530E-01  0.530E-01
   6.900  0.502E-01  0.502E-01
   6.910  0.471E-01  0.471E-01
   6.920  0.443E-01  0.443E-01
   6.930  0.419E-01  0.419E-01
   6.940  0.402E-01  0.402E-01
   6.950  0.395E-01  0.395E-01
   6.960  0.399E-01  0.399E-01
   6.970  0.416E-01  0.416E-01
   6.980  0.448E-01  0.448E-01
   6.990  0.494E-01  0.494E-01
   7.000  0.554E-01  0.554E-01
   7.010  0.623E-01  0.623E-01
   7.020  0.696E-01  0.696E-01
   7.030  0.765E-01  0.765E-01
   7.040  0.821E-01  0.821E-01
   7.050  0.856E-01  0.856E-01
   7.060  0.865E-01  0.865E-01
   7.070  0.845E-01  0.845E-01
   7.080  0.797E-01  0.797E-01
   7.090  0.724E-01  0.724E-01
   7.100  0.634E-01  0.634E-01
   7.110  0.535E-01  0.535E-01
   7.120  0.436E-01  0.436E-01
   7.130  0.345E-01  0.345E-01
   7.140  0.266E-01  0.266E-01
   7.150  0.206E-01  0.206E-01
   7.160  0.167E-01  0.167E-01
   7.170  0.148E-01  0.148E-01
   7.180  0.150E-01  0.150E-01
   7.190  0.169E-01  0.169E-01
   7.200  0.203E-01  0.203E-01
   7.210  0.247E-01  0.247E-01
   7.220  0.296E-01  0.296E-01
   7.230  0.344E-01  0.344E-01
   7.240  0.387E-01  0.387E-01
   7.250  0.422E-01  0.422E-01
   7.260  0.446E-01  0.446E-01
   7.270  0.458E-01  0.458E-01
   7.280  0.458E-01  0.458E-01
   7.290  0.446E-01  0.446E-01
   7.300  0.426E-01  0.426E-01
   7.310  0.401E-01  0.401E-01
   7.320  0.375E-01  0.375E-01
   7.330  0.355E-01  0.355E-01
   7.340  0.346E-01  0.346E-01
   7.350  0.353E-01  0.353E-01
   7.360  0.381E-01  0.381E-01
   7.370  0.429E-01  0.429E-01
   7.380  0.495E-01  0.495E-01
   7.390  0.572E-01  0.572E-01
   7.400  0.649E-01  0.649E-01
   7.410  0.717E-01  0.717E-01
   7.420  0.765E-01  0.765E-01
   7.430  0.784E-01  0.784E-01
   7.440  0.770E-01  0.770E-01
   7.450  0.725E-01  0.725E-01
   7.460  0.654E-01  0.654E-01
   7.470  0.563E-01  0.563E-01
   7.480  0.462E-01  0.462E-01
   7.490  0.360E-01  0.360E-01
   7.500  0.265E-01  0.265E-01
   7.510  0.183E-01  0.183E-01
   7.520  0.118E-01  0.118E-01
   7.530  0.740E-02  0.740E-02
   7.540  0.506E-02  0.506E-02
   7.550  0.476E-02  0.476E-02
   7.560  0.627E-02  0.627E-02
   7.570  0.924E-02  0.924E-02
   7.580  0.132E-01  0.132E-01
   7.590  0.176E-01  0.176E-01
   7.600  0.220E-01  0.220E-01
   7.610  0.259E-01  0.259E-01
   7.620  0.291E-01  0.291E-01
   7.630  0.315E-01  0.315E-01
   7.640  0.331E-01  0.331E-01
   7.650  0.343E-01  0.343E-01
   7.660  0.351E-01  0.351E-01
   7.670  0.360E-01  0.360E-01
   7.680  0.371E-01  0.371E-01
   7.690  0.384E-01  0.384E-01
   7.700  0.399E-01  0.399E-01
   7.710  0.416E-01  0.416E-01
   7.720  0.432E-01  0.432E-01
   7.730  0.445E-01  0.445E-01
   7.740  0.452E-01  0.452E-01
   7.750  0.452E-01  0.452E-01
   7.760  0.443E-01  0.443E-01
   7.770  0.425E-01  0.425E-01
   7.780  0.401E-01  0.401E-01
   7.790  0.371E-01  0.371E-01
   7.800  0.340E-01  0.340E-01
   7.810  0.311E-01  0.311E-01
   7.820  0.286E-01  0.286E-01
   7.830  0.267E-01  0.267E-01
   7.840  0.254E-01  0.254E-01
   7.850  0.247E-01  0.247E-01
   7.860  0.244E-01  0.244E-01
   7.870  0.243E-01  0.243E-01
   7.880  0.242E-01  0.242E-01
   7.890  0.240E-01  0.240E-01
   7.900  0.237E-01  0.237E-01
   7.910  0.232E-01  0.232E-01
   7.920  0.228E-01  0.228E-01
   7.930  0.225E-01  0.225E-01
   7.940  0.225E-01  0.225E-01
   7.950  0.229E-01  0.229E-01
   7.960  0.237E-01  0.237E-01
   7.970  0.248E-01  0.248E-01
   7.980  0.262E-01  0.262E-01
   7.990  0.277E-01  0.277E-01
   8.000  0.292E-01  0.292E-01
   8.010  0.304E-01  0.304E-01
   8.020  0.313E-01  0.313E-01
   8.030  0.318E-01  0.318E-01
   8.040  0.319E-01  0.319E-01
   8.050  0.319E-01  0.319E-01
   8.060  0.317E-01  0.317E-01
   8.070  0.314E-01  0.314E-01
   8.080  0.310E-01  0.310E-01
   8.090  0.302E-01  0.302E-01
   8.100  0.290E-01  0.290E-01
   8.110  0.271E-01  0.271E-01
   8.120  0.246E-01  0.246E-01
   8.130  0.216E-01  0.216E-01
   8.140  0.183E-01  0.183E-01
   8.150  0.152E-01  0.152E-01
   8.160  0.126E-01  0.126E-01
   8.170  0.108E-01  0.108E-01
   8.180  0.997E-02  0.997E-02
   8.190  0.102E-01  0.102E-01
   8.200  0.114E-01  0.114E-01
   8.210  0.134E-01  0.134E-01
   8.220  0.160E-01  0.160E-01
   8.230  0.192E-01  0.192E-01
   8.240  0.228E-01  0.228E-01
   8.250  0.267E-01  0.267E-01
   8.260  0.305E-01  0.305E-01
   8.270  0.342E-01  0.342E-01
   8.280  0.373E-01  0.373E-01
   8.290  0.394E-01  0.394E-01
   8.300  0.403E-01  0.403E-01
   8.310  0.396E-01  0.396E-01
   8.320  0.374E-01  0.374E-01
   8.330  0.339E-01  0.339E-01
   8.340  0.296E-01  0.296E-01
   8.350  0.249E-01  0.249E-01
   8.360  0.205E-01  0.205E-01
   8.370  0.169E-01  0.169E-01
   8.380  0.143E-01  0.143E-01
   8.390  0.130E-01  0.130E-01
   8.400  0.127E-01  0.127E-01
   8.410  0.133E-01  0.133E-01
   8.420  0.144E-01  0.144E-01
   8.430  0.157E-01  0.157E-01
   8.440  0.169E-01  0.169E-01
   8.450  0.179E-01  0.179E-01
   8.460  0.184E-01  0.184E-01
   8.470  0.186E-01  0.186E-01
   8.480  0.185E-01  0.185E-01
   8.490  0.182E-01  0.182E-01
   8.500  0.177E-01  0.177E-01
   8.510  0.172E-01  0.172E-01
   8.520  0.168E-01  0.168E-01
   8.530  0.165E-01  0.165E-01
   8.540  0.166E-01  0.166E-01
   8.550  0.169E-01  0.169E-01
   8.560  0.177E-01  0.177E-01
   8.570  0.188E-01  0.188E-01
   8.580  0.202E-01  0.202E-01
   8.590  0.219E-01  0.219E-01
   8.600  0.236E-01  0.236E-01
   8.610  0.253E-01  0.253E-01
   8.620  0.267E-01  0.267E-01
   8.630  0.277E-01  0.277E-01
   8.640  0.280E-01  0.280E-01
   8.650  0.275E-01  0.275E-01
   8.660  0.262E-01  0.262E-01
   8.670  0.241E-01  0.241E-01
   8.680  0.215E-01  0.215E-01
   8.690  0.187E-01  0.187E-01
   8.700  0.159E-01  0.159E-01
   8.710  0.136E-01  0.136E-01
   8.720  0.119E-01  0.119E-01
   8.730  0.109E-01  0.109E-01
   8.740  0.105E-01  0.105E-01
   8.750  0.107E-01  0.107E-01
   8.760  0.110E-01  0.110E-01
   8.770  0.114E-01  0.114E-01
   8.780  0.116E-01  0.116E-01
   8.790  0.115E-01  0.115E-01
   8.800  0.112E-01  0.112E-01
   8.810  0.108E-01  0.108E-01
   8.820  0.104E-01  0.104E-01
   8.830  0.104E-01  0.104E-01
   8.840  0.107E-01  0.107E-01
   8.850  0.114E-01  0.114E-01
   8.860  0.124E-01  0.124E-01
   8.870  0.136E-01  0.136E-01
   8.880  0.147E-01  0.147E-01
   8.890  0.155E-01  0.155E-01
   8.900  0.160E-01  0.160E-01
   8.910  0.159E-01  0.159E-01
   8.920  0.155E-01  0.155E-01
   8.930  0.149E-01  0.149E-01
   8.940  0.144E-01  0.144E-01
   8.950  0.140E-01  0.140E-01
   8.960  0.140E-01  0.140E-01
   8.970  0.145E-01  0.145E-01
   8.980  0.152E-01  0.152E-01
   8.990  0.162E-01  0.162E-01
   9.000  0.173E-01  0.173E-01
   9.010  0.181E-01  0.181E-01
   9.020  0.186E-01  0.186E-01
   9.030  0.186E-01  0.186E-01
   9.040  0.181E-01  0.181E-01
   9.050  0.172E-01  0.172E-01
   9.060  0.160E-01  0.160E-01
   9.070  0.148E-01  0.148E-01
   9.080  0.136E-01  0.136E-01
   9.090  0.126E-01  0.126E-01
   9.100  0.116E-01  0.116E-01
   9.110  0.108E-01  0.108E-01
   9.120  0.100E-01  0.100E-01
   9.130  0.919E-02  0.919E-02
   9.140  0.835E-02  0.835E-02
   9.150  0.751E-02  0.751E-02
   9.160  0.672E-02  0.672E-02
   9.170  0.606E-02  0.606E-02
   9.180  0.555E-02  0.555E-02
   9.190  0.522E-02  0.522E-02
   9.200  0.507E-02  0.507E-02
   9.210  0.507E-02  0.507E-02
   9.220  0.523E-02  0.523E-02
   9.230  0.555E-02  0.555E-02
   9.240  0.604E-02  0.604E-02
   9.250  0.669E-02  0.669E-02
   9.260  0.751E-02  0.751E-02
   9.270  0.844E-02  0.844E-02
   9.280  0.946E-02  0.946E-02
   9.290  0.105E-01  0.105E-01
   9.300  0.115E-01  0.115E-01
   9.310  0.126E-01  0.126E-01
   9.320  0.136E-01  0.136E-01
   9.330  0.146E-01  0.146E-01
   9.340  0.155E-01  0.155E-01
   9.350  0.162E-01  0.162E-01
   9.360  0.166E-01  0.166E-01
   9.370  0.166E-01  0.166E-01
   9.380  0.161E-01  0.161E-01
   9.390  0.150E-01  0.150E-01
   9.400  0.134E-01  0.134E-01
   9.410  0.114E-01  0.114E-01
   9.420  0.933E-02  0.933E-02
   9.430  0.727E-02  0.727E-02
   9.440  0.543E-02  0.543E-02
   9.450  0.388E-02  0.388E-02
   9.460  0.268E-02  0.268E-02
   9.470  0.180E-02  0.180E-02
   9.480  0.120E-02  0.120E-02
   9.490  0.855E-03  0.855E-03
   9.500  0.746E-03  0.746E-03
   9.510  0.865E-03  0.865E-03
   9.520  0.121E-02  0.121E-02
   9.530  0.178E-02  0.178E-02
   9.540  0.255E-02  0.255E-02
   9.550  0.350E-02  0.350E-02
   9.560  0.458E-02  0.458E-02
   9.570  0.575E-02  0.575E-02
   9.580  0.699E-02  0.699E-02
   9.590  0.825E-02  0.825E-02
   9.600  0.947E-02  0.947E-02
   9.610  0.106E-01  0.106E-01
   9.620  0.115E-01  0.115E-01
   9.630  0.121E-01  0.121E-01
   9.640  0.123E-01  0.123E-01
   9.650  0.119E-01  0.119E-01
   9.660  0.110E-01  0.110E-01
   9.670  0.955E-02  0.955E-02
   9.680  0.778E-02  0.778E-02
   9.690  0.585E-02  0.585E-02
   9.700  0.399E-02  0.399E-02
   9.710  0.241E-02  0.241E-02
   9.720  0.124E-02  0.124E-02
   9.730  0.557E-03  0.557E-03
   9.740  0.335E-03  0.335E-03
   9.750  0.509E-03  0.509E-03
   9.760  0.981E-03  0.981E-03
   9.770  0.165E-02  0.165E-02
   9.780  0.244E-02  0.244E-02
   9.790  0.327E-02  0.327E-02
   9.800  0.411E-02  0.411E-02
   9.810  0.490E-02  0.490E-02
   9.820  0.561E-02  0.561E-02
   9.830  0.618E-02  0.618E-02
   9.840  0.658E-02  0.658E-02
   9.850  0.677E-02  0.677E-02
   9.860  0.677E-02  0.677E-02
   9.870  0.660E-02  0.660E-02
   9.880  0.631E-02  0.631E-02
   9.890  0.597E-02  0.597E-02
   9.900  0.563E-02  0.563E-02
   9.910  0.530E-02  0.530E-02
   9.920  0.499E-02  0.499E-02
   9.930  0.468E-02  0.468E-02
   9.940  0.435E-02  0.435E-02
   9.950  0.399E-02  0.399E-02
   9.960  0.360E-02  0.360E-02
   9.970  0.321E-02  0.321E-02
   9.980  0.284E-02  0.284E-02
   9.990  0.252E-02  0.252E-02
  10.000  0.226E-02  0.226E-02
  10.010  0.205E-02  0.205E-02
  10.020  0.188E-02  0.188E-02
  10.030  0.175E-02  0.175E-02
  10.040  0.166E-02  0.166E-02
  10.050  0.162E-02  0.162E-02
  10.060  0.166E-02  0.166E-02
  10.070  0.180E-02  0.180E-02
  10.080  0.203E-02  0.203E-02
  10.090  0.234E-02  0.234E-02
  10.100  0.268E-02  0.268E-02
  10.110  0.300E-02  0.300E-02
  10.120  0.325E-02  0.325E-02
  10.130  0.338E-02  0.338E-02
  10.140  0.337E-02  0.337E-02
  10.150  0.322E-02  0.322E-02
  10.160  0.296E-02  0.296E-02
  10.170  0.263E-02  0.263E-02
  10.180  0.229E-02  0.229E-02
  10.190  0.200E-02  0.200E-02
  10.200  0.178E-02  0.178E-02
  10.210  0.166E-02  0.166E-02
  10.220  0.163E-02  0.163E-02
  10.230  0.167E-02  0.167E-02
  10.240  0.176E-02  0.176E-02
  10.250  0.185E-02  0.185E-02
  10.260  0.192E-02  0.192E-02
  10.270  0.193E-02  0.193E-02
  10.280  0.188E-02  0.188E-02
  10.290  0.176E-02  0.176E-02
  10.300  0.159E-02  0.159E-02
  10.310  0.138E-02  0.138E-02
  10.320  0.116E-02  0.116E-02
  10.330  0.932E-03  0.932E-03
  10.340  0.729E-03  0.729E-03
  10.350  0.566E-03  0.566E-03
  10.360  0.455E-03  0.455E-03
  10.370  0.406E-03  0.406E-03
  10.380  0.423E-03  0.423E-03
  10.390  0.502E-03  0.502E-03
  10.400  0.634E-03  0.634E-03
  10.410  0.800E-03  0.800E-03
  10.420  0.974E-03  0.974E-03
  10.430  0.113E-02  0.113E-02
  10.440  0.124E-02  0.124E-02
  10.450  0.128E-02  0.128E-02
  10.460  0.124E-02  0.124E-02
  10.470  0.113E-02  0.113E-02
  10.480  0.955E-03  0.955E-03
  10.490  0.747E-03  0.747E-03
  10.500  0.531E-03  0.531E-03
  10.510  0.336E-03  0.336E-03
  10.520  0.180E-03  0.180E-03
  10.530  0.736E-04  0.736E-04
  10.540  0.172E-04  0.172E-04
  10.550  0.215E-05  0.215E-05
  10.560  0.153E-04  0.153E-04
  10.570  0.427E-04  0.427E-04
  10.580  0.725E-04  0.725E-04
  10.590  0.968E-04  0.968E-04
  10.600  0.112E-03  0.112E-03
  10.610  0.119E-03  0.119E-03
  10.620  0.120E-03  0.120E-03
  10.630  0.117E-03  0.117E-03
  10.640  0.113E-03  0.113E-03
  10.650  0.109E-03  0.109E-03
  10.660  0.104E-03  0.104E-03
  10.670  0.963E-04  0.963E-04
  10.680  0.861E-04  0.861E-04
  10.690  0.725E-04  0.725E-04
  10.700  0.562E-04  0.562E-04
  10.710  0.386E-04  0.386E-04
  10.720  0.216E-04  0.216E-04
  10.730  0.681E-05  0.681E-05
  10.740 -0.444E-05 -0.444E-05
  10.750 -0.117E-04 -0.117E-04
  10.760 -0.152E-04 -0.152E-04
  10.770 -0.158E-04 -0.158E-04
  10.780 -0.143E-04 -0.143E-04
  10.790 -0.118E-04 -0.118E-04
  10.800 -0.894E-05 -0.894E-05
  10.810 -0.635E-05 -0.635E-05
  10.820 -0.424E-05 -0.424E-05
  10.830 -0.267E-05 -0.267E-05
  10.840 -0.159E-05 -0.159E-05
  10.850 -0.899E-06 -0.899E-06
