# E (eV)   ldos(E)   pdos(E)   
 -21.420  0.111E-06  0.111E-06
 -21.410  0.324E-06  0.324E-06
 -21.400  0.905E-06  0.905E-06
 -21.390  0.243E-05  0.243E-05
 -21.380  0.624E-05  0.624E-05
 -21.370  0.154E-04  0.154E-04
 -21.360  0.363E-04  0.363E-04
 -21.350  0.823E-04  0.823E-04
 -21.340  0.179E-03  0.179E-03
 -21.330  0.372E-03  0.372E-03
 -21.320  0.743E-03  0.743E-03
 -21.310  0.142E-02  0.142E-02
 -21.300  0.261E-02  0.261E-02
 -21.290  0.460E-02  0.460E-02
 -21.280  0.777E-02  0.777E-02
 -21.270  0.126E-01  0.126E-01
 -21.260  0.196E-01  0.196E-01
 -21.250  0.293E-01  0.293E-01
 -21.240  0.421E-01  0.421E-01
 -21.230  0.581E-01  0.581E-01
 -21.220  0.771E-01  0.771E-01
 -21.210  0.987E-01  0.987E-01
 -21.200  0.122E+00  0.122E+00
 -21.190  0.145E+00  0.145E+00
 -21.180  0.168E+00  0.168E+00
 -21.170  0.188E+00  0.188E+00
 -21.160  0.204E+00  0.204E+00
 -21.150  0.217E+00  0.217E+00
 -21.140  0.224E+00  0.224E+00
 -21.130  0.228E+00  0.228E+00
 -21.120  0.228E+00  0.228E+00
 -21.110  0.226E+00  0.226E+00
 -21.100  0.223E+00  0.223E+00
 -21.090  0.220E+00  0.220E+00
 -21.080  0.219E+00  0.219E+00
 -21.070  0.219E+00  0.219E+00
 -21.060  0.219E+00  0.219E+00
 -21.050  0.220E+00  0.220E+00
 -21.040  0.218E+00  0.218E+00
 -21.030  0.215E+00  0.215E+00
 -21.020  0.209E+00  0.209E+00
 -21.010  0.202E+00  0.202E+00
 -21.000  0.195E+00  0.195E+00
 -20.990  0.192E+00  0.192E+00
 -20.980  0.192E+00  0.192E+00
 -20.970  0.198E+00  0.198E+00
 -20.960  0.208E+00  0.208E+00
 -20.950  0.220E+00  0.220E+00
 -20.940  0.230E+00  0.230E+00
 -20.930  0.237E+00  0.237E+00
 -20.920  0.237E+00  0.237E+00
 -20.910  0.230E+00  0.230E+00
 -20.900  0.217E+00  0.217E+00
 -20.890  0.201E+00  0.201E+00
 -20.880  0.184E+00  0.184E+00
 -20.870  0.171E+00  0.171E+00
 -20.860  0.164E+00  0.164E+00
 -20.850  0.165E+00  0.165E+00
 -20.840  0.173E+00  0.173E+00
 -20.830  0.189E+00  0.189E+00
 -20.820  0.209E+00  0.209E+00
 -20.810  0.230E+00  0.230E+00
 -20.800  0.248E+00  0.248E+00
 -20.790  0.261E+00  0.261E+00
 -20.780  0.266E+00  0.266E+00
 -20.770  0.261E+00  0.261E+00
 -20.760  0.247E+00  0.247E+00
 -20.750  0.226E+00  0.226E+00
 -20.740  0.200E+00  0.200E+00
 -20.730  0.174E+00  0.174E+00
 -20.720  0.152E+00  0.152E+00
 -20.710  0.138E+00  0.138E+00
 -20.700  0.133E+00  0.133E+00
 -20.690  0.138E+00  0.138E+00
 -20.680  0.154E+00  0.154E+00
 -20.670  0.176E+00  0.176E+00
 -20.660  0.203E+00  0.203E+00
 -20.650  0.229E+00  0.229E+00
 -20.640  0.253E+00  0.253E+00
 -20.630  0.271E+00  0.271E+00
 -20.620  0.281E+00  0.281E+00
 -20.610  0.283E+00  0.283E+00
 -20.600  0.276E+00  0.276E+00
 -20.590  0.263E+00  0.263E+00
 -20.580  0.244E+00  0.244E+00
 -20.570  0.222E+00  0.222E+00
 -20.560  0.199E+00  0.199E+00
 -20.550  0.175E+00  0.175E+00
 -20.540  0.153E+00  0.153E+00
 -20.530  0.135E+00  0.135E+00
 -20.520  0.122E+00  0.122E+00
 -20.510  0.116E+00  0.116E+00
 -20.500  0.119E+00  0.119E+00
 -20.490  0.133E+00  0.133E+00
 -20.480  0.156E+00  0.156E+00
 -20.470  0.187E+00  0.187E+00
 -20.460  0.223E+00  0.223E+00
 -20.450  0.257E+00  0.257E+00
 -20.440  0.287E+00  0.287E+00
 -20.430  0.307E+00  0.307E+00
 -20.420  0.316E+00  0.316E+00
 -20.410  0.312E+00  0.312E+00
 -20.400  0.296E+00  0.296E+00
 -20.390  0.273E+00  0.273E+00
 -20.380  0.244E+00  0.244E+00
 -20.370  0.215E+00  0.215E+00
 -20.360  0.190E+00  0.190E+00
 -20.350  0.169E+00  0.169E+00
 -20.340  0.155E+00  0.155E+00
 -20.330  0.146E+00  0.146E+00
 -20.320  0.141E+00  0.141E+00
 -20.310  0.138E+00  0.138E+00
 -20.300  0.136E+00  0.136E+00
 -20.290  0.135E+00  0.135E+00
 -20.280  0.136E+00  0.136E+00
 -20.270  0.142E+00  0.142E+00
 -20.260  0.155E+00  0.155E+00
 -20.250  0.176E+00  0.176E+00
 -20.240  0.205E+00  0.205E+00
 -20.230  0.239E+00  0.239E+00
 -20.220  0.275E+00  0.275E+00
 -20.210  0.307E+00  0.307E+00
 -20.200  0.331E+00  0.331E+00
 -20.190  0.342E+00  0.342E+00
 -20.180  0.340E+00  0.340E+00
 -20.170  0.324E+00  0.324E+00
 -20.160  0.298E+00  0.298E+00
 -20.150  0.265E+00  0.265E+00
 -20.140  0.229E+00  0.229E+00
 -20.130  0.193E+00  0.193E+00
 -20.120  0.162E+00  0.162E+00
 -20.110  0.137E+00  0.137E+00
 -20.100  0.121E+00  0.121E+00
 -20.090  0.113E+00  0.113E+00
 -20.080  0.113E+00  0.113E+00
 -20.070  0.121E+00  0.121E+00
 -20.060  0.133E+00  0.133E+00
 -20.050  0.147E+00  0.147E+00
 -20.040  0.163E+00  0.163E+00
 -20.030  0.177E+00  0.177E+00
 -20.020  0.191E+00  0.191E+00
 -20.010  0.204E+00  0.204E+00
 -20.000  0.219E+00  0.219E+00
 -19.990  0.236E+00  0.236E+00
 -19.980  0.256E+00  0.256E+00
 -19.970  0.278E+00  0.278E+00
 -19.960  0.299E+00  0.299E+00
 -19.950  0.317E+00  0.317E+00
 -19.940  0.329E+00  0.329E+00
 -19.930  0.332E+00  0.332E+00
 -19.920  0.326E+00  0.326E+00
 -19.910  0.311E+00  0.311E+00
 -19.900  0.289E+00  0.289E+00
 -19.890  0.263E+00  0.263E+00
 -19.880  0.235E+00  0.235E+00
 -19.870  0.207E+00  0.207E+00
 -19.860  0.181E+00  0.181E+00
 -19.850  0.157E+00  0.157E+00
 -19.840  0.136E+00  0.136E+00
 -19.830  0.119E+00  0.119E+00
 -19.820  0.105E+00  0.105E+00
 -19.810  0.983E-01  0.983E-01
 -19.800  0.987E-01  0.987E-01
 -19.790  0.108E+00  0.108E+00
 -19.780  0.126E+00  0.126E+00
 -19.770  0.153E+00  0.153E+00
 -19.760  0.185E+00  0.185E+00
 -19.750  0.220E+00  0.220E+00
 -19.740  0.255E+00  0.255E+00
 -19.730  0.286E+00  0.286E+00
 -19.720  0.310E+00  0.310E+00
 -19.710  0.327E+00  0.327E+00
 -19.700  0.336E+00  0.336E+00
 -19.690  0.338E+00  0.338E+00
 -19.680  0.333E+00  0.333E+00
 -19.670  0.324E+00  0.324E+00
 -19.660  0.311E+00  0.311E+00
 -19.650  0.297E+00  0.297E+00
 -19.640  0.282E+00  0.282E+00
 -19.630  0.266E+00  0.266E+00
 -19.620  0.252E+00  0.252E+00
 -19.610  0.237E+00  0.237E+00
 -19.600  0.224E+00  0.224E+00
 -19.590  0.211E+00  0.211E+00
 -19.580  0.199E+00  0.199E+00
 -19.570  0.187E+00  0.187E+00
 -19.560  0.175E+00  0.175E+00
 -19.550  0.162E+00  0.162E+00
 -19.540  0.149E+00  0.149E+00
 -19.530  0.135E+00  0.135E+00
 -19.520  0.123E+00  0.123E+00
 -19.510  0.114E+00  0.114E+00
 -19.500  0.112E+00  0.112E+00
 -19.490  0.120E+00  0.120E+00
 -19.480  0.141E+00  0.141E+00
 -19.470  0.174E+00  0.174E+00
 -19.460  0.218E+00  0.218E+00
 -19.450  0.269E+00  0.269E+00
 -19.440  0.321E+00  0.321E+00
 -19.430  0.368E+00  0.368E+00
 -19.420  0.403E+00  0.403E+00
 -19.410  0.422E+00  0.422E+00
 -19.400  0.422E+00  0.422E+00
 -19.390  0.406E+00  0.406E+00
 -19.380  0.376E+00  0.376E+00
 -19.370  0.339E+00  0.339E+00
 -19.360  0.300E+00  0.300E+00
 -19.350  0.264E+00  0.264E+00
 -19.340  0.236E+00  0.236E+00
 -19.330  0.216E+00  0.216E+00
 -19.320  0.204E+00  0.204E+00
 -19.310  0.198E+00  0.198E+00
 -19.300  0.196E+00  0.196E+00
 -19.290  0.195E+00  0.195E+00
 -19.280  0.194E+00  0.194E+00
 -19.270  0.193E+00  0.193E+00
 -19.260  0.191E+00  0.191E+00
 -19.250  0.188E+00  0.188E+00
 -19.240  0.183E+00  0.183E+00
 -19.230  0.178E+00  0.178E+00
 -19.220  0.172E+00  0.172E+00
 -19.210  0.166E+00  0.166E+00
 -19.200  0.163E+00  0.163E+00
 -19.190  0.166E+00  0.166E+00
 -19.180  0.177E+00  0.177E+00
 -19.170  0.199E+00  0.199E+00
 -19.160  0.234E+00  0.234E+00
 -19.150  0.279E+00  0.279E+00
 -19.140  0.330E+00  0.330E+00
 -19.130  0.383E+00  0.383E+00
 -19.120  0.429E+00  0.429E+00
 -19.110  0.461E+00  0.461E+00
 -19.100  0.475E+00  0.475E+00
 -19.090  0.469E+00  0.469E+00
 -19.080  0.443E+00  0.443E+00
 -19.070  0.402E+00  0.402E+00
 -19.060  0.353E+00  0.353E+00
 -19.050  0.302E+00  0.302E+00
 -19.040  0.257E+00  0.257E+00
 -19.030  0.221E+00  0.221E+00
 -19.020  0.197E+00  0.197E+00
 -19.010  0.185E+00  0.185E+00
 -19.000  0.181E+00  0.181E+00
 -18.990  0.184E+00  0.184E+00
 -18.980  0.189E+00  0.189E+00
 -18.970  0.195E+00  0.195E+00
 -18.960  0.200E+00  0.200E+00
 -18.950  0.203E+00  0.203E+00
 -18.940  0.206E+00  0.206E+00
 -18.930  0.209E+00  0.209E+00
 -18.920  0.212E+00  0.212E+00
 -18.910  0.217E+00  0.217E+00
 -18.900  0.224E+00  0.224E+00
 -18.890  0.234E+00  0.234E+00
 -18.880  0.249E+00  0.249E+00
 -18.870  0.270E+00  0.270E+00
 -18.860  0.299E+00  0.299E+00
 -18.850  0.334E+00  0.334E+00
 -18.840  0.374E+00  0.374E+00
 -18.830  0.417E+00  0.417E+00
 -18.820  0.455E+00  0.455E+00
 -18.810  0.486E+00  0.486E+00
 -18.800  0.503E+00  0.503E+00
 -18.790  0.504E+00  0.504E+00
 -18.780  0.488E+00  0.488E+00
 -18.770  0.456E+00  0.456E+00
 -18.760  0.413E+00  0.413E+00
 -18.750  0.364E+00  0.364E+00
 -18.740  0.315E+00  0.315E+00
 -18.730  0.272E+00  0.272E+00
 -18.720  0.239E+00  0.239E+00
 -18.710  0.217E+00  0.217E+00
 -18.700  0.206E+00  0.206E+00
 -18.690  0.205E+00  0.205E+00
 -18.680  0.209E+00  0.209E+00
 -18.670  0.216E+00  0.216E+00
 -18.660  0.225E+00  0.225E+00
 -18.650  0.233E+00  0.233E+00
 -18.640  0.240E+00  0.240E+00
 -18.630  0.248E+00  0.248E+00
 -18.620  0.258E+00  0.258E+00
 -18.610  0.272E+00  0.272E+00
 -18.600  0.290E+00  0.290E+00
 -18.590  0.315E+00  0.315E+00
 -18.580  0.347E+00  0.347E+00
 -18.570  0.386E+00  0.386E+00
 -18.560  0.430E+00  0.430E+00
 -18.550  0.477E+00  0.477E+00
 -18.540  0.522E+00  0.522E+00
 -18.530  0.560E+00  0.560E+00
 -18.520  0.586E+00  0.586E+00
 -18.510  0.597E+00  0.597E+00
 -18.500  0.589E+00  0.589E+00
 -18.490  0.565E+00  0.565E+00
 -18.480  0.526E+00  0.526E+00
 -18.470  0.479E+00  0.479E+00
 -18.460  0.430E+00  0.430E+00
 -18.450  0.384E+00  0.384E+00
 -18.440  0.346E+00  0.346E+00
 -18.430  0.320E+00  0.320E+00
 -18.420  0.303E+00  0.303E+00
 -18.410  0.296E+00  0.296E+00
 -18.400  0.294E+00  0.294E+00
 -18.390  0.296E+00  0.296E+00
 -18.380  0.299E+00  0.299E+00
 -18.370  0.304E+00  0.304E+00
 -18.360  0.311E+00  0.311E+00
 -18.350  0.323E+00  0.323E+00
 -18.340  0.345E+00  0.345E+00
 -18.330  0.378E+00  0.378E+00
 -18.320  0.425E+00  0.425E+00
 -18.310  0.487E+00  0.487E+00
 -18.300  0.560E+00  0.560E+00
 -18.290  0.640E+00  0.640E+00
 -18.280  0.721E+00  0.721E+00
 -18.270  0.794E+00  0.794E+00
 -18.260  0.854E+00  0.854E+00
 -18.250  0.894E+00  0.894E+00
 -18.240  0.912E+00  0.912E+00
 -18.230  0.909E+00  0.909E+00
 -18.220  0.888E+00  0.888E+00
 -18.210  0.852E+00  0.852E+00
 -18.200  0.804E+00  0.804E+00
 -18.190  0.750E+00  0.750E+00
 -18.180  0.691E+00  0.691E+00
 -18.170  0.631E+00  0.631E+00
 -18.160  0.573E+00  0.573E+00
 -18.150  0.521E+00  0.521E+00
 -18.140  0.479E+00  0.479E+00
 -18.130  0.454E+00  0.454E+00
 -18.120  0.451E+00  0.451E+00
 -18.110  0.472E+00  0.472E+00
 -18.100  0.518E+00  0.518E+00
 -18.090  0.585E+00  0.585E+00
 -18.080  0.665E+00  0.665E+00
 -18.070  0.747E+00  0.747E+00
 -18.060  0.816E+00  0.816E+00
 -18.050  0.860E+00  0.860E+00
 -18.040  0.871E+00  0.871E+00
 -18.030  0.842E+00  0.842E+00
 -18.020  0.775E+00  0.775E+00
 -18.010  0.679E+00  0.679E+00
 -18.000  0.565E+00  0.565E+00
 -17.990  0.449E+00  0.449E+00
 -17.980  0.345E+00  0.345E+00
 -17.970  0.264E+00  0.264E+00
 -17.960  0.213E+00  0.213E+00
 -17.950  0.193E+00  0.193E+00
 -17.940  0.202E+00  0.202E+00
 -17.930  0.233E+00  0.233E+00
 -17.920  0.280E+00  0.280E+00
 -17.910  0.335E+00  0.335E+00
 -17.900  0.392E+00  0.392E+00
 -17.890  0.445E+00  0.445E+00
 -17.880  0.490E+00  0.490E+00
 -17.870  0.522E+00  0.522E+00
 -17.860  0.540E+00  0.540E+00
 -17.850  0.541E+00  0.541E+00
 -17.840  0.523E+00  0.523E+00
 -17.830  0.489E+00  0.489E+00
 -17.820  0.443E+00  0.443E+00
 -17.810  0.392E+00  0.392E+00
 -17.800  0.341E+00  0.341E+00
 -17.790  0.299E+00  0.299E+00
 -17.780  0.271E+00  0.271E+00
 -17.770  0.259E+00  0.259E+00
 -17.760  0.264E+00  0.264E+00
 -17.750  0.281E+00  0.281E+00
 -17.740  0.306E+00  0.306E+00
 -17.730  0.333E+00  0.333E+00
 -17.720  0.356E+00  0.356E+00
 -17.710  0.371E+00  0.371E+00
 -17.700  0.377E+00  0.377E+00
 -17.690  0.372E+00  0.372E+00
 -17.680  0.359E+00  0.359E+00
 -17.670  0.340E+00  0.340E+00
 -17.660  0.317E+00  0.317E+00
 -17.650  0.293E+00  0.293E+00
 -17.640  0.269E+00  0.269E+00
 -17.630  0.246E+00  0.246E+00
 -17.620  0.223E+00  0.223E+00
 -17.610  0.199E+00  0.199E+00
 -17.600  0.173E+00  0.173E+00
 -17.590  0.144E+00  0.144E+00
 -17.580  0.112E+00  0.112E+00
 -17.570  0.803E-01  0.803E-01
 -17.560  0.497E-01  0.497E-01
 -17.550  0.228E-01  0.228E-01
 -17.540  0.125E-02  0.125E-02
 -17.530 -0.141E-01 -0.141E-01
 -17.520 -0.232E-01 -0.232E-01
 -17.510 -0.269E-01 -0.269E-01
 -17.500 -0.265E-01 -0.265E-01
 -17.490 -0.235E-01 -0.235E-01
 -17.480 -0.192E-01 -0.192E-01
 -17.470 -0.147E-01 -0.147E-01
 -17.460 -0.106E-01 -0.106E-01
 -17.450 -0.721E-02 -0.721E-02
 -17.440 -0.467E-02 -0.467E-02
 -17.430 -0.288E-02 -0.288E-02
 -17.420 -0.170E-02 -0.170E-02
 -17.410 -0.953E-03 -0.953E-03
 -17.400 -0.512E-03 -0.512E-03
 -17.390 -0.263E-03 -0.263E-03
 -17.380 -0.130E-03 -0.130E-03
 -17.370 -0.612E-04 -0.612E-04
 -17.360 -0.276E-04 -0.276E-04
 -17.350 -0.120E-04 -0.120E-04
 -17.340 -0.496E-05 -0.496E-05
 -17.330 -0.197E-05 -0.197E-05
 -17.320 -0.751E-06 -0.751E-06
 -17.310 -0.274E-06 -0.274E-06
 -17.300 -0.958E-07 -0.958E-07
 -17.290 -0.321E-07 -0.321E-07
 -17.280 -0.103E-07 -0.103E-07
 -17.270 -0.283E-08 -0.283E-08
 -17.260 -0.845E-09 -0.845E-09
 -17.250 -0.241E-09 -0.241E-09
 -17.240  0.000E+00  0.000E+00
 -17.230  0.000E+00  0.000E+00
 -17.220  0.000E+00  0.000E+00
 -17.210  0.000E+00  0.000E+00
 -17.200  0.000E+00  0.000E+00
 -17.190  0.000E+00  0.000E+00
 -17.180  0.000E+00  0.000E+00
 -17.170  0.000E+00  0.000E+00
 -17.160  0.000E+00  0.000E+00
 -17.150  0.000E+00  0.000E+00
 -17.140  0.000E+00  0.000E+00
 -17.130  0.000E+00  0.000E+00
 -17.120  0.000E+00  0.000E+00
 -17.110  0.000E+00  0.000E+00
 -17.100  0.000E+00  0.000E+00
 -17.090  0.000E+00  0.000E+00
 -17.080  0.000E+00  0.000E+00
 -17.070  0.000E+00  0.000E+00
 -17.060  0.000E+00  0.000E+00
 -17.050  0.000E+00  0.000E+00
 -17.040  0.000E+00  0.000E+00
 -17.030  0.000E+00  0.000E+00
 -17.020  0.000E+00  0.000E+00
 -17.010  0.000E+00  0.000E+00
 -17.000  0.000E+00  0.000E+00
 -16.990  0.000E+00  0.000E+00
 -16.980  0.000E+00  0.000E+00
 -16.970  0.000E+00  0.000E+00
 -16.960  0.000E+00  0.000E+00
 -16.950  0.000E+00  0.000E+00
 -16.940  0.000E+00  0.000E+00
 -16.930  0.000E+00  0.000E+00
 -16.920  0.000E+00  0.000E+00
 -16.910  0.000E+00  0.000E+00
 -16.900  0.000E+00  0.000E+00
 -16.890  0.000E+00  0.000E+00
 -16.880  0.000E+00  0.000E+00
 -16.870  0.000E+00  0.000E+00
 -16.860  0.000E+00  0.000E+00
 -16.850  0.000E+00  0.000E+00
 -16.840  0.000E+00  0.000E+00
 -16.830  0.000E+00  0.000E+00
 -16.820  0.000E+00  0.000E+00
 -16.810  0.000E+00  0.000E+00
 -16.800  0.000E+00  0.000E+00
 -16.790  0.000E+00  0.000E+00
 -16.780  0.000E+00  0.000E+00
 -16.770  0.000E+00  0.000E+00
 -16.760  0.000E+00  0.000E+00
 -16.750  0.000E+00  0.000E+00
 -16.740  0.000E+00  0.000E+00
 -16.730  0.000E+00  0.000E+00
 -16.720  0.000E+00  0.000E+00
 -16.710  0.000E+00  0.000E+00
 -16.700  0.000E+00  0.000E+00
 -16.690  0.000E+00  0.000E+00
 -16.680  0.000E+00  0.000E+00
 -16.670  0.000E+00  0.000E+00
 -16.660  0.000E+00  0.000E+00
 -16.650  0.000E+00  0.000E+00
 -16.640  0.000E+00  0.000E+00
 -16.630  0.000E+00  0.000E+00
 -16.620  0.000E+00  0.000E+00
 -16.610  0.000E+00  0.000E+00
 -16.600  0.000E+00  0.000E+00
 -16.590  0.000E+00  0.000E+00
 -16.580  0.000E+00  0.000E+00
 -16.570  0.000E+00  0.000E+00
 -16.560  0.000E+00  0.000E+00
 -16.550  0.000E+00  0.000E+00
 -16.540  0.000E+00  0.000E+00
 -16.530  0.000E+00  0.000E+00
 -16.520  0.000E+00  0.000E+00
 -16.510  0.000E+00  0.000E+00
 -16.500  0.000E+00  0.000E+00
 -16.490  0.000E+00  0.000E+00
 -16.480  0.000E+00  0.000E+00
 -16.470  0.000E+00  0.000E+00
 -16.460  0.000E+00  0.000E+00
 -16.450  0.000E+00  0.000E+00
 -16.440  0.000E+00  0.000E+00
 -16.430  0.000E+00  0.000E+00
 -16.420  0.000E+00  0.000E+00
 -16.410  0.000E+00  0.000E+00
 -16.400  0.000E+00  0.000E+00
 -16.390  0.000E+00  0.000E+00
 -16.380  0.000E+00  0.000E+00
 -16.370  0.000E+00  0.000E+00
 -16.360  0.000E+00  0.000E+00
 -16.350  0.000E+00  0.000E+00
 -16.340  0.000E+00  0.000E+00
 -16.330  0.000E+00  0.000E+00
 -16.320  0.000E+00  0.000E+00
 -16.310  0.000E+00  0.000E+00
 -16.300  0.000E+00  0.000E+00
 -16.290  0.000E+00  0.000E+00
 -16.280  0.000E+00  0.000E+00
 -16.270  0.000E+00  0.000E+00
 -16.260  0.000E+00  0.000E+00
 -16.250  0.000E+00  0.000E+00
 -16.240  0.000E+00  0.000E+00
 -16.230  0.000E+00  0.000E+00
 -16.220  0.000E+00  0.000E+00
 -16.210  0.000E+00  0.000E+00
 -16.200  0.000E+00  0.000E+00
 -16.190  0.000E+00  0.000E+00
 -16.180  0.000E+00  0.000E+00
 -16.170  0.000E+00  0.000E+00
 -16.160  0.000E+00  0.000E+00
 -16.150  0.000E+00  0.000E+00
 -16.140  0.000E+00  0.000E+00
 -16.130  0.000E+00  0.000E+00
 -16.120  0.000E+00  0.000E+00
 -16.110  0.000E+00  0.000E+00
 -16.100  0.000E+00  0.000E+00
 -16.090  0.000E+00  0.000E+00
 -16.080  0.000E+00  0.000E+00
 -16.070  0.000E+00  0.000E+00
 -16.060  0.000E+00  0.000E+00
 -16.050  0.000E+00  0.000E+00
 -16.040  0.000E+00  0.000E+00
 -16.030  0.000E+00  0.000E+00
 -16.020  0.000E+00  0.000E+00
 -16.010  0.000E+00  0.000E+00
 -16.000  0.000E+00  0.000E+00
 -15.990  0.000E+00  0.000E+00
 -15.980  0.000E+00  0.000E+00
 -15.970  0.000E+00  0.000E+00
 -15.960  0.000E+00  0.000E+00
 -15.950  0.000E+00  0.000E+00
 -15.940  0.000E+00  0.000E+00
 -15.930  0.000E+00  0.000E+00
 -15.920  0.000E+00  0.000E+00
 -15.910  0.000E+00  0.000E+00
 -15.900  0.000E+00  0.000E+00
 -15.890  0.000E+00  0.000E+00
 -15.880  0.000E+00  0.000E+00
 -15.870  0.000E+00  0.000E+00
 -15.860  0.000E+00  0.000E+00
 -15.850  0.000E+00  0.000E+00
 -15.840  0.000E+00  0.000E+00
 -15.830  0.000E+00  0.000E+00
 -15.820  0.000E+00  0.000E+00
 -15.810  0.000E+00  0.000E+00
 -15.800  0.000E+00  0.000E+00
 -15.790  0.000E+00  0.000E+00
 -15.780  0.000E+00  0.000E+00
 -15.770  0.000E+00  0.000E+00
 -15.760  0.000E+00  0.000E+00
 -15.750  0.000E+00  0.000E+00
 -15.740  0.000E+00  0.000E+00
 -15.730  0.000E+00  0.000E+00
 -15.720  0.000E+00  0.000E+00
 -15.710  0.000E+00  0.000E+00
 -15.700  0.000E+00  0.000E+00
 -15.690  0.000E+00  0.000E+00
 -15.680  0.000E+00  0.000E+00
 -15.670  0.000E+00  0.000E+00
 -15.660  0.000E+00  0.000E+00
 -15.650  0.000E+00  0.000E+00
 -15.640  0.000E+00  0.000E+00
 -15.630  0.000E+00  0.000E+00
 -15.620  0.000E+00  0.000E+00
 -15.610  0.000E+00  0.000E+00
 -15.600  0.000E+00  0.000E+00
 -15.590  0.000E+00  0.000E+00
 -15.580  0.000E+00  0.000E+00
 -15.570  0.000E+00  0.000E+00
 -15.560  0.000E+00  0.000E+00
 -15.550  0.000E+00  0.000E+00
 -15.540  0.000E+00  0.000E+00
 -15.530  0.000E+00  0.000E+00
 -15.520  0.000E+00  0.000E+00
 -15.510  0.000E+00  0.000E+00
 -15.500  0.000E+00  0.000E+00
 -15.490  0.000E+00  0.000E+00
 -15.480  0.000E+00  0.000E+00
 -15.470  0.000E+00  0.000E+00
 -15.460  0.000E+00  0.000E+00
 -15.450  0.000E+00  0.000E+00
 -15.440  0.000E+00  0.000E+00
 -15.430  0.000E+00  0.000E+00
 -15.420  0.000E+00  0.000E+00
 -15.410  0.000E+00  0.000E+00
 -15.400  0.000E+00  0.000E+00
 -15.390  0.000E+00  0.000E+00
 -15.380  0.000E+00  0.000E+00
 -15.370  0.000E+00  0.000E+00
 -15.360  0.000E+00  0.000E+00
 -15.350  0.000E+00  0.000E+00
 -15.340  0.000E+00  0.000E+00
 -15.330  0.000E+00  0.000E+00
 -15.320  0.000E+00  0.000E+00
 -15.310  0.000E+00  0.000E+00
 -15.300  0.000E+00  0.000E+00
 -15.290  0.000E+00  0.000E+00
 -15.280  0.000E+00  0.000E+00
 -15.270  0.000E+00  0.000E+00
 -15.260  0.000E+00  0.000E+00
 -15.250  0.000E+00  0.000E+00
 -15.240  0.000E+00  0.000E+00
 -15.230  0.000E+00  0.000E+00
 -15.220  0.000E+00  0.000E+00
 -15.210  0.000E+00  0.000E+00
 -15.200  0.000E+00  0.000E+00
 -15.190  0.000E+00  0.000E+00
 -15.180  0.000E+00  0.000E+00
 -15.170  0.000E+00  0.000E+00
 -15.160  0.000E+00  0.000E+00
 -15.150  0.000E+00  0.000E+00
 -15.140  0.000E+00  0.000E+00
 -15.130  0.000E+00  0.000E+00
 -15.120  0.000E+00  0.000E+00
 -15.110  0.000E+00  0.000E+00
 -15.100  0.000E+00  0.000E+00
 -15.090  0.000E+00  0.000E+00
 -15.080  0.000E+00  0.000E+00
 -15.070  0.000E+00  0.000E+00
 -15.060  0.000E+00  0.000E+00
 -15.050  0.000E+00  0.000E+00
 -15.040  0.000E+00  0.000E+00
 -15.030  0.000E+00  0.000E+00
 -15.020  0.000E+00  0.000E+00
 -15.010  0.000E+00  0.000E+00
 -15.000  0.000E+00  0.000E+00
 -14.990  0.000E+00  0.000E+00
 -14.980  0.000E+00  0.000E+00
 -14.970  0.000E+00  0.000E+00
 -14.960  0.000E+00  0.000E+00
 -14.950  0.000E+00  0.000E+00
 -14.940  0.000E+00  0.000E+00
 -14.930  0.000E+00  0.000E+00
 -14.920  0.000E+00  0.000E+00
 -14.910  0.000E+00  0.000E+00
 -14.900  0.000E+00  0.000E+00
 -14.890  0.000E+00  0.000E+00
 -14.880  0.000E+00  0.000E+00
 -14.870  0.000E+00  0.000E+00
 -14.860  0.000E+00  0.000E+00
 -14.850  0.000E+00  0.000E+00
 -14.840  0.000E+00  0.000E+00
 -14.830  0.000E+00  0.000E+00
 -14.820  0.000E+00  0.000E+00
 -14.810  0.000E+00  0.000E+00
 -14.800  0.000E+00  0.000E+00
 -14.790  0.000E+00  0.000E+00
 -14.780  0.000E+00  0.000E+00
 -14.770  0.000E+00  0.000E+00
 -14.760  0.000E+00  0.000E+00
 -14.750  0.000E+00  0.000E+00
 -14.740  0.000E+00  0.000E+00
 -14.730  0.000E+00  0.000E+00
 -14.720  0.000E+00  0.000E+00
 -14.710  0.000E+00  0.000E+00
 -14.700  0.000E+00  0.000E+00
 -14.690  0.000E+00  0.000E+00
 -14.680  0.000E+00  0.000E+00
 -14.670  0.000E+00  0.000E+00
 -14.660  0.000E+00  0.000E+00
 -14.650  0.000E+00  0.000E+00
 -14.640  0.000E+00  0.000E+00
 -14.630  0.000E+00  0.000E+00
 -14.620  0.000E+00  0.000E+00
 -14.610  0.000E+00  0.000E+00
 -14.600  0.000E+00  0.000E+00
 -14.590  0.000E+00  0.000E+00
 -14.580  0.000E+00  0.000E+00
 -14.570  0.000E+00  0.000E+00
 -14.560  0.000E+00  0.000E+00
 -14.550  0.000E+00  0.000E+00
 -14.540  0.000E+00  0.000E+00
 -14.530  0.000E+00  0.000E+00
 -14.520  0.000E+00  0.000E+00
 -14.510  0.000E+00  0.000E+00
 -14.500  0.000E+00  0.000E+00
 -14.490  0.000E+00  0.000E+00
 -14.480  0.000E+00  0.000E+00
 -14.470  0.000E+00  0.000E+00
 -14.460  0.000E+00  0.000E+00
 -14.450  0.000E+00  0.000E+00
 -14.440  0.000E+00  0.000E+00
 -14.430  0.000E+00  0.000E+00
 -14.420  0.000E+00  0.000E+00
 -14.410  0.000E+00  0.000E+00
 -14.400  0.000E+00  0.000E+00
 -14.390  0.000E+00  0.000E+00
 -14.380  0.000E+00  0.000E+00
 -14.370  0.000E+00  0.000E+00
 -14.360  0.000E+00  0.000E+00
 -14.350  0.000E+00  0.000E+00
 -14.340  0.000E+00  0.000E+00
 -14.330  0.000E+00  0.000E+00
 -14.320  0.000E+00  0.000E+00
 -14.310  0.000E+00  0.000E+00
 -14.300  0.000E+00  0.000E+00
 -14.290  0.000E+00  0.000E+00
 -14.280  0.000E+00  0.000E+00
 -14.270  0.000E+00  0.000E+00
 -14.260  0.000E+00  0.000E+00
 -14.250  0.000E+00  0.000E+00
 -14.240  0.000E+00  0.000E+00
 -14.230  0.000E+00  0.000E+00
 -14.220  0.000E+00  0.000E+00
 -14.210  0.000E+00  0.000E+00
 -14.200  0.000E+00  0.000E+00
 -14.190  0.000E+00  0.000E+00
 -14.180  0.000E+00  0.000E+00
 -14.170  0.000E+00  0.000E+00
 -14.160  0.000E+00  0.000E+00
 -14.150  0.000E+00  0.000E+00
 -14.140  0.000E+00  0.000E+00
 -14.130  0.000E+00  0.000E+00
 -14.120  0.000E+00  0.000E+00
 -14.110  0.000E+00  0.000E+00
 -14.100  0.000E+00  0.000E+00
 -14.090  0.000E+00  0.000E+00
 -14.080  0.000E+00  0.000E+00
 -14.070  0.000E+00  0.000E+00
 -14.060  0.000E+00  0.000E+00
 -14.050  0.000E+00  0.000E+00
 -14.040  0.000E+00  0.000E+00
 -14.030  0.000E+00  0.000E+00
 -14.020  0.000E+00  0.000E+00
 -14.010  0.000E+00  0.000E+00
 -14.000  0.000E+00  0.000E+00
 -13.990  0.000E+00  0.000E+00
 -13.980  0.000E+00  0.000E+00
 -13.970  0.000E+00  0.000E+00
 -13.960  0.000E+00  0.000E+00
 -13.950  0.000E+00  0.000E+00
 -13.940  0.000E+00  0.000E+00
 -13.930  0.000E+00  0.000E+00
 -13.920  0.000E+00  0.000E+00
 -13.910  0.000E+00  0.000E+00
 -13.900  0.000E+00  0.000E+00
 -13.890  0.000E+00  0.000E+00
 -13.880  0.000E+00  0.000E+00
 -13.870  0.000E+00  0.000E+00
 -13.860  0.000E+00  0.000E+00
 -13.850  0.000E+00  0.000E+00
 -13.840  0.000E+00  0.000E+00
 -13.830  0.000E+00  0.000E+00
 -13.820  0.000E+00  0.000E+00
 -13.810  0.000E+00  0.000E+00
 -13.800  0.000E+00  0.000E+00
 -13.790  0.000E+00  0.000E+00
 -13.780  0.000E+00  0.000E+00
 -13.770  0.000E+00  0.000E+00
 -13.760  0.000E+00  0.000E+00
 -13.750  0.000E+00  0.000E+00
 -13.740  0.000E+00  0.000E+00
 -13.730  0.000E+00  0.000E+00
 -13.720  0.000E+00  0.000E+00
 -13.710  0.000E+00  0.000E+00
 -13.700  0.000E+00  0.000E+00
 -13.690  0.000E+00  0.000E+00
 -13.680  0.000E+00  0.000E+00
 -13.670  0.000E+00  0.000E+00
 -13.660  0.000E+00  0.000E+00
 -13.650  0.000E+00  0.000E+00
 -13.640  0.000E+00  0.000E+00
 -13.630  0.000E+00  0.000E+00
 -13.620  0.000E+00  0.000E+00
 -13.610  0.000E+00  0.000E+00
 -13.600  0.000E+00  0.000E+00
 -13.590  0.000E+00  0.000E+00
 -13.580  0.000E+00  0.000E+00
 -13.570  0.000E+00  0.000E+00
 -13.560  0.000E+00  0.000E+00
 -13.550  0.000E+00  0.000E+00
 -13.540  0.000E+00  0.000E+00
 -13.530  0.000E+00  0.000E+00
 -13.520  0.000E+00  0.000E+00
 -13.510  0.000E+00  0.000E+00
 -13.500  0.000E+00  0.000E+00
 -13.490  0.000E+00  0.000E+00
 -13.480  0.000E+00  0.000E+00
 -13.470  0.000E+00  0.000E+00
 -13.460  0.000E+00  0.000E+00
 -13.450  0.000E+00  0.000E+00
 -13.440  0.000E+00  0.000E+00
 -13.430  0.000E+00  0.000E+00
 -13.420  0.000E+00  0.000E+00
 -13.410  0.000E+00  0.000E+00
 -13.400  0.000E+00  0.000E+00
 -13.390  0.000E+00  0.000E+00
 -13.380  0.000E+00  0.000E+00
 -13.370  0.000E+00  0.000E+00
 -13.360  0.000E+00  0.000E+00
 -13.350  0.000E+00  0.000E+00
 -13.340  0.000E+00  0.000E+00
 -13.330  0.000E+00  0.000E+00
 -13.320  0.000E+00  0.000E+00
 -13.310  0.000E+00  0.000E+00
 -13.300  0.000E+00  0.000E+00
 -13.290  0.000E+00  0.000E+00
 -13.280  0.000E+00  0.000E+00
 -13.270  0.000E+00  0.000E+00
 -13.260  0.000E+00  0.000E+00
 -13.250  0.000E+00  0.000E+00
 -13.240  0.000E+00  0.000E+00
 -13.230  0.000E+00  0.000E+00
 -13.220  0.000E+00  0.000E+00
 -13.210  0.000E+00  0.000E+00
 -13.200  0.000E+00  0.000E+00
 -13.190  0.000E+00  0.000E+00
 -13.180  0.000E+00  0.000E+00
 -13.170  0.000E+00  0.000E+00
 -13.160  0.000E+00  0.000E+00
 -13.150  0.000E+00  0.000E+00
 -13.140  0.000E+00  0.000E+00
 -13.130  0.000E+00  0.000E+00
 -13.120  0.000E+00  0.000E+00
 -13.110  0.000E+00  0.000E+00
 -13.100  0.000E+00  0.000E+00
 -13.090  0.000E+00  0.000E+00
 -13.080  0.000E+00  0.000E+00
 -13.070  0.000E+00  0.000E+00
 -13.060  0.000E+00  0.000E+00
 -13.050  0.000E+00  0.000E+00
 -13.040  0.000E+00  0.000E+00
 -13.030  0.000E+00  0.000E+00
 -13.020  0.000E+00  0.000E+00
 -13.010  0.000E+00  0.000E+00
 -13.000  0.000E+00  0.000E+00
 -12.990  0.000E+00  0.000E+00
 -12.980  0.000E+00  0.000E+00
 -12.970  0.000E+00  0.000E+00
 -12.960  0.000E+00  0.000E+00
 -12.950  0.000E+00  0.000E+00
 -12.940  0.000E+00  0.000E+00
 -12.930  0.000E+00  0.000E+00
 -12.920  0.000E+00  0.000E+00
 -12.910  0.000E+00  0.000E+00
 -12.900  0.000E+00  0.000E+00
 -12.890  0.000E+00  0.000E+00
 -12.880  0.000E+00  0.000E+00
 -12.870  0.000E+00  0.000E+00
 -12.860  0.000E+00  0.000E+00
 -12.850  0.000E+00  0.000E+00
 -12.840  0.000E+00  0.000E+00
 -12.830  0.000E+00  0.000E+00
 -12.820  0.336E-17  0.336E-17
 -12.810  0.182E-16  0.182E-16
 -12.800  0.942E-16  0.942E-16
 -12.790  0.467E-15  0.467E-15
 -12.780  0.224E-14  0.224E-14
 -12.770  0.102E-13  0.102E-13
 -12.760  0.445E-13  0.445E-13
 -12.750  0.186E-12  0.186E-12
 -12.740  0.743E-12  0.743E-12
 -12.730  0.284E-11  0.284E-11
 -12.720  0.104E-10  0.104E-10
 -12.710  0.366E-10  0.366E-10
 -12.700  0.123E-09  0.123E-09
 -12.690  0.396E-09  0.396E-09
 -12.680  0.122E-08  0.122E-08
 -12.670  0.361E-08  0.361E-08
 -12.660  0.102E-07  0.102E-07
 -12.650  0.278E-07  0.278E-07
 -12.640  0.724E-07  0.724E-07
 -12.630  0.181E-06  0.181E-06
 -12.620  0.433E-06  0.433E-06
 -12.610  0.997E-06  0.997E-06
 -12.600  0.220E-05  0.220E-05
 -12.590  0.467E-05  0.467E-05
 -12.580  0.952E-05  0.952E-05
 -12.570  0.187E-04  0.187E-04
 -12.560  0.352E-04  0.352E-04
 -12.550  0.638E-04  0.638E-04
 -12.540  0.111E-03  0.111E-03
 -12.530  0.187E-03  0.187E-03
 -12.520  0.303E-03  0.303E-03
 -12.510  0.473E-03  0.473E-03
 -12.500  0.710E-03  0.710E-03
 -12.490  0.103E-02  0.103E-02
 -12.480  0.143E-02  0.143E-02
 -12.470  0.192E-02  0.192E-02
 -12.460  0.248E-02  0.248E-02
 -12.450  0.309E-02  0.309E-02
 -12.440  0.371E-02  0.371E-02
 -12.430  0.430E-02  0.430E-02
 -12.420  0.481E-02  0.481E-02
 -12.410  0.523E-02  0.523E-02
 -12.400  0.554E-02  0.554E-02
 -12.390  0.576E-02  0.576E-02
 -12.380  0.593E-02  0.593E-02
 -12.370  0.609E-02  0.609E-02
 -12.360  0.628E-02  0.628E-02
 -12.350  0.653E-02  0.653E-02
 -12.340  0.683E-02  0.683E-02
 -12.330  0.715E-02  0.715E-02
 -12.320  0.743E-02  0.743E-02
 -12.310  0.763E-02  0.763E-02
 -12.300  0.771E-02  0.771E-02
 -12.290  0.766E-02  0.766E-02
 -12.280  0.753E-02  0.753E-02
 -12.270  0.736E-02  0.736E-02
 -12.260  0.721E-02  0.721E-02
 -12.250  0.713E-02  0.713E-02
 -12.240  0.715E-02  0.715E-02
 -12.230  0.726E-02  0.726E-02
 -12.220  0.744E-02  0.744E-02
 -12.210  0.767E-02  0.767E-02
 -12.200  0.792E-02  0.792E-02
 -12.190  0.821E-02  0.821E-02
 -12.180  0.855E-02  0.855E-02
 -12.170  0.895E-02  0.895E-02
 -12.160  0.941E-02  0.941E-02
 -12.150  0.990E-02  0.990E-02
 -12.140  0.104E-01  0.104E-01
 -12.130  0.107E-01  0.107E-01
 -12.120  0.110E-01  0.110E-01
 -12.110  0.111E-01  0.111E-01
 -12.100  0.110E-01  0.110E-01
 -12.090  0.109E-01  0.109E-01
 -12.080  0.107E-01  0.107E-01
 -12.070  0.105E-01  0.105E-01
 -12.060  0.104E-01  0.104E-01
 -12.050  0.104E-01  0.104E-01
 -12.040  0.103E-01  0.103E-01
 -12.030  0.102E-01  0.102E-01
 -12.020  0.997E-02  0.997E-02
 -12.010  0.969E-02  0.969E-02
 -12.000  0.940E-02  0.940E-02
 -11.990  0.919E-02  0.919E-02
 -11.980  0.917E-02  0.917E-02
 -11.970  0.944E-02  0.944E-02
 -11.960  0.101E-01  0.101E-01
 -11.950  0.110E-01  0.110E-01
 -11.940  0.123E-01  0.123E-01
 -11.930  0.137E-01  0.137E-01
 -11.920  0.151E-01  0.151E-01
 -11.910  0.164E-01  0.164E-01
 -11.900  0.174E-01  0.174E-01
 -11.890  0.180E-01  0.180E-01
 -11.880  0.181E-01  0.181E-01
 -11.870  0.178E-01  0.178E-01
 -11.860  0.171E-01  0.171E-01
 -11.850  0.161E-01  0.161E-01
 -11.840  0.150E-01  0.150E-01
 -11.830  0.138E-01  0.138E-01
 -11.820  0.128E-01  0.128E-01
 -11.810  0.121E-01  0.121E-01
 -11.800  0.116E-01  0.116E-01
 -11.790  0.115E-01  0.115E-01
 -11.780  0.116E-01  0.116E-01
 -11.770  0.119E-01  0.119E-01
 -11.760  0.123E-01  0.123E-01
 -11.750  0.127E-01  0.127E-01
 -11.740  0.133E-01  0.133E-01
 -11.730  0.139E-01  0.139E-01
 -11.720  0.146E-01  0.146E-01
 -11.710  0.155E-01  0.155E-01
 -11.700  0.166E-01  0.166E-01
 -11.690  0.179E-01  0.179E-01
 -11.680  0.195E-01  0.195E-01
 -11.670  0.212E-01  0.212E-01
 -11.660  0.230E-01  0.230E-01
 -11.650  0.248E-01  0.248E-01
 -11.640  0.262E-01  0.262E-01
 -11.630  0.271E-01  0.271E-01
 -11.620  0.274E-01  0.274E-01
 -11.610  0.270E-01  0.270E-01
 -11.600  0.260E-01  0.260E-01
 -11.590  0.244E-01  0.244E-01
 -11.580  0.227E-01  0.227E-01
 -11.570  0.212E-01  0.212E-01
 -11.560  0.200E-01  0.200E-01
 -11.550  0.194E-01  0.194E-01
 -11.540  0.194E-01  0.194E-01
 -11.530  0.198E-01  0.198E-01
 -11.520  0.204E-01  0.204E-01
 -11.510  0.208E-01  0.208E-01
 -11.500  0.208E-01  0.208E-01
 -11.490  0.203E-01  0.203E-01
 -11.480  0.192E-01  0.192E-01
 -11.470  0.178E-01  0.178E-01
 -11.460  0.163E-01  0.163E-01
 -11.450  0.153E-01  0.153E-01
 -11.440  0.152E-01  0.152E-01
 -11.430  0.161E-01  0.161E-01
 -11.420  0.180E-01  0.180E-01
 -11.410  0.209E-01  0.209E-01
 -11.400  0.242E-01  0.242E-01
 -11.390  0.274E-01  0.274E-01
 -11.380  0.299E-01  0.299E-01
 -11.370  0.314E-01  0.314E-01
 -11.360  0.316E-01  0.316E-01
 -11.350  0.305E-01  0.305E-01
 -11.340  0.284E-01  0.284E-01
 -11.330  0.258E-01  0.258E-01
 -11.320  0.228E-01  0.228E-01
 -11.310  0.201E-01  0.201E-01
 -11.300  0.179E-01  0.179E-01
 -11.290  0.163E-01  0.163E-01
 -11.280  0.156E-01  0.156E-01
 -11.270  0.159E-01  0.159E-01
 -11.260  0.169E-01  0.169E-01
 -11.250  0.186E-01  0.186E-01
 -11.240  0.206E-01  0.206E-01
 -11.230  0.225E-01  0.225E-01
 -11.220  0.239E-01  0.239E-01
 -11.210  0.243E-01  0.243E-01
 -11.200  0.236E-01  0.236E-01
 -11.190  0.217E-01  0.217E-01
 -11.180  0.190E-01  0.190E-01
 -11.170  0.157E-01  0.157E-01
 -11.160  0.127E-01  0.127E-01
 -11.150  0.104E-01  0.104E-01
 -11.140  0.929E-02  0.929E-02
 -11.130  0.959E-02  0.959E-02
 -11.120  0.112E-01  0.112E-01
 -11.110  0.140E-01  0.140E-01
 -11.100  0.175E-01  0.175E-01
 -11.090  0.211E-01  0.211E-01
 -11.080  0.246E-01  0.246E-01
 -11.070  0.275E-01  0.275E-01
 -11.060  0.298E-01  0.298E-01
 -11.050  0.314E-01  0.314E-01
 -11.040  0.324E-01  0.324E-01
 -11.030  0.329E-01  0.329E-01
 -11.020  0.330E-01  0.330E-01
 -11.010  0.327E-01  0.327E-01
 -11.000  0.318E-01  0.318E-01
 -10.990  0.302E-01  0.302E-01
 -10.980  0.278E-01  0.278E-01
 -10.970  0.246E-01  0.246E-01
 -10.960  0.208E-01  0.208E-01
 -10.950  0.168E-01  0.168E-01
 -10.940  0.130E-01  0.130E-01
 -10.930  0.972E-02  0.972E-02
 -10.920  0.731E-02  0.731E-02
 -10.910  0.586E-02  0.586E-02
 -10.900  0.529E-02  0.529E-02
 -10.890  0.541E-02  0.541E-02
 -10.880  0.602E-02  0.602E-02
 -10.870  0.694E-02  0.694E-02
 -10.860  0.810E-02  0.810E-02
 -10.850  0.959E-02  0.959E-02
 -10.840  0.116E-01  0.116E-01
 -10.830  0.142E-01  0.142E-01
 -10.820  0.176E-01  0.176E-01
 -10.810  0.218E-01  0.218E-01
 -10.800  0.265E-01  0.265E-01
 -10.790  0.315E-01  0.315E-01
 -10.780  0.363E-01  0.363E-01
 -10.770  0.403E-01  0.403E-01
 -10.760  0.429E-01  0.429E-01
 -10.750  0.438E-01  0.438E-01
 -10.740  0.427E-01  0.427E-01
 -10.730  0.397E-01  0.397E-01
 -10.720  0.349E-01  0.349E-01
 -10.710  0.288E-01  0.288E-01
 -10.700  0.220E-01  0.220E-01
 -10.690  0.153E-01  0.153E-01
 -10.680  0.910E-02  0.910E-02
 -10.670  0.402E-02  0.402E-02
 -10.660  0.345E-03  0.345E-03
 -10.650 -0.182E-02 -0.182E-02
 -10.640 -0.251E-02 -0.251E-02
 -10.630 -0.190E-02 -0.190E-02
 -10.620 -0.215E-03 -0.215E-03
 -10.610  0.230E-02  0.230E-02
 -10.600  0.541E-02  0.541E-02
 -10.590  0.888E-02  0.888E-02
 -10.580  0.125E-01  0.125E-01
 -10.570  0.160E-01  0.160E-01
 -10.560  0.191E-01  0.191E-01
 -10.550  0.219E-01  0.219E-01
 -10.540  0.242E-01  0.242E-01
 -10.530  0.261E-01  0.261E-01
 -10.520  0.279E-01  0.279E-01
 -10.510  0.299E-01  0.299E-01
 -10.500  0.322E-01  0.322E-01
 -10.490  0.349E-01  0.349E-01
 -10.480  0.378E-01  0.378E-01
 -10.470  0.406E-01  0.406E-01
 -10.460  0.426E-01  0.426E-01
 -10.450  0.431E-01  0.431E-01
 -10.440  0.417E-01  0.417E-01
 -10.430  0.382E-01  0.382E-01
 -10.420  0.328E-01  0.328E-01
 -10.410  0.260E-01  0.260E-01
 -10.400  0.186E-01  0.186E-01
 -10.390  0.115E-01  0.115E-01
 -10.380  0.531E-02  0.531E-02
 -10.370  0.538E-03  0.538E-03
 -10.360 -0.263E-02 -0.263E-02
 -10.350 -0.429E-02 -0.429E-02
 -10.340 -0.471E-02 -0.471E-02
 -10.330 -0.425E-02 -0.425E-02
 -10.320 -0.325E-02 -0.325E-02
 -10.310 -0.196E-02 -0.196E-02
 -10.300 -0.542E-03 -0.542E-03
 -10.290  0.983E-03  0.983E-03
 -10.280  0.267E-02  0.267E-02
 -10.270  0.461E-02  0.461E-02
 -10.260  0.694E-02  0.694E-02
 -10.250  0.972E-02  0.972E-02
 -10.240  0.130E-01  0.130E-01
 -10.230  0.167E-01  0.167E-01
 -10.220  0.208E-01  0.208E-01
 -10.210  0.250E-01  0.250E-01
 -10.200  0.293E-01  0.293E-01
 -10.190  0.335E-01  0.335E-01
 -10.180  0.375E-01  0.375E-01
 -10.170  0.412E-01  0.412E-01
 -10.160  0.445E-01  0.445E-01
 -10.150  0.471E-01  0.471E-01
 -10.140  0.488E-01  0.488E-01
 -10.130  0.491E-01  0.491E-01
 -10.120  0.478E-01  0.478E-01
 -10.110  0.446E-01  0.446E-01
 -10.100  0.396E-01  0.396E-01
 -10.090  0.331E-01  0.331E-01
 -10.080  0.256E-01  0.256E-01
 -10.070  0.179E-01  0.179E-01
 -10.060  0.107E-01  0.107E-01
 -10.050  0.458E-02  0.458E-02
 -10.040 -0.577E-04 -0.577E-04
 -10.030 -0.310E-02 -0.310E-02
 -10.020 -0.467E-02 -0.467E-02
 -10.010 -0.504E-02 -0.504E-02
 -10.000 -0.455E-02 -0.455E-02
  -9.990 -0.356E-02 -0.356E-02
  -9.980 -0.234E-02 -0.234E-02
  -9.970 -0.109E-02 -0.109E-02
  -9.960  0.945E-04  0.945E-04
  -9.950  0.121E-02  0.121E-02
  -9.940  0.231E-02  0.231E-02
  -9.930  0.352E-02  0.352E-02
  -9.920  0.498E-02  0.498E-02
  -9.910  0.687E-02  0.687E-02
  -9.900  0.932E-02  0.932E-02
  -9.890  0.124E-01  0.124E-01
  -9.880  0.162E-01  0.162E-01
  -9.870  0.205E-01  0.205E-01
  -9.860  0.251E-01  0.251E-01
  -9.850  0.298E-01  0.298E-01
  -9.840  0.341E-01  0.341E-01
  -9.830  0.377E-01  0.377E-01
  -9.820  0.402E-01  0.402E-01
  -9.810  0.413E-01  0.413E-01
  -9.800  0.409E-01  0.409E-01
  -9.790  0.389E-01  0.389E-01
  -9.780  0.354E-01  0.354E-01
  -9.770  0.308E-01  0.308E-01
  -9.760  0.255E-01  0.255E-01
  -9.750  0.201E-01  0.201E-01
  -9.740  0.153E-01  0.153E-01
  -9.730  0.115E-01  0.115E-01
  -9.720  0.917E-02  0.917E-02
  -9.710  0.848E-02  0.848E-02
  -9.700  0.929E-02  0.929E-02
  -9.690  0.113E-01  0.113E-01
  -9.680  0.138E-01  0.138E-01
  -9.670  0.163E-01  0.163E-01
  -9.660  0.182E-01  0.182E-01
  -9.650  0.190E-01  0.190E-01
  -9.640  0.185E-01  0.185E-01
  -9.630  0.166E-01  0.166E-01
  -9.620  0.138E-01  0.138E-01
  -9.610  0.105E-01  0.105E-01
  -9.600  0.715E-02  0.715E-02
  -9.590  0.426E-02  0.426E-02
  -9.580  0.224E-02  0.224E-02
  -9.570  0.130E-02  0.130E-02
  -9.560  0.156E-02  0.156E-02
  -9.550  0.299E-02  0.299E-02
  -9.540  0.550E-02  0.550E-02
  -9.530  0.895E-02  0.895E-02
  -9.520  0.132E-01  0.132E-01
  -9.510  0.179E-01  0.179E-01
  -9.500  0.229E-01  0.229E-01
  -9.490  0.278E-01  0.278E-01
  -9.480  0.321E-01  0.321E-01
  -9.470  0.355E-01  0.355E-01
  -9.460  0.375E-01  0.375E-01
  -9.450  0.379E-01  0.379E-01
  -9.440  0.366E-01  0.366E-01
  -9.430  0.335E-01  0.335E-01
  -9.420  0.291E-01  0.291E-01
  -9.410  0.237E-01  0.237E-01
  -9.400  0.179E-01  0.179E-01
  -9.390  0.122E-01  0.122E-01
  -9.380  0.708E-02  0.708E-02
  -9.370  0.293E-02  0.293E-02
  -9.360 -0.100E-03 -0.100E-03
  -9.350 -0.196E-02 -0.196E-02
  -9.340 -0.274E-02 -0.274E-02
  -9.330 -0.256E-02 -0.256E-02
  -9.320 -0.157E-02 -0.157E-02
  -9.310  0.773E-04  0.773E-04
  -9.300  0.230E-02  0.230E-02
  -9.290  0.501E-02  0.501E-02
  -9.280  0.812E-02  0.812E-02
  -9.270  0.115E-01  0.115E-01
  -9.260  0.149E-01  0.149E-01
  -9.250  0.181E-01  0.181E-01
  -9.240  0.207E-01  0.207E-01
  -9.230  0.225E-01  0.225E-01
  -9.220  0.232E-01  0.232E-01
  -9.210  0.230E-01  0.230E-01
  -9.200  0.219E-01  0.219E-01
  -9.190  0.205E-01  0.205E-01
  -9.180  0.191E-01  0.191E-01
  -9.170  0.184E-01  0.184E-01
  -9.160  0.188E-01  0.188E-01
  -9.150  0.204E-01  0.204E-01
  -9.140  0.231E-01  0.231E-01
  -9.130  0.265E-01  0.265E-01
  -9.120  0.302E-01  0.302E-01
  -9.110  0.334E-01  0.334E-01
  -9.100  0.356E-01  0.356E-01
  -9.090  0.362E-01  0.362E-01
  -9.080  0.351E-01  0.351E-01
  -9.070  0.322E-01  0.322E-01
  -9.060  0.279E-01  0.279E-01
  -9.050  0.227E-01  0.227E-01
  -9.040  0.171E-01  0.171E-01
  -9.030  0.118E-01  0.118E-01
  -9.020  0.703E-02  0.703E-02
  -9.010  0.327E-02  0.327E-02
  -9.000  0.577E-03  0.577E-03
  -8.990 -0.109E-02 -0.109E-02
  -8.980 -0.187E-02 -0.187E-02
  -8.970 -0.198E-02 -0.198E-02
  -8.960 -0.164E-02 -0.164E-02
  -8.950 -0.103E-02 -0.103E-02
  -8.940 -0.315E-03 -0.315E-03
  -8.930  0.427E-03  0.427E-03
  -8.920  0.115E-02  0.115E-02
  -8.910  0.188E-02  0.188E-02
  -8.900  0.268E-02  0.268E-02
  -8.890  0.365E-02  0.365E-02
  -8.880  0.491E-02  0.491E-02
  -8.870  0.656E-02  0.656E-02
  -8.860  0.865E-02  0.865E-02
  -8.850  0.111E-01  0.111E-01
  -8.840  0.139E-01  0.139E-01
  -8.830  0.168E-01  0.168E-01
  -8.820  0.195E-01  0.195E-01
  -8.810  0.216E-01  0.216E-01
  -8.800  0.231E-01  0.231E-01
  -8.790  0.239E-01  0.239E-01
  -8.780  0.240E-01  0.240E-01
  -8.770  0.236E-01  0.236E-01
  -8.760  0.230E-01  0.230E-01
  -8.750  0.225E-01  0.225E-01
  -8.740  0.221E-01  0.221E-01
  -8.730  0.220E-01  0.220E-01
  -8.720  0.220E-01  0.220E-01
  -8.710  0.221E-01  0.221E-01
  -8.700  0.220E-01  0.220E-01
  -8.690  0.219E-01  0.219E-01
  -8.680  0.217E-01  0.217E-01
  -8.670  0.215E-01  0.215E-01
  -8.660  0.215E-01  0.215E-01
  -8.650  0.215E-01  0.215E-01
  -8.640  0.216E-01  0.216E-01
  -8.630  0.214E-01  0.214E-01
  -8.620  0.208E-01  0.208E-01
  -8.610  0.195E-01  0.195E-01
  -8.600  0.175E-01  0.175E-01
  -8.590  0.148E-01  0.148E-01
  -8.580  0.117E-01  0.117E-01
  -8.570  0.850E-02  0.850E-02
  -8.560  0.553E-02  0.553E-02
  -8.550  0.306E-02  0.306E-02
  -8.540  0.124E-02  0.124E-02
  -8.530  0.117E-03  0.117E-03
  -8.520 -0.354E-03 -0.354E-03
  -8.510 -0.259E-03 -0.259E-03
  -8.500  0.311E-03  0.311E-03
  -8.490  0.129E-02  0.129E-02
  -8.480  0.266E-02  0.266E-02
  -8.470  0.441E-02  0.441E-02
  -8.460  0.655E-02  0.655E-02
  -8.450  0.908E-02  0.908E-02
  -8.440  0.119E-01  0.119E-01
  -8.430  0.149E-01  0.149E-01
  -8.420  0.179E-01  0.179E-01
  -8.410  0.206E-01  0.206E-01
  -8.400  0.227E-01  0.227E-01
  -8.390  0.240E-01  0.240E-01
  -8.380  0.244E-01  0.244E-01
  -8.370  0.237E-01  0.237E-01
  -8.360  0.222E-01  0.222E-01
  -8.350  0.199E-01  0.199E-01
  -8.340  0.171E-01  0.171E-01
  -8.330  0.142E-01  0.142E-01
  -8.320  0.114E-01  0.114E-01
  -8.310  0.888E-02  0.888E-02
  -8.300  0.680E-02  0.680E-02
  -8.290  0.520E-02  0.520E-02
  -8.280  0.409E-02  0.409E-02
  -8.270  0.342E-02  0.342E-02
  -8.260  0.314E-02  0.314E-02
  -8.250  0.323E-02  0.323E-02
  -8.240  0.369E-02  0.369E-02
  -8.230  0.456E-02  0.456E-02
  -8.220  0.588E-02  0.588E-02
  -8.210  0.766E-02  0.766E-02
  -8.200  0.986E-02  0.986E-02
  -8.190  0.124E-01  0.124E-01
  -8.180  0.150E-01  0.150E-01
  -8.170  0.173E-01  0.173E-01
  -8.160  0.192E-01  0.192E-01
  -8.150  0.202E-01  0.202E-01
  -8.140  0.203E-01  0.203E-01
  -8.130  0.196E-01  0.196E-01
  -8.120  0.182E-01  0.182E-01
  -8.110  0.165E-01  0.165E-01
  -8.100  0.150E-01  0.150E-01
  -8.090  0.140E-01  0.140E-01
  -8.080  0.137E-01  0.137E-01
  -8.070  0.143E-01  0.143E-01
  -8.060  0.157E-01  0.157E-01
  -8.050  0.175E-01  0.175E-01
  -8.040  0.195E-01  0.195E-01
  -8.030  0.212E-01  0.212E-01
  -8.020  0.223E-01  0.223E-01
  -8.010  0.227E-01  0.227E-01
  -8.000  0.220E-01  0.220E-01
  -7.990  0.204E-01  0.204E-01
  -7.980  0.180E-01  0.180E-01
  -7.970  0.149E-01  0.149E-01
  -7.960  0.115E-01  0.115E-01
  -7.950  0.805E-02  0.805E-02
  -7.940  0.497E-02  0.497E-02
  -7.930  0.244E-02  0.244E-02
  -7.920  0.593E-03  0.593E-03
  -7.910 -0.554E-03 -0.554E-03
  -7.900 -0.107E-02 -0.107E-02
  -7.890 -0.109E-02 -0.109E-02
  -7.880 -0.758E-03 -0.758E-03
  -7.870 -0.212E-03 -0.212E-03
  -7.860  0.436E-03  0.436E-03
  -7.850  0.111E-02  0.111E-02
  -7.840  0.176E-02  0.176E-02
  -7.830  0.237E-02  0.237E-02
  -7.820  0.296E-02  0.296E-02
  -7.810  0.356E-02  0.356E-02
  -7.800  0.424E-02  0.424E-02
  -7.790  0.507E-02  0.507E-02
  -7.780  0.615E-02  0.615E-02
  -7.770  0.752E-02  0.752E-02
  -7.760  0.922E-02  0.922E-02
  -7.750  0.112E-01  0.112E-01
  -7.740  0.132E-01  0.132E-01
  -7.730  0.152E-01  0.152E-01
  -7.720  0.169E-01  0.169E-01
  -7.710  0.180E-01  0.180E-01
  -7.700  0.184E-01  0.184E-01
  -7.690  0.181E-01  0.181E-01
  -7.680  0.171E-01  0.171E-01
  -7.670  0.157E-01  0.157E-01
  -7.660  0.142E-01  0.142E-01
  -7.650  0.127E-01  0.127E-01
  -7.640  0.114E-01  0.114E-01
  -7.630  0.105E-01  0.105E-01
  -7.620  0.100E-01  0.100E-01
  -7.610  0.992E-02  0.992E-02
  -7.600  0.102E-01  0.102E-01
  -7.590  0.107E-01  0.107E-01
  -7.580  0.116E-01  0.116E-01
  -7.570  0.127E-01  0.127E-01
  -7.560  0.139E-01  0.139E-01
  -7.550  0.150E-01  0.150E-01
  -7.540  0.158E-01  0.158E-01
  -7.530  0.160E-01  0.160E-01
  -7.520  0.154E-01  0.154E-01
  -7.510  0.141E-01  0.141E-01
  -7.500  0.121E-01  0.121E-01
  -7.490  0.963E-02  0.963E-02
  -7.480  0.697E-02  0.697E-02
  -7.470  0.443E-02  0.443E-02
  -7.460  0.227E-02  0.227E-02
  -7.450  0.641E-03  0.641E-03
  -7.440 -0.401E-03 -0.401E-03
  -7.430 -0.881E-03 -0.881E-03
  -7.420 -0.876E-03 -0.876E-03
  -7.410 -0.469E-03 -0.469E-03
  -7.400  0.271E-03  0.271E-03
  -7.390  0.131E-02  0.131E-02
  -7.380  0.262E-02  0.262E-02
  -7.370  0.422E-02  0.422E-02
  -7.360  0.607E-02  0.607E-02
  -7.350  0.810E-02  0.810E-02
  -7.340  0.102E-01  0.102E-01
  -7.330  0.122E-01  0.122E-01
  -7.320  0.138E-01  0.138E-01
  -7.310  0.148E-01  0.148E-01
  -7.300  0.150E-01  0.150E-01
  -7.290  0.144E-01  0.144E-01
  -7.280  0.130E-01  0.130E-01
  -7.270  0.110E-01  0.110E-01
  -7.260  0.849E-02  0.849E-02
  -7.250  0.594E-02  0.594E-02
  -7.240  0.358E-02  0.358E-02
  -7.230  0.164E-02  0.164E-02
  -7.220  0.234E-03  0.234E-03
  -7.210 -0.613E-03 -0.613E-03
  -7.200 -0.961E-03 -0.961E-03
  -7.190 -0.910E-03 -0.910E-03
  -7.180 -0.562E-03 -0.562E-03
  -7.170  0.302E-05  0.302E-05
  -7.160  0.747E-03  0.747E-03
  -7.150  0.167E-02  0.167E-02
  -7.140  0.280E-02  0.280E-02
  -7.130  0.418E-02  0.418E-02
  -7.120  0.581E-02  0.581E-02
  -7.110  0.766E-02  0.766E-02
  -7.100  0.964E-02  0.964E-02
  -7.090  0.116E-01  0.116E-01
  -7.080  0.133E-01  0.133E-01
  -7.070  0.146E-01  0.146E-01
  -7.060  0.153E-01  0.153E-01
  -7.050  0.153E-01  0.153E-01
  -7.040  0.148E-01  0.148E-01
  -7.030  0.138E-01  0.138E-01
  -7.020  0.127E-01  0.127E-01
  -7.010  0.117E-01  0.117E-01
  -7.000  0.110E-01  0.110E-01
  -6.990  0.107E-01  0.107E-01
  -6.980  0.108E-01  0.108E-01
  -6.970  0.110E-01  0.110E-01
  -6.960  0.113E-01  0.113E-01
  -6.950  0.112E-01  0.112E-01
  -6.940  0.106E-01  0.106E-01
  -6.930  0.958E-02  0.958E-02
  -6.920  0.804E-02  0.804E-02
  -6.910  0.618E-02  0.618E-02
  -6.900  0.422E-02  0.422E-02
  -6.890  0.238E-02  0.238E-02
  -6.880  0.836E-03  0.836E-03
  -6.870 -0.317E-03 -0.317E-03
  -6.860 -0.105E-02 -0.105E-02
  -6.850 -0.140E-02 -0.140E-02
  -6.840 -0.144E-02 -0.144E-02
  -6.830 -0.128E-02 -0.128E-02
  -6.820 -0.100E-02 -0.100E-02
  -6.810 -0.678E-03 -0.678E-03
  -6.800 -0.347E-03 -0.347E-03
  -6.790 -0.263E-04 -0.263E-04
  -6.780  0.287E-03  0.287E-03
  -6.770  0.616E-03  0.616E-03
  -6.760  0.996E-03  0.996E-03
  -6.750  0.147E-02  0.147E-02
  -6.740  0.209E-02  0.209E-02
  -6.730  0.291E-02  0.291E-02
  -6.720  0.395E-02  0.395E-02
  -6.710  0.522E-02  0.522E-02
  -6.700  0.667E-02  0.667E-02
  -6.690  0.822E-02  0.822E-02
  -6.680  0.970E-02  0.970E-02
  -6.670  0.109E-01  0.109E-01
  -6.660  0.117E-01  0.117E-01
  -6.650  0.119E-01  0.119E-01
  -6.640  0.114E-01  0.114E-01
  -6.630  0.102E-01  0.102E-01
  -6.620  0.854E-02  0.854E-02
  -6.610  0.656E-02  0.656E-02
  -6.600  0.455E-02  0.455E-02
  -6.590  0.278E-02  0.278E-02
  -6.580  0.146E-02  0.146E-02
  -6.570  0.741E-03  0.741E-03
  -6.560  0.665E-03  0.665E-03
  -6.550  0.121E-02  0.121E-02
  -6.540  0.230E-02  0.230E-02
  -6.530  0.379E-02  0.379E-02
  -6.520  0.549E-02  0.549E-02
  -6.510  0.722E-02  0.722E-02
  -6.500  0.876E-02  0.876E-02
  -6.490  0.990E-02  0.990E-02
  -6.480  0.105E-01  0.105E-01
  -6.470  0.104E-01  0.104E-01
  -6.460  0.969E-02  0.969E-02
  -6.450  0.843E-02  0.843E-02
  -6.440  0.680E-02  0.680E-02
  -6.430  0.505E-02  0.505E-02
  -6.420  0.341E-02  0.341E-02
  -6.410  0.208E-02  0.208E-02
  -6.400  0.120E-02  0.120E-02
  -6.390  0.808E-03  0.808E-03
  -6.380  0.873E-03  0.873E-03
  -6.370  0.131E-02  0.131E-02
  -6.360  0.199E-02  0.199E-02
  -6.350  0.277E-02  0.277E-02
  -6.340  0.353E-02  0.353E-02
  -6.330  0.414E-02  0.414E-02
  -6.320  0.451E-02  0.451E-02
  -6.310  0.459E-02  0.459E-02
  -6.300  0.436E-02  0.436E-02
  -6.290  0.386E-02  0.386E-02
  -6.280  0.315E-02  0.315E-02
  -6.270  0.233E-02  0.233E-02
  -6.260  0.150E-02  0.150E-02
  -6.250  0.753E-03  0.753E-03
  -6.240  0.161E-03  0.161E-03
  -6.230 -0.248E-03 -0.248E-03
  -6.220 -0.470E-03 -0.470E-03
  -6.210 -0.526E-03 -0.526E-03
  -6.200 -0.443E-03 -0.443E-03
  -6.190 -0.246E-03 -0.246E-03
  -6.180  0.539E-04  0.539E-04
  -6.170  0.462E-03  0.462E-03
  -6.160  0.999E-03  0.999E-03
  -6.150  0.169E-02  0.169E-02
  -6.140  0.254E-02  0.254E-02
  -6.130  0.357E-02  0.357E-02
  -6.120  0.471E-02  0.471E-02
  -6.110  0.591E-02  0.591E-02
  -6.100  0.705E-02  0.705E-02
  -6.090  0.799E-02  0.799E-02
  -6.080  0.862E-02  0.862E-02
  -6.070  0.886E-02  0.886E-02
  -6.060  0.867E-02  0.867E-02
  -6.050  0.811E-02  0.811E-02
  -6.040  0.728E-02  0.728E-02
  -6.030  0.631E-02  0.631E-02
  -6.020  0.536E-02  0.536E-02
  -6.010  0.451E-02  0.451E-02
  -6.000  0.383E-02  0.383E-02
  -5.990  0.331E-02  0.331E-02
  -5.980  0.289E-02  0.289E-02
  -5.970  0.251E-02  0.251E-02
  -5.960  0.211E-02  0.211E-02
  -5.950  0.167E-02  0.167E-02
  -5.940  0.119E-02  0.119E-02
  -5.930  0.715E-03  0.715E-03
  -5.920  0.284E-03  0.284E-03
  -5.910 -0.582E-04 -0.582E-04
  -5.900 -0.281E-03 -0.281E-03
  -5.890 -0.375E-03 -0.375E-03
  -5.880 -0.345E-03 -0.345E-03
  -5.870 -0.205E-03 -0.205E-03
  -5.860  0.284E-04  0.284E-04
  -5.850  0.342E-03  0.342E-03
  -5.840  0.724E-03  0.724E-03
  -5.830  0.116E-02  0.116E-02
  -5.820  0.163E-02  0.163E-02
  -5.810  0.211E-02  0.211E-02
  -5.800  0.255E-02  0.255E-02
  -5.790  0.290E-02  0.290E-02
  -5.780  0.311E-02  0.311E-02
  -5.770  0.315E-02  0.315E-02
  -5.760  0.300E-02  0.300E-02
  -5.750  0.268E-02  0.268E-02
  -5.740  0.223E-02  0.223E-02
  -5.730  0.171E-02  0.171E-02
  -5.720  0.122E-02  0.122E-02
  -5.710  0.813E-03  0.813E-03
  -5.700  0.562E-03  0.562E-03
  -5.690  0.507E-03  0.507E-03
  -5.680  0.666E-03  0.666E-03
  -5.670  0.103E-02  0.103E-02
  -5.660  0.158E-02  0.158E-02
  -5.650  0.225E-02  0.225E-02
  -5.640  0.297E-02  0.297E-02
  -5.630  0.367E-02  0.367E-02
  -5.620  0.424E-02  0.424E-02
  -5.610  0.460E-02  0.460E-02
  -5.600  0.469E-02  0.469E-02
  -5.590  0.449E-02  0.449E-02
  -5.580  0.402E-02  0.402E-02
  -5.570  0.333E-02  0.333E-02
  -5.560  0.251E-02  0.251E-02
  -5.550  0.168E-02  0.168E-02
  -5.540  0.923E-03  0.923E-03
  -5.530  0.308E-03  0.308E-03
  -5.520 -0.129E-03 -0.129E-03
  -5.510 -0.388E-03 -0.388E-03
  -5.500 -0.495E-03 -0.495E-03
  -5.490 -0.490E-03 -0.490E-03
  -5.480 -0.415E-03 -0.415E-03
  -5.470 -0.302E-03 -0.302E-03
  -5.460 -0.175E-03 -0.175E-03
  -5.450 -0.412E-04 -0.412E-04
  -5.440  0.987E-04  0.987E-04
  -5.430  0.251E-03  0.251E-03
  -5.420  0.422E-03  0.422E-03
  -5.410  0.614E-03  0.614E-03
  -5.400  0.823E-03  0.823E-03
  -5.390  0.104E-02  0.104E-02
  -5.380  0.124E-02  0.124E-02
  -5.370  0.141E-02  0.141E-02
  -5.360  0.154E-02  0.154E-02
  -5.350  0.160E-02  0.160E-02
  -5.340  0.159E-02  0.159E-02
  -5.330  0.154E-02  0.154E-02
  -5.320  0.145E-02  0.145E-02
  -5.310  0.134E-02  0.134E-02
  -5.300  0.124E-02  0.124E-02
  -5.290  0.116E-02  0.116E-02
  -5.280  0.109E-02  0.109E-02
  -5.270  0.102E-02  0.102E-02
  -5.260  0.945E-03  0.945E-03
  -5.250  0.845E-03  0.845E-03
  -5.240  0.718E-03  0.718E-03
  -5.230  0.566E-03  0.566E-03
  -5.220  0.402E-03  0.402E-03
  -5.210  0.244E-03  0.244E-03
  -5.200  0.107E-03  0.107E-03
  -5.190  0.634E-05  0.634E-05
  -5.180 -0.522E-04 -0.522E-04
  -5.170 -0.679E-04 -0.679E-04
  -5.160 -0.461E-04 -0.461E-04
  -5.150  0.482E-05  0.482E-05
  -5.140  0.744E-04  0.744E-04
  -5.130  0.152E-03  0.152E-03
  -5.120  0.228E-03  0.228E-03
  -5.110  0.294E-03  0.294E-03
  -5.100  0.341E-03  0.341E-03
  -5.090  0.365E-03  0.365E-03
  -5.080  0.363E-03  0.363E-03
  -5.070  0.335E-03  0.335E-03
  -5.060  0.287E-03  0.287E-03
  -5.050  0.225E-03  0.225E-03
  -5.040  0.158E-03  0.158E-03
  -5.030  0.932E-04  0.932E-04
  -5.020  0.380E-04  0.380E-04
  -5.010 -0.368E-05 -0.368E-05
  -5.000 -0.307E-04 -0.307E-04
  -4.990 -0.444E-04 -0.444E-04
  -4.980 -0.475E-04 -0.475E-04
  -4.970 -0.437E-04 -0.437E-04
  -4.960 -0.362E-04 -0.362E-04
  -4.950 -0.276E-04 -0.276E-04
  -4.940 -0.196E-04 -0.196E-04
  -4.930 -0.131E-04 -0.131E-04
  -4.920 -0.824E-05 -0.824E-05
  -4.910 -0.491E-05 -0.491E-05
  -4.900 -0.277E-05 -0.277E-05
  -4.890 -0.149E-05 -0.149E-05
  -4.880 -0.759E-06 -0.759E-06
  -4.870 -0.369E-06 -0.369E-06
  -4.860 -0.171E-06 -0.171E-06
  -4.850 -0.754E-07 -0.754E-07
  -4.840 -0.318E-07 -0.318E-07
  -4.830 -0.128E-07 -0.128E-07
  -4.820 -0.490E-08 -0.490E-08
  -4.810 -0.179E-08 -0.179E-08
  -4.800 -0.625E-09 -0.625E-09
  -4.790 -0.206E-09 -0.206E-09
  -4.780 -0.613E-10 -0.613E-10
  -4.770 -0.132E-10 -0.132E-10
  -4.760  0.305E-11  0.305E-11
  -4.750  0.108E-10  0.108E-10
  -4.740  0.125E-10  0.125E-10
  -4.730  0.139E-10  0.139E-10
  -4.720  0.147E-10  0.147E-10
  -4.710  0.148E-10  0.148E-10
  -4.700  0.141E-10  0.141E-10
  -4.690  0.126E-10  0.126E-10
  -4.680  0.106E-10  0.106E-10
  -4.670  0.822E-11  0.822E-11
  -4.660  0.586E-11  0.586E-11
  -4.650  0.375E-11  0.375E-11
  -4.640  0.209E-11  0.209E-11
  -4.630  0.958E-12  0.958E-12
  -4.620  0.335E-12  0.335E-12
  -4.610  0.129E-12  0.129E-12
  -4.600  0.208E-12  0.208E-12
  -4.590  0.436E-12  0.436E-12
  -4.580  0.698E-12  0.698E-12
  -4.570  0.918E-12  0.918E-12
  -4.560  0.105E-11  0.105E-11
  -4.550  0.110E-11  0.110E-11
  -4.540  0.107E-11  0.107E-11
  -4.530  0.995E-12  0.995E-12
  -4.520  0.900E-12  0.900E-12
  -4.510  0.820E-12  0.820E-12
  -4.500  0.787E-12  0.787E-12
  -4.490  0.834E-12  0.834E-12
  -4.480  0.996E-12  0.996E-12
  -4.470  0.131E-11  0.131E-11
  -4.460  0.182E-11  0.182E-11
  -4.450  0.258E-11  0.258E-11
  -4.440  0.364E-11  0.364E-11
  -4.430  0.504E-11  0.504E-11
  -4.420  0.680E-11  0.680E-11
  -4.410  0.890E-11  0.890E-11
  -4.400  0.112E-10  0.112E-10
  -4.390  0.137E-10  0.137E-10
  -4.380  0.160E-10  0.160E-10
  -4.370  0.180E-10  0.180E-10
  -4.360  0.192E-10  0.192E-10
  -4.350  0.196E-10  0.196E-10
  -4.340  0.191E-10  0.191E-10
  -4.330  0.175E-10  0.175E-10
  -4.320  0.152E-10  0.152E-10
  -4.310  0.123E-10  0.123E-10
  -4.300  0.933E-11  0.933E-11
  -4.290  0.650E-11  0.650E-11
  -4.280  0.410E-11  0.410E-11
  -4.270  0.225E-11  0.225E-11
  -4.260  0.101E-11  0.101E-11
  -4.250  0.296E-12  0.296E-12
  -4.240  0.307E-13  0.307E-13
  -4.230  0.118E-12  0.118E-12
  -4.220  0.502E-12  0.502E-12
  -4.210  0.118E-11  0.118E-11
  -4.200  0.219E-11  0.219E-11
  -4.190  0.363E-11  0.363E-11
  -4.180  0.559E-11  0.559E-11
  -4.170  0.815E-11  0.815E-11
  -4.160  0.113E-10  0.113E-10
  -4.150  0.151E-10  0.151E-10
  -4.140  0.193E-10  0.193E-10
  -4.130  0.237E-10  0.237E-10
  -4.120  0.278E-10  0.278E-10
  -4.110  0.312E-10  0.312E-10
  -4.100  0.336E-10  0.336E-10
  -4.090  0.346E-10  0.346E-10
  -4.080  0.341E-10  0.341E-10
  -4.070  0.321E-10  0.321E-10
  -4.060  0.289E-10  0.289E-10
  -4.050  0.247E-10  0.247E-10
  -4.040  0.200E-10  0.200E-10
  -4.030  0.153E-10  0.153E-10
  -4.020  0.108E-10  0.108E-10
  -4.010  0.697E-11  0.697E-11
  -4.000  0.386E-11  0.386E-11
  -3.990  0.160E-11  0.160E-11
  -3.980  0.163E-12  0.163E-12
  -3.970 -0.496E-12 -0.496E-12
  -3.960 -0.478E-12 -0.478E-12
  -3.950  0.986E-13  0.986E-13
  -3.940  0.110E-11  0.110E-11
  -3.930  0.241E-11  0.241E-11
  -3.920  0.389E-11  0.389E-11
  -3.910  0.546E-11  0.546E-11
  -3.900  0.702E-11  0.702E-11
  -3.890  0.854E-11  0.854E-11
  -3.880  0.100E-10  0.100E-10
  -3.870  0.114E-10  0.114E-10
  -3.860  0.127E-10  0.127E-10
  -3.850  0.139E-10  0.139E-10
  -3.840  0.148E-10  0.148E-10
  -3.830  0.154E-10  0.154E-10
  -3.820  0.156E-10  0.156E-10
  -3.810  0.153E-10  0.153E-10
  -3.800  0.146E-10  0.146E-10
  -3.790  0.136E-10  0.136E-10
  -3.780  0.127E-10  0.127E-10
  -3.770  0.124E-10  0.124E-10
  -3.760  0.133E-10  0.133E-10
  -3.750  0.159E-10  0.159E-10
  -3.740  0.207E-10  0.207E-10
  -3.730  0.277E-10  0.277E-10
  -3.720  0.368E-10  0.368E-10
  -3.710  0.473E-10  0.473E-10
  -3.700  0.581E-10  0.581E-10
  -3.690  0.679E-10  0.679E-10
  -3.680  0.752E-10  0.752E-10
  -3.670  0.788E-10  0.788E-10
  -3.660  0.776E-10  0.776E-10
  -3.650  0.718E-10  0.718E-10
  -3.640  0.617E-10  0.617E-10
  -3.630  0.488E-10  0.488E-10
  -3.620  0.347E-10  0.347E-10
  -3.610  0.211E-10  0.211E-10
  -3.600  0.928E-11  0.928E-11
  -3.590  0.251E-12  0.251E-12
  -3.580 -0.573E-11 -0.573E-11
  -3.570 -0.889E-11 -0.889E-11
  -3.560 -0.979E-11 -0.979E-11
  -3.550 -0.916E-11 -0.916E-11
  -3.540 -0.769E-11 -0.769E-11
  -3.530 -0.594E-11 -0.594E-11
  -3.520 -0.428E-11 -0.428E-11
  -3.510 -0.290E-11 -0.290E-11
  -3.500 -0.185E-11 -0.185E-11
  -3.490 -0.112E-11 -0.112E-11
  -3.480 -0.647E-12 -0.647E-12
  -3.470 -0.356E-12 -0.356E-12
  -3.460 -0.187E-12 -0.187E-12
  -3.450 -0.944E-13 -0.944E-13
  -3.440 -0.457E-13 -0.457E-13
  -3.430 -0.212E-13 -0.212E-13
  -3.420 -0.952E-14 -0.952E-14
  -3.410 -0.412E-14 -0.412E-14
  -3.400 -0.172E-14 -0.172E-14
  -3.390 -0.696E-15 -0.696E-15
  -3.380 -0.273E-15 -0.273E-15
  -3.370 -0.104E-15 -0.104E-15
  -3.360 -0.381E-16 -0.381E-16
  -3.350 -0.136E-16 -0.136E-16
  -3.340 -0.469E-17 -0.469E-17
  -3.330 -0.117E-17 -0.117E-17
  -3.320 -0.399E-18 -0.399E-18
  -3.310 -0.130E-18 -0.130E-18
  -3.300 -0.403E-19 -0.403E-19
  -3.290 -0.120E-19 -0.120E-19
  -3.280 -0.340E-20 -0.340E-20
  -3.270  0.000E+00  0.000E+00
  -3.260  0.000E+00  0.000E+00
  -3.250  0.000E+00  0.000E+00
  -3.240  0.000E+00  0.000E+00
  -3.230  0.000E+00  0.000E+00
  -3.220  0.000E+00  0.000E+00
  -3.210  0.000E+00  0.000E+00
  -3.200  0.000E+00  0.000E+00
  -3.190  0.000E+00  0.000E+00
  -3.180  0.000E+00  0.000E+00
  -3.170  0.000E+00  0.000E+00
  -3.160  0.000E+00  0.000E+00
  -3.150  0.000E+00  0.000E+00
  -3.140  0.000E+00  0.000E+00
  -3.130  0.000E+00  0.000E+00
  -3.120  0.000E+00  0.000E+00
  -3.110  0.000E+00  0.000E+00
  -3.100  0.000E+00  0.000E+00
  -3.090  0.000E+00  0.000E+00
  -3.080  0.000E+00  0.000E+00
  -3.070  0.000E+00  0.000E+00
  -3.060  0.000E+00  0.000E+00
  -3.050  0.000E+00  0.000E+00
  -3.040  0.000E+00  0.000E+00
  -3.030  0.000E+00  0.000E+00
  -3.020  0.000E+00  0.000E+00
  -3.010  0.000E+00  0.000E+00
  -3.000  0.000E+00  0.000E+00
  -2.990  0.000E+00  0.000E+00
  -2.980  0.000E+00  0.000E+00
  -2.970  0.000E+00  0.000E+00
  -2.960  0.000E+00  0.000E+00
  -2.950  0.000E+00  0.000E+00
  -2.940  0.000E+00  0.000E+00
  -2.930  0.000E+00  0.000E+00
  -2.920  0.000E+00  0.000E+00
  -2.910  0.000E+00  0.000E+00
  -2.900  0.000E+00  0.000E+00
  -2.890  0.000E+00  0.000E+00
  -2.880  0.000E+00  0.000E+00
  -2.870  0.000E+00  0.000E+00
  -2.860  0.000E+00  0.000E+00
  -2.850  0.000E+00  0.000E+00
  -2.840  0.000E+00  0.000E+00
  -2.830  0.000E+00  0.000E+00
  -2.820  0.000E+00  0.000E+00
  -2.810  0.000E+00  0.000E+00
  -2.800  0.000E+00  0.000E+00
  -2.790  0.000E+00  0.000E+00
  -2.780  0.000E+00  0.000E+00
  -2.770  0.000E+00  0.000E+00
  -2.760  0.000E+00  0.000E+00
  -2.750  0.000E+00  0.000E+00
  -2.740  0.000E+00  0.000E+00
  -2.730  0.000E+00  0.000E+00
  -2.720  0.000E+00  0.000E+00
  -2.710  0.000E+00  0.000E+00
  -2.700  0.000E+00  0.000E+00
  -2.690  0.000E+00  0.000E+00
  -2.680  0.000E+00  0.000E+00
  -2.670  0.000E+00  0.000E+00
  -2.660  0.000E+00  0.000E+00
  -2.650  0.000E+00  0.000E+00
  -2.640  0.000E+00  0.000E+00
  -2.630  0.000E+00  0.000E+00
  -2.620  0.000E+00  0.000E+00
  -2.610  0.000E+00  0.000E+00
  -2.600  0.000E+00  0.000E+00
  -2.590  0.000E+00  0.000E+00
  -2.580  0.000E+00  0.000E+00
  -2.570  0.000E+00  0.000E+00
  -2.560  0.000E+00  0.000E+00
  -2.550  0.000E+00  0.000E+00
  -2.540  0.000E+00  0.000E+00
  -2.530  0.000E+00  0.000E+00
  -2.520  0.000E+00  0.000E+00
  -2.510  0.000E+00  0.000E+00
  -2.500  0.000E+00  0.000E+00
  -2.490  0.000E+00  0.000E+00
  -2.480  0.000E+00  0.000E+00
  -2.470  0.000E+00  0.000E+00
  -2.460  0.000E+00  0.000E+00
  -2.450  0.000E+00  0.000E+00
  -2.440  0.000E+00  0.000E+00
  -2.430  0.000E+00  0.000E+00
  -2.420  0.000E+00  0.000E+00
  -2.410  0.000E+00  0.000E+00
  -2.400  0.000E+00  0.000E+00
  -2.390  0.000E+00  0.000E+00
  -2.380  0.000E+00  0.000E+00
  -2.370  0.000E+00  0.000E+00
  -2.360  0.000E+00  0.000E+00
  -2.350  0.000E+00  0.000E+00
  -2.340  0.000E+00  0.000E+00
  -2.330  0.000E+00  0.000E+00
  -2.320  0.000E+00  0.000E+00
  -2.310  0.000E+00  0.000E+00
  -2.300  0.000E+00  0.000E+00
  -2.290  0.000E+00  0.000E+00
  -2.280  0.000E+00  0.000E+00
  -2.270  0.000E+00  0.000E+00
  -2.260  0.000E+00  0.000E+00
  -2.250  0.000E+00  0.000E+00
  -2.240  0.000E+00  0.000E+00
  -2.230  0.000E+00  0.000E+00
  -2.220  0.000E+00  0.000E+00
  -2.210  0.000E+00  0.000E+00
  -2.200  0.000E+00  0.000E+00
  -2.190  0.000E+00  0.000E+00
  -2.180  0.000E+00  0.000E+00
  -2.170  0.000E+00  0.000E+00
  -2.160  0.000E+00  0.000E+00
  -2.150  0.000E+00  0.000E+00
  -2.140  0.000E+00  0.000E+00
  -2.130  0.000E+00  0.000E+00
  -2.120  0.000E+00  0.000E+00
  -2.110  0.000E+00  0.000E+00
  -2.100  0.000E+00  0.000E+00
  -2.090  0.000E+00  0.000E+00
  -2.080  0.000E+00  0.000E+00
  -2.070  0.000E+00  0.000E+00
  -2.060  0.000E+00  0.000E+00
  -2.050  0.000E+00  0.000E+00
  -2.040  0.000E+00  0.000E+00
  -2.030  0.000E+00  0.000E+00
  -2.020  0.000E+00  0.000E+00
  -2.010  0.000E+00  0.000E+00
  -2.000  0.000E+00  0.000E+00
  -1.990  0.000E+00  0.000E+00
  -1.980  0.000E+00  0.000E+00
  -1.970  0.000E+00  0.000E+00
  -1.960  0.000E+00  0.000E+00
  -1.950  0.000E+00  0.000E+00
  -1.940  0.000E+00  0.000E+00
  -1.930  0.000E+00  0.000E+00
  -1.920  0.000E+00  0.000E+00
  -1.910  0.000E+00  0.000E+00
  -1.900  0.000E+00  0.000E+00
  -1.890  0.000E+00  0.000E+00
  -1.880  0.000E+00  0.000E+00
  -1.870  0.000E+00  0.000E+00
  -1.860  0.000E+00  0.000E+00
  -1.850  0.000E+00  0.000E+00
  -1.840  0.000E+00  0.000E+00
  -1.830  0.000E+00  0.000E+00
  -1.820  0.000E+00  0.000E+00
  -1.810  0.000E+00  0.000E+00
  -1.800  0.000E+00  0.000E+00
  -1.790  0.000E+00  0.000E+00
  -1.780  0.000E+00  0.000E+00
  -1.770  0.000E+00  0.000E+00
  -1.760  0.000E+00  0.000E+00
  -1.750  0.000E+00  0.000E+00
  -1.740  0.000E+00  0.000E+00
  -1.730  0.000E+00  0.000E+00
  -1.720  0.000E+00  0.000E+00
  -1.710  0.000E+00  0.000E+00
  -1.700  0.000E+00  0.000E+00
  -1.690  0.000E+00  0.000E+00
  -1.680  0.000E+00  0.000E+00
  -1.670  0.000E+00  0.000E+00
  -1.660  0.000E+00  0.000E+00
  -1.650  0.000E+00  0.000E+00
  -1.640  0.000E+00  0.000E+00
  -1.630  0.000E+00  0.000E+00
  -1.620  0.000E+00  0.000E+00
  -1.610  0.000E+00  0.000E+00
  -1.600  0.000E+00  0.000E+00
  -1.590  0.000E+00  0.000E+00
  -1.580  0.000E+00  0.000E+00
  -1.570  0.000E+00  0.000E+00
  -1.560  0.000E+00  0.000E+00
  -1.550  0.000E+00  0.000E+00
  -1.540  0.000E+00  0.000E+00
  -1.530  0.000E+00  0.000E+00
  -1.520  0.000E+00  0.000E+00
  -1.510  0.000E+00  0.000E+00
  -1.500  0.000E+00  0.000E+00
  -1.490  0.000E+00  0.000E+00
  -1.480  0.000E+00  0.000E+00
  -1.470  0.000E+00  0.000E+00
  -1.460  0.000E+00  0.000E+00
  -1.450  0.000E+00  0.000E+00
  -1.440  0.000E+00  0.000E+00
  -1.430  0.000E+00  0.000E+00
  -1.420  0.000E+00  0.000E+00
  -1.410  0.000E+00  0.000E+00
  -1.400  0.000E+00  0.000E+00
  -1.390  0.000E+00  0.000E+00
  -1.380  0.000E+00  0.000E+00
  -1.370  0.000E+00  0.000E+00
  -1.360  0.000E+00  0.000E+00
  -1.350  0.000E+00  0.000E+00
  -1.340  0.000E+00  0.000E+00
  -1.330  0.000E+00  0.000E+00
  -1.320  0.000E+00  0.000E+00
  -1.310  0.000E+00  0.000E+00
  -1.300  0.000E+00  0.000E+00
  -1.290  0.000E+00  0.000E+00
  -1.280  0.000E+00  0.000E+00
  -1.270  0.000E+00  0.000E+00
  -1.260  0.000E+00  0.000E+00
  -1.250  0.000E+00  0.000E+00
  -1.240  0.000E+00  0.000E+00
  -1.230  0.000E+00  0.000E+00
  -1.220  0.000E+00  0.000E+00
  -1.210  0.000E+00  0.000E+00
  -1.200  0.000E+00  0.000E+00
  -1.190  0.000E+00  0.000E+00
  -1.180  0.000E+00  0.000E+00
  -1.170  0.000E+00  0.000E+00
  -1.160  0.000E+00  0.000E+00
  -1.150  0.000E+00  0.000E+00
  -1.140  0.000E+00  0.000E+00
  -1.130  0.000E+00  0.000E+00
  -1.120  0.000E+00  0.000E+00
  -1.110  0.000E+00  0.000E+00
  -1.100  0.000E+00  0.000E+00
  -1.090  0.000E+00  0.000E+00
  -1.080  0.000E+00  0.000E+00
  -1.070  0.000E+00  0.000E+00
  -1.060  0.000E+00  0.000E+00
  -1.050  0.000E+00  0.000E+00
  -1.040  0.000E+00  0.000E+00
  -1.030  0.000E+00  0.000E+00
  -1.020  0.000E+00  0.000E+00
  -1.010  0.000E+00  0.000E+00
  -1.000  0.000E+00  0.000E+00
  -0.990  0.000E+00  0.000E+00
  -0.980  0.000E+00  0.000E+00
  -0.970  0.000E+00  0.000E+00
  -0.960  0.000E+00  0.000E+00
  -0.950  0.000E+00  0.000E+00
  -0.940  0.000E+00  0.000E+00
  -0.930  0.000E+00  0.000E+00
  -0.920  0.000E+00  0.000E+00
  -0.910  0.000E+00  0.000E+00
  -0.900  0.000E+00  0.000E+00
  -0.890  0.000E+00  0.000E+00
  -0.880  0.000E+00  0.000E+00
  -0.870  0.000E+00  0.000E+00
  -0.860  0.000E+00  0.000E+00
  -0.850  0.000E+00  0.000E+00
  -0.840  0.000E+00  0.000E+00
  -0.830  0.000E+00  0.000E+00
  -0.820  0.000E+00  0.000E+00
  -0.810  0.000E+00  0.000E+00
  -0.800  0.000E+00  0.000E+00
  -0.790  0.000E+00  0.000E+00
  -0.780  0.000E+00  0.000E+00
  -0.770  0.000E+00  0.000E+00
  -0.760  0.000E+00  0.000E+00
  -0.750  0.000E+00  0.000E+00
  -0.740  0.000E+00  0.000E+00
  -0.730  0.000E+00  0.000E+00
  -0.720  0.000E+00  0.000E+00
  -0.710  0.000E+00  0.000E+00
  -0.700  0.000E+00  0.000E+00
  -0.690  0.000E+00  0.000E+00
  -0.680  0.000E+00  0.000E+00
  -0.670  0.000E+00  0.000E+00
  -0.660  0.000E+00  0.000E+00
  -0.650  0.000E+00  0.000E+00
  -0.640  0.000E+00  0.000E+00
  -0.630  0.000E+00  0.000E+00
  -0.620  0.000E+00  0.000E+00
  -0.610  0.000E+00  0.000E+00
  -0.600  0.000E+00  0.000E+00
  -0.590  0.000E+00  0.000E+00
  -0.580  0.000E+00  0.000E+00
  -0.570  0.000E+00  0.000E+00
  -0.560  0.000E+00  0.000E+00
  -0.550  0.000E+00  0.000E+00
  -0.540  0.000E+00  0.000E+00
  -0.530  0.000E+00  0.000E+00
  -0.520  0.000E+00  0.000E+00
  -0.510  0.000E+00  0.000E+00
  -0.500  0.000E+00  0.000E+00
  -0.490  0.000E+00  0.000E+00
  -0.480  0.000E+00  0.000E+00
  -0.470  0.000E+00  0.000E+00
  -0.460  0.000E+00  0.000E+00
  -0.450  0.000E+00  0.000E+00
  -0.440  0.000E+00  0.000E+00
  -0.430  0.000E+00  0.000E+00
  -0.420  0.000E+00  0.000E+00
  -0.410  0.000E+00  0.000E+00
  -0.400  0.000E+00  0.000E+00
  -0.390  0.000E+00  0.000E+00
  -0.380  0.000E+00  0.000E+00
  -0.370  0.000E+00  0.000E+00
  -0.360  0.000E+00  0.000E+00
  -0.350  0.000E+00  0.000E+00
  -0.340  0.000E+00  0.000E+00
  -0.330  0.000E+00  0.000E+00
  -0.320  0.000E+00  0.000E+00
  -0.310  0.000E+00  0.000E+00
  -0.300  0.000E+00  0.000E+00
  -0.290  0.000E+00  0.000E+00
  -0.280  0.000E+00  0.000E+00
  -0.270  0.000E+00  0.000E+00
  -0.260  0.000E+00  0.000E+00
  -0.250  0.000E+00  0.000E+00
  -0.240  0.000E+00  0.000E+00
  -0.230  0.000E+00  0.000E+00
  -0.220  0.000E+00  0.000E+00
  -0.210  0.000E+00  0.000E+00
  -0.200  0.000E+00  0.000E+00
  -0.190  0.000E+00  0.000E+00
  -0.180  0.000E+00  0.000E+00
  -0.170  0.000E+00  0.000E+00
  -0.160  0.000E+00  0.000E+00
  -0.150  0.000E+00  0.000E+00
  -0.140  0.000E+00  0.000E+00
  -0.130  0.000E+00  0.000E+00
  -0.120  0.000E+00  0.000E+00
  -0.110  0.000E+00  0.000E+00
  -0.100  0.000E+00  0.000E+00
  -0.090  0.000E+00  0.000E+00
  -0.080  0.000E+00  0.000E+00
  -0.070  0.000E+00  0.000E+00
  -0.060  0.000E+00  0.000E+00
  -0.050  0.000E+00  0.000E+00
  -0.040  0.000E+00  0.000E+00
  -0.030  0.000E+00  0.000E+00
  -0.020  0.000E+00  0.000E+00
  -0.010  0.000E+00  0.000E+00
   0.000  0.000E+00  0.000E+00
   0.010  0.000E+00  0.000E+00
   0.020  0.000E+00  0.000E+00
   0.030  0.000E+00  0.000E+00
   0.040  0.000E+00  0.000E+00
   0.050  0.000E+00  0.000E+00
   0.060  0.000E+00  0.000E+00
   0.070  0.000E+00  0.000E+00
   0.080  0.000E+00  0.000E+00
   0.090  0.000E+00  0.000E+00
   0.100  0.000E+00  0.000E+00
   0.110  0.000E+00  0.000E+00
   0.120  0.000E+00  0.000E+00
   0.130  0.000E+00  0.000E+00
   0.140  0.000E+00  0.000E+00
   0.150  0.000E+00  0.000E+00
   0.160  0.000E+00  0.000E+00
   0.170  0.000E+00  0.000E+00
   0.180  0.000E+00  0.000E+00
   0.190  0.000E+00  0.000E+00
   0.200  0.000E+00  0.000E+00
   0.210  0.000E+00  0.000E+00
   0.220  0.000E+00  0.000E+00
   0.230  0.000E+00  0.000E+00
   0.240  0.000E+00  0.000E+00
   0.250  0.000E+00  0.000E+00
   0.260  0.000E+00  0.000E+00
   0.270  0.000E+00  0.000E+00
   0.280  0.000E+00  0.000E+00
   0.290  0.000E+00  0.000E+00
   0.300  0.000E+00  0.000E+00
   0.310  0.000E+00  0.000E+00
   0.320  0.000E+00  0.000E+00
   0.330  0.000E+00  0.000E+00
   0.340  0.000E+00  0.000E+00
   0.350  0.000E+00  0.000E+00
   0.360  0.000E+00  0.000E+00
   0.370  0.000E+00  0.000E+00
   0.380  0.000E+00  0.000E+00
   0.390  0.000E+00  0.000E+00
   0.400  0.179E-16  0.179E-16
   0.410  0.957E-16  0.957E-16
   0.420  0.491E-15  0.491E-15
   0.430  0.241E-14  0.241E-14
   0.440  0.115E-13  0.115E-13
   0.450  0.519E-13  0.519E-13
   0.460  0.224E-12  0.224E-12
   0.470  0.927E-12  0.927E-12
   0.480  0.367E-11  0.367E-11
   0.490  0.139E-10  0.139E-10
   0.500  0.506E-10  0.506E-10
   0.510  0.176E-09  0.176E-09
   0.520  0.587E-09  0.587E-09
   0.530  0.187E-08  0.187E-08
   0.540  0.574E-08  0.574E-08
   0.550  0.168E-07  0.168E-07
   0.560  0.473E-07  0.473E-07
   0.570  0.128E-06  0.128E-06
   0.580  0.330E-06  0.330E-06
   0.590  0.820E-06  0.820E-06
   0.600  0.195E-05  0.195E-05
   0.610  0.446E-05  0.446E-05
   0.620  0.980E-05  0.980E-05
   0.630  0.207E-04  0.207E-04
   0.640  0.419E-04  0.419E-04
   0.650  0.816E-04  0.816E-04
   0.660  0.153E-03  0.153E-03
   0.670  0.276E-03  0.276E-03
   0.680  0.478E-03  0.478E-03
   0.690  0.796E-03  0.796E-03
   0.700  0.128E-02  0.128E-02
   0.710  0.197E-02  0.197E-02
   0.720  0.292E-02  0.292E-02
   0.730  0.417E-02  0.417E-02
   0.740  0.572E-02  0.572E-02
   0.750  0.754E-02  0.754E-02
   0.760  0.956E-02  0.956E-02
   0.770  0.117E-01  0.117E-01
   0.780  0.137E-01  0.137E-01
   0.790  0.155E-01  0.155E-01
   0.800  0.170E-01  0.170E-01
   0.810  0.181E-01  0.181E-01
   0.820  0.189E-01  0.189E-01
   0.830  0.195E-01  0.195E-01
   0.840  0.200E-01  0.200E-01
   0.850  0.205E-01  0.205E-01
   0.860  0.211E-01  0.211E-01
   0.870  0.217E-01  0.217E-01
   0.880  0.223E-01  0.223E-01
   0.890  0.226E-01  0.226E-01
   0.900  0.223E-01  0.223E-01
   0.910  0.215E-01  0.215E-01
   0.920  0.201E-01  0.201E-01
   0.930  0.184E-01  0.184E-01
   0.940  0.165E-01  0.165E-01
   0.950  0.150E-01  0.150E-01
   0.960  0.142E-01  0.142E-01
   0.970  0.145E-01  0.145E-01
   0.980  0.158E-01  0.158E-01
   0.990  0.181E-01  0.181E-01
   1.000  0.209E-01  0.209E-01
   1.010  0.238E-01  0.238E-01
   1.020  0.263E-01  0.263E-01
   1.030  0.278E-01  0.278E-01
   1.040  0.282E-01  0.282E-01
   1.050  0.274E-01  0.274E-01
   1.060  0.256E-01  0.256E-01
   1.070  0.231E-01  0.231E-01
   1.080  0.203E-01  0.203E-01
   1.090  0.174E-01  0.174E-01
   1.100  0.148E-01  0.148E-01
   1.110  0.126E-01  0.126E-01
   1.120  0.110E-01  0.110E-01
   1.130  0.101E-01  0.101E-01
   1.140  0.100E-01  0.100E-01
   1.150  0.109E-01  0.109E-01
   1.160  0.129E-01  0.129E-01
   1.170  0.159E-01  0.159E-01
   1.180  0.198E-01  0.198E-01
   1.190  0.242E-01  0.242E-01
   1.200  0.285E-01  0.285E-01
   1.210  0.323E-01  0.323E-01
   1.220  0.350E-01  0.350E-01
   1.230  0.360E-01  0.360E-01
   1.240  0.353E-01  0.353E-01
   1.250  0.328E-01  0.328E-01
   1.260  0.290E-01  0.290E-01
   1.270  0.244E-01  0.244E-01
   1.280  0.196E-01  0.196E-01
   1.290  0.154E-01  0.154E-01
   1.300  0.122E-01  0.122E-01
   1.310  0.102E-01  0.102E-01
   1.320  0.937E-02  0.937E-02
   1.330  0.948E-02  0.948E-02
   1.340  0.102E-01  0.102E-01
   1.350  0.111E-01  0.111E-01
   1.360  0.120E-01  0.120E-01
   1.370  0.129E-01  0.129E-01
   1.380  0.138E-01  0.138E-01
   1.390  0.150E-01  0.150E-01
   1.400  0.168E-01  0.168E-01
   1.410  0.192E-01  0.192E-01
   1.420  0.222E-01  0.222E-01
   1.430  0.257E-01  0.257E-01
   1.440  0.292E-01  0.292E-01
   1.450  0.323E-01  0.323E-01
   1.460  0.348E-01  0.348E-01
   1.470  0.364E-01  0.364E-01
   1.480  0.369E-01  0.369E-01
   1.490  0.364E-01  0.364E-01
   1.500  0.350E-01  0.350E-01
   1.510  0.328E-01  0.328E-01
   1.520  0.299E-01  0.299E-01
   1.530  0.263E-01  0.263E-01
   1.540  0.222E-01  0.222E-01
   1.550  0.179E-01  0.179E-01
   1.560  0.135E-01  0.135E-01
   1.570  0.957E-02  0.957E-02
   1.580  0.645E-02  0.645E-02
   1.590  0.445E-02  0.445E-02
   1.600  0.374E-02  0.374E-02
   1.610  0.428E-02  0.428E-02
   1.620  0.590E-02  0.590E-02
   1.630  0.827E-02  0.827E-02
   1.640  0.110E-01  0.110E-01
   1.650  0.138E-01  0.138E-01
   1.660  0.165E-01  0.165E-01
   1.670  0.190E-01  0.190E-01
   1.680  0.212E-01  0.212E-01
   1.690  0.235E-01  0.235E-01
   1.700  0.258E-01  0.258E-01
   1.710  0.284E-01  0.284E-01
   1.720  0.311E-01  0.311E-01
   1.730  0.337E-01  0.337E-01
   1.740  0.358E-01  0.358E-01
   1.750  0.370E-01  0.370E-01
   1.760  0.371E-01  0.371E-01
   1.770  0.358E-01  0.358E-01
   1.780  0.335E-01  0.335E-01
   1.790  0.303E-01  0.303E-01
   1.800  0.271E-01  0.271E-01
   1.810  0.242E-01  0.242E-01
   1.820  0.223E-01  0.223E-01
   1.830  0.214E-01  0.214E-01
   1.840  0.215E-01  0.215E-01
   1.850  0.222E-01  0.222E-01
   1.860  0.228E-01  0.228E-01
   1.870  0.228E-01  0.228E-01
   1.880  0.217E-01  0.217E-01
   1.890  0.195E-01  0.195E-01
   1.900  0.162E-01  0.162E-01
   1.910  0.123E-01  0.123E-01
   1.920  0.824E-02  0.824E-02
   1.930  0.469E-02  0.469E-02
   1.940  0.208E-02  0.208E-02
   1.950  0.727E-03  0.727E-03
   1.960  0.744E-03  0.744E-03
   1.970  0.211E-02  0.211E-02
   1.980  0.468E-02  0.468E-02
   1.990  0.827E-02  0.827E-02
   2.000  0.127E-01  0.127E-01
   2.010  0.176E-01  0.176E-01
   2.020  0.227E-01  0.227E-01
   2.030  0.279E-01  0.279E-01
   2.040  0.326E-01  0.326E-01
   2.050  0.366E-01  0.366E-01
   2.060  0.397E-01  0.397E-01
   2.070  0.417E-01  0.417E-01
   2.080  0.426E-01  0.426E-01
   2.090  0.424E-01  0.424E-01
   2.100  0.413E-01  0.413E-01
   2.110  0.394E-01  0.394E-01
   2.120  0.370E-01  0.370E-01
   2.130  0.341E-01  0.341E-01
   2.140  0.309E-01  0.309E-01
   2.150  0.272E-01  0.272E-01
   2.160  0.234E-01  0.234E-01
   2.170  0.194E-01  0.194E-01
   2.180  0.156E-01  0.156E-01
   2.190  0.125E-01  0.125E-01
   2.200  0.104E-01  0.104E-01
   2.210  0.961E-02  0.961E-02
   2.220  0.103E-01  0.103E-01
   2.230  0.124E-01  0.124E-01
   2.240  0.154E-01  0.154E-01
   2.250  0.188E-01  0.188E-01
   2.260  0.220E-01  0.220E-01
   2.270  0.242E-01  0.242E-01
   2.280  0.249E-01  0.249E-01
   2.290  0.239E-01  0.239E-01
   2.300  0.214E-01  0.214E-01
   2.310  0.176E-01  0.176E-01
   2.320  0.131E-01  0.131E-01
   2.330  0.861E-02  0.861E-02
   2.340  0.470E-02  0.470E-02
   2.350  0.183E-02  0.183E-02
   2.360  0.284E-03  0.284E-03
   2.370  0.205E-03  0.205E-03
   2.380  0.160E-02  0.160E-02
   2.390  0.442E-02  0.442E-02
   2.400  0.856E-02  0.856E-02
   2.410  0.139E-01  0.139E-01
   2.420  0.202E-01  0.202E-01
   2.430  0.272E-01  0.272E-01
   2.440  0.343E-01  0.343E-01
   2.450  0.410E-01  0.410E-01
   2.460  0.465E-01  0.465E-01
   2.470  0.503E-01  0.503E-01
   2.480  0.517E-01  0.517E-01
   2.490  0.508E-01  0.508E-01
   2.500  0.476E-01  0.476E-01
   2.510  0.428E-01  0.428E-01
   2.520  0.373E-01  0.373E-01
   2.530  0.319E-01  0.319E-01
   2.540  0.274E-01  0.274E-01
   2.550  0.243E-01  0.243E-01
   2.560  0.227E-01  0.227E-01
   2.570  0.222E-01  0.222E-01
   2.580  0.222E-01  0.222E-01
   2.590  0.221E-01  0.221E-01
   2.600  0.213E-01  0.213E-01
   2.610  0.196E-01  0.196E-01
   2.620  0.170E-01  0.170E-01
   2.630  0.139E-01  0.139E-01
   2.640  0.109E-01  0.109E-01
   2.650  0.849E-02  0.849E-02
   2.660  0.715E-02  0.715E-02
   2.670  0.722E-02  0.722E-02
   2.680  0.876E-02  0.876E-02
   2.690  0.116E-01  0.116E-01
   2.700  0.155E-01  0.155E-01
   2.710  0.197E-01  0.197E-01
   2.720  0.238E-01  0.238E-01
   2.730  0.271E-01  0.271E-01
   2.740  0.291E-01  0.291E-01
   2.750  0.294E-01  0.294E-01
   2.760  0.280E-01  0.280E-01
   2.770  0.251E-01  0.251E-01
   2.780  0.211E-01  0.211E-01
   2.790  0.168E-01  0.168E-01
   2.800  0.129E-01  0.129E-01
   2.810  0.996E-02  0.996E-02
   2.820  0.848E-02  0.848E-02
   2.830  0.870E-02  0.870E-02
   2.840  0.106E-01  0.106E-01
   2.850  0.139E-01  0.139E-01
   2.860  0.184E-01  0.184E-01
   2.870  0.235E-01  0.235E-01
   2.880  0.289E-01  0.289E-01
   2.890  0.341E-01  0.341E-01
   2.900  0.388E-01  0.388E-01
   2.910  0.427E-01  0.427E-01
   2.920  0.457E-01  0.457E-01
   2.930  0.477E-01  0.477E-01
   2.940  0.486E-01  0.486E-01
   2.950  0.482E-01  0.482E-01
   2.960  0.467E-01  0.467E-01
   2.970  0.440E-01  0.440E-01
   2.980  0.403E-01  0.403E-01
   2.990  0.358E-01  0.358E-01
   3.000  0.311E-01  0.311E-01
   3.010  0.266E-01  0.266E-01
   3.020  0.231E-01  0.231E-01
   3.030  0.208E-01  0.208E-01
   3.040  0.200E-01  0.200E-01
   3.050  0.206E-01  0.206E-01
   3.060  0.221E-01  0.221E-01
   3.070  0.239E-01  0.239E-01
   3.080  0.253E-01  0.253E-01
   3.090  0.256E-01  0.256E-01
   3.100  0.246E-01  0.246E-01
   3.110  0.222E-01  0.222E-01
   3.120  0.186E-01  0.186E-01
   3.130  0.144E-01  0.144E-01
   3.140  0.102E-01  0.102E-01
   3.150  0.645E-02  0.645E-02
   3.160  0.363E-02  0.363E-02
   3.170  0.200E-02  0.200E-02
   3.180  0.167E-02  0.167E-02
   3.190  0.260E-02  0.260E-02
   3.200  0.470E-02  0.470E-02
   3.210  0.783E-02  0.783E-02
   3.220  0.118E-01  0.118E-01
   3.230  0.163E-01  0.163E-01
   3.240  0.210E-01  0.210E-01
   3.250  0.254E-01  0.254E-01
   3.260  0.291E-01  0.291E-01
   3.270  0.317E-01  0.317E-01
   3.280  0.328E-01  0.328E-01
   3.290  0.324E-01  0.324E-01
   3.300  0.307E-01  0.307E-01
   3.310  0.283E-01  0.283E-01
   3.320  0.257E-01  0.257E-01
   3.330  0.237E-01  0.237E-01
   3.340  0.228E-01  0.228E-01
   3.350  0.231E-01  0.231E-01
   3.360  0.247E-01  0.247E-01
   3.370  0.271E-01  0.271E-01
   3.380  0.298E-01  0.298E-01
   3.390  0.322E-01  0.322E-01
   3.400  0.339E-01  0.339E-01
   3.410  0.345E-01  0.345E-01
   3.420  0.341E-01  0.341E-01
   3.430  0.330E-01  0.330E-01
   3.440  0.316E-01  0.316E-01
   3.450  0.305E-01  0.305E-01
   3.460  0.300E-01  0.300E-01
   3.470  0.305E-01  0.305E-01
   3.480  0.317E-01  0.317E-01
   3.490  0.332E-01  0.332E-01
   3.500  0.346E-01  0.346E-01
   3.510  0.353E-01  0.353E-01
   3.520  0.348E-01  0.348E-01
   3.530  0.330E-01  0.330E-01
   3.540  0.302E-01  0.302E-01
   3.550  0.266E-01  0.266E-01
   3.560  0.229E-01  0.229E-01
   3.570  0.197E-01  0.197E-01
   3.580  0.175E-01  0.175E-01
   3.590  0.166E-01  0.166E-01
   3.600  0.170E-01  0.170E-01
   3.610  0.185E-01  0.185E-01
   3.620  0.208E-01  0.208E-01
   3.630  0.231E-01  0.231E-01
   3.640  0.250E-01  0.250E-01
   3.650  0.259E-01  0.259E-01
   3.660  0.254E-01  0.254E-01
   3.670  0.236E-01  0.236E-01
   3.680  0.206E-01  0.206E-01
   3.690  0.167E-01  0.167E-01
   3.700  0.124E-01  0.124E-01
   3.710  0.821E-02  0.821E-02
   3.720  0.458E-02  0.458E-02
   3.730  0.179E-02  0.179E-02
   3.740  0.123E-05  0.123E-05
   3.750 -0.733E-03 -0.733E-03
   3.760 -0.436E-03 -0.436E-03
   3.770  0.844E-03  0.844E-03
   3.780  0.306E-02  0.306E-02
   3.790  0.617E-02  0.617E-02
   3.800  0.101E-01  0.101E-01
   3.810  0.148E-01  0.148E-01
   3.820  0.199E-01  0.199E-01
   3.830  0.254E-01  0.254E-01
   3.840  0.307E-01  0.307E-01
   3.850  0.355E-01  0.355E-01
   3.860  0.395E-01  0.395E-01
   3.870  0.424E-01  0.424E-01
   3.880  0.441E-01  0.441E-01
   3.890  0.448E-01  0.448E-01
   3.900  0.446E-01  0.446E-01
   3.910  0.438E-01  0.438E-01
   3.920  0.426E-01  0.426E-01
   3.930  0.411E-01  0.411E-01
   3.940  0.395E-01  0.395E-01
   3.950  0.377E-01  0.377E-01
   3.960  0.356E-01  0.356E-01
   3.970  0.330E-01  0.330E-01
   3.980  0.301E-01  0.301E-01
   3.990  0.267E-01  0.267E-01
   4.000  0.232E-01  0.232E-01
   4.010  0.199E-01  0.199E-01
   4.020  0.173E-01  0.173E-01
   4.030  0.158E-01  0.158E-01
   4.040  0.158E-01  0.158E-01
   4.050  0.173E-01  0.173E-01
   4.060  0.201E-01  0.201E-01
   4.070  0.238E-01  0.238E-01
   4.080  0.279E-01  0.279E-01
   4.090  0.315E-01  0.315E-01
   4.100  0.339E-01  0.339E-01
   4.110  0.348E-01  0.348E-01
   4.120  0.339E-01  0.339E-01
   4.130  0.312E-01  0.312E-01
   4.140  0.272E-01  0.272E-01
   4.150  0.225E-01  0.225E-01
   4.160  0.177E-01  0.177E-01
   4.170  0.134E-01  0.134E-01
   4.180  0.104E-01  0.104E-01
   4.190  0.884E-02  0.884E-02
   4.200  0.902E-02  0.902E-02
   4.210  0.108E-01  0.108E-01
   4.220  0.138E-01  0.138E-01
   4.230  0.176E-01  0.176E-01
   4.240  0.214E-01  0.214E-01
   4.250  0.247E-01  0.247E-01
   4.260  0.269E-01  0.269E-01
   4.270  0.277E-01  0.277E-01
   4.280  0.268E-01  0.268E-01
   4.290  0.246E-01  0.246E-01
   4.300  0.213E-01  0.213E-01
   4.310  0.173E-01  0.173E-01
   4.320  0.133E-01  0.133E-01
   4.330  0.961E-02  0.961E-02
   4.340  0.653E-02  0.653E-02
   4.350  0.427E-02  0.427E-02
   4.360  0.293E-02  0.293E-02
   4.370  0.252E-02  0.252E-02
   4.380  0.307E-02  0.307E-02
   4.390  0.459E-02  0.459E-02
   4.400  0.711E-02  0.711E-02
   4.410  0.107E-01  0.107E-01
   4.420  0.153E-01  0.153E-01
   4.430  0.208E-01  0.208E-01
   4.440  0.271E-01  0.271E-01
   4.450  0.338E-01  0.338E-01
   4.460  0.405E-01  0.405E-01
   4.470  0.465E-01  0.465E-01
   4.480  0.512E-01  0.512E-01
   4.490  0.542E-01  0.542E-01
   4.500  0.549E-01  0.549E-01
   4.510  0.534E-01  0.534E-01
   4.520  0.500E-01  0.500E-01
   4.530  0.451E-01  0.451E-01
   4.540  0.396E-01  0.396E-01
   4.550  0.343E-01  0.343E-01
   4.560  0.296E-01  0.296E-01
   4.570  0.261E-01  0.261E-01
   4.580  0.238E-01  0.238E-01
   4.590  0.223E-01  0.223E-01
   4.600  0.213E-01  0.213E-01
   4.610  0.203E-01  0.203E-01
   4.620  0.188E-01  0.188E-01
   4.630  0.170E-01  0.170E-01
   4.640  0.149E-01  0.149E-01
   4.650  0.130E-01  0.130E-01
   4.660  0.117E-01  0.117E-01
   4.670  0.118E-01  0.118E-01
   4.680  0.133E-01  0.133E-01
   4.690  0.164E-01  0.164E-01
   4.700  0.209E-01  0.209E-01
   4.710  0.261E-01  0.261E-01
   4.720  0.314E-01  0.314E-01
   4.730  0.360E-01  0.360E-01
   4.740  0.391E-01  0.391E-01
   4.750  0.404E-01  0.404E-01
   4.760  0.395E-01  0.395E-01
   4.770  0.367E-01  0.367E-01
   4.780  0.325E-01  0.325E-01
   4.790  0.273E-01  0.273E-01
   4.800  0.220E-01  0.220E-01
   4.810  0.174E-01  0.174E-01
   4.820  0.138E-01  0.138E-01
   4.830  0.118E-01  0.118E-01
   4.840  0.114E-01  0.114E-01
   4.850  0.127E-01  0.127E-01
   4.860  0.152E-01  0.152E-01
   4.870  0.185E-01  0.185E-01
   4.880  0.222E-01  0.222E-01
   4.890  0.255E-01  0.255E-01
   4.900  0.279E-01  0.279E-01
   4.910  0.290E-01  0.290E-01
   4.920  0.284E-01  0.284E-01
   4.930  0.263E-01  0.263E-01
   4.940  0.227E-01  0.227E-01
   4.950  0.182E-01  0.182E-01
   4.960  0.133E-01  0.133E-01
   4.970  0.867E-02  0.867E-02
   4.980  0.467E-02  0.467E-02
   4.990  0.169E-02  0.169E-02
   5.000 -0.710E-04 -0.710E-04
   5.010 -0.530E-03 -0.530E-03
   5.020  0.328E-03  0.328E-03
   5.030  0.251E-02  0.251E-02
   5.040  0.602E-02  0.602E-02
   5.050  0.109E-01  0.109E-01
   5.060  0.171E-01  0.171E-01
   5.070  0.245E-01  0.245E-01
   5.080  0.327E-01  0.327E-01
   5.090  0.413E-01  0.413E-01
   5.100  0.496E-01  0.496E-01
   5.110  0.566E-01  0.566E-01
   5.120  0.615E-01  0.615E-01
   5.130  0.639E-01  0.639E-01
   5.140  0.633E-01  0.633E-01
   5.150  0.600E-01  0.600E-01
   5.160  0.543E-01  0.543E-01
   5.170  0.471E-01  0.471E-01
   5.180  0.393E-01  0.393E-01
   5.190  0.319E-01  0.319E-01
   5.200  0.255E-01  0.255E-01
   5.210  0.207E-01  0.207E-01
   5.220  0.177E-01  0.177E-01
   5.230  0.166E-01  0.166E-01
   5.240  0.170E-01  0.170E-01
   5.250  0.184E-01  0.184E-01
   5.260  0.203E-01  0.203E-01
   5.270  0.223E-01  0.223E-01
   5.280  0.238E-01  0.238E-01
   5.290  0.248E-01  0.248E-01
   5.300  0.254E-01  0.254E-01
   5.310  0.258E-01  0.258E-01
   5.320  0.264E-01  0.264E-01
   5.330  0.278E-01  0.278E-01
   5.340  0.302E-01  0.302E-01
   5.350  0.334E-01  0.334E-01
   5.360  0.372E-01  0.372E-01
   5.370  0.409E-01  0.409E-01
   5.380  0.438E-01  0.438E-01
   5.390  0.453E-01  0.453E-01
   5.400  0.447E-01  0.447E-01
   5.410  0.420E-01  0.420E-01
   5.420  0.374E-01  0.374E-01
   5.430  0.314E-01  0.314E-01
   5.440  0.249E-01  0.249E-01
   5.450  0.188E-01  0.188E-01
   5.460  0.139E-01  0.139E-01
   5.470  0.110E-01  0.110E-01
   5.480  0.104E-01  0.104E-01
   5.490  0.121E-01  0.121E-01
   5.500  0.158E-01  0.158E-01
   5.510  0.209E-01  0.209E-01
   5.520  0.266E-01  0.266E-01
   5.530  0.318E-01  0.318E-01
   5.540  0.357E-01  0.357E-01
   5.550  0.376E-01  0.376E-01
   5.560  0.372E-01  0.372E-01
   5.570  0.347E-01  0.347E-01
   5.580  0.306E-01  0.306E-01
   5.590  0.258E-01  0.258E-01
   5.600  0.214E-01  0.214E-01
   5.610  0.185E-01  0.185E-01
   5.620  0.176E-01  0.176E-01
   5.630  0.193E-01  0.193E-01
   5.640  0.232E-01  0.232E-01
   5.650  0.289E-01  0.289E-01
   5.660  0.353E-01  0.353E-01
   5.670  0.413E-01  0.413E-01
   5.680  0.459E-01  0.459E-01
   5.690  0.482E-01  0.482E-01
   5.700  0.479E-01  0.479E-01
   5.710  0.453E-01  0.453E-01
   5.720  0.411E-01  0.411E-01
   5.730  0.363E-01  0.363E-01
   5.740  0.321E-01  0.321E-01
   5.750  0.295E-01  0.295E-01
   5.760  0.291E-01  0.291E-01
   5.770  0.312E-01  0.312E-01
   5.780  0.355E-01  0.355E-01
   5.790  0.413E-01  0.413E-01
   5.800  0.476E-01  0.476E-01
   5.810  0.534E-01  0.534E-01
   5.820  0.578E-01  0.578E-01
   5.830  0.600E-01  0.600E-01
   5.840  0.598E-01  0.598E-01
   5.850  0.571E-01  0.571E-01
   5.860  0.523E-01  0.523E-01
   5.870  0.459E-01  0.459E-01
   5.880  0.389E-01  0.389E-01
   5.890  0.320E-01  0.320E-01
   5.900  0.259E-01  0.259E-01
   5.910  0.214E-01  0.214E-01
   5.920  0.187E-01  0.187E-01
   5.930  0.183E-01  0.183E-01
   5.940  0.203E-01  0.203E-01
   5.950  0.248E-01  0.248E-01
   5.960  0.316E-01  0.316E-01
   5.970  0.410E-01  0.410E-01
   5.980  0.529E-01  0.529E-01
   5.990  0.673E-01  0.673E-01
   6.000  0.843E-01  0.843E-01
   6.010  0.104E+00  0.104E+00
   6.020  0.124E+00  0.124E+00
   6.030  0.145E+00  0.145E+00
   6.040  0.164E+00  0.164E+00
   6.050  0.179E+00  0.179E+00
   6.060  0.188E+00  0.188E+00
   6.070  0.189E+00  0.189E+00
   6.080  0.182E+00  0.182E+00
   6.090  0.168E+00  0.168E+00
   6.100  0.147E+00  0.147E+00
   6.110  0.124E+00  0.124E+00
   6.120  0.101E+00  0.101E+00
   6.130  0.819E-01  0.819E-01
   6.140  0.675E-01  0.675E-01
   6.150  0.593E-01  0.593E-01
   6.160  0.566E-01  0.566E-01
   6.170  0.580E-01  0.580E-01
   6.180  0.614E-01  0.614E-01
   6.190  0.643E-01  0.643E-01
   6.200  0.649E-01  0.649E-01
   6.210  0.620E-01  0.620E-01
   6.220  0.552E-01  0.552E-01
   6.230  0.454E-01  0.454E-01
   6.240  0.336E-01  0.336E-01
   6.250  0.217E-01  0.217E-01
   6.260  0.112E-01  0.112E-01
   6.270  0.344E-02  0.344E-02
   6.280 -0.875E-03 -0.875E-03
   6.290 -0.139E-02 -0.139E-02
   6.300  0.184E-02  0.184E-02
   6.310  0.847E-02  0.847E-02
   6.320  0.180E-01  0.180E-01
   6.330  0.298E-01  0.298E-01
   6.340  0.430E-01  0.430E-01
   6.350  0.567E-01  0.567E-01
   6.360  0.696E-01  0.696E-01
   6.370  0.804E-01  0.804E-01
   6.380  0.882E-01  0.882E-01
   6.390  0.920E-01  0.920E-01
   6.400  0.917E-01  0.917E-01
   6.410  0.876E-01  0.876E-01
   6.420  0.807E-01  0.807E-01
   6.430  0.723E-01  0.723E-01
   6.440  0.638E-01  0.638E-01
   6.450  0.563E-01  0.563E-01
   6.460  0.504E-01  0.504E-01
   6.470  0.464E-01  0.464E-01
   6.480  0.442E-01  0.442E-01
   6.490  0.436E-01  0.436E-01
   6.500  0.445E-01  0.445E-01
   6.510  0.466E-01  0.466E-01
   6.520  0.501E-01  0.501E-01
   6.530  0.548E-01  0.548E-01
   6.540  0.608E-01  0.608E-01
   6.550  0.676E-01  0.676E-01
   6.560  0.748E-01  0.748E-01
   6.570  0.816E-01  0.816E-01
   6.580  0.872E-01  0.872E-01
   6.590  0.909E-01  0.909E-01
   6.600  0.922E-01  0.922E-01
   6.610  0.908E-01  0.908E-01
   6.620  0.869E-01  0.869E-01
   6.630  0.805E-01  0.805E-01
   6.640  0.724E-01  0.724E-01
   6.650  0.628E-01  0.628E-01
   6.660  0.525E-01  0.525E-01
   6.670  0.420E-01  0.420E-01
   6.680  0.317E-01  0.317E-01
   6.690  0.224E-01  0.224E-01
   6.700  0.145E-01  0.145E-01
   6.710  0.861E-02  0.861E-02
   6.720  0.527E-02  0.527E-02
   6.730  0.489E-02  0.489E-02
   6.740  0.771E-02  0.771E-02
   6.750  0.138E-01  0.138E-01
   6.760  0.230E-01  0.230E-01
   6.770  0.348E-01  0.348E-01
   6.780  0.485E-01  0.485E-01
   6.790  0.630E-01  0.630E-01
   6.800  0.770E-01  0.770E-01
   6.810  0.891E-01  0.891E-01
   6.820  0.981E-01  0.981E-01
   6.830  0.103E+00  0.103E+00
   6.840  0.103E+00  0.103E+00
   6.850  0.979E-01  0.979E-01
   6.860  0.890E-01  0.890E-01
   6.870  0.773E-01  0.773E-01
   6.880  0.640E-01  0.640E-01
   6.890  0.508E-01  0.508E-01
   6.900  0.387E-01  0.387E-01
   6.910  0.287E-01  0.287E-01
   6.920  0.210E-01  0.210E-01
   6.930  0.156E-01  0.156E-01
   6.940  0.120E-01  0.120E-01
   6.950  0.965E-02  0.965E-02
   6.960  0.794E-02  0.794E-02
   6.970  0.647E-02  0.647E-02
   6.980  0.501E-02  0.501E-02
   6.990  0.356E-02  0.356E-02
   7.000  0.225E-02  0.225E-02
   7.010  0.129E-02  0.129E-02
   7.020  0.863E-03  0.863E-03
   7.030  0.111E-02  0.111E-02
   7.040  0.214E-02  0.214E-02
   7.050  0.403E-02  0.403E-02
   7.060  0.690E-02  0.690E-02
   7.070  0.109E-01  0.109E-01
   7.080  0.164E-01  0.164E-01
   7.090  0.235E-01  0.235E-01
   7.100  0.325E-01  0.325E-01
   7.110  0.433E-01  0.433E-01
   7.120  0.556E-01  0.556E-01
   7.130  0.687E-01  0.687E-01
   7.140  0.817E-01  0.817E-01
   7.150  0.933E-01  0.933E-01
   7.160  0.102E+00  0.102E+00
   7.170  0.108E+00  0.108E+00
   7.180  0.109E+00  0.109E+00
   7.190  0.107E+00  0.107E+00
   7.200  0.101E+00  0.101E+00
   7.210  0.927E-01  0.927E-01
   7.220  0.839E-01  0.839E-01
   7.230  0.759E-01  0.759E-01
   7.240  0.701E-01  0.701E-01
   7.250  0.674E-01  0.674E-01
   7.260  0.680E-01  0.680E-01
   7.270  0.717E-01  0.717E-01
   7.280  0.773E-01  0.773E-01
   7.290  0.835E-01  0.835E-01
   7.300  0.885E-01  0.885E-01
   7.310  0.909E-01  0.909E-01
   7.320  0.894E-01  0.894E-01
   7.330  0.834E-01  0.834E-01
   7.340  0.733E-01  0.733E-01
   7.350  0.601E-01  0.601E-01
   7.360  0.451E-01  0.451E-01
   7.370  0.300E-01  0.300E-01
   7.380  0.163E-01  0.163E-01
   7.390  0.523E-02  0.523E-02
   7.400 -0.266E-02 -0.266E-02
   7.410 -0.726E-02 -0.726E-02
   7.420 -0.886E-02 -0.886E-02
   7.430 -0.800E-02 -0.800E-02
   7.440 -0.528E-02 -0.528E-02
   7.450 -0.127E-02 -0.127E-02
   7.460  0.355E-02  0.355E-02
   7.470  0.879E-02  0.879E-02
   7.480  0.141E-01  0.141E-01
   7.490  0.191E-01  0.191E-01
   7.500  0.233E-01  0.233E-01
   7.510  0.265E-01  0.265E-01
   7.520  0.284E-01  0.284E-01
   7.530  0.288E-01  0.288E-01
   7.540  0.278E-01  0.278E-01
   7.550  0.260E-01  0.260E-01
   7.560  0.238E-01  0.238E-01
   7.570  0.221E-01  0.221E-01
   7.580  0.215E-01  0.215E-01
   7.590  0.225E-01  0.225E-01
   7.600  0.253E-01  0.253E-01
   7.610  0.295E-01  0.295E-01
   7.620  0.347E-01  0.347E-01
   7.630  0.399E-01  0.399E-01
   7.640  0.443E-01  0.443E-01
   7.650  0.470E-01  0.470E-01
   7.660  0.475E-01  0.475E-01
   7.670  0.457E-01  0.457E-01
   7.680  0.417E-01  0.417E-01
   7.690  0.363E-01  0.363E-01
   7.700  0.304E-01  0.304E-01
   7.710  0.252E-01  0.252E-01
   7.720  0.214E-01  0.214E-01
   7.730  0.199E-01  0.199E-01
   7.740  0.206E-01  0.206E-01
   7.750  0.235E-01  0.235E-01
   7.760  0.279E-01  0.279E-01
   7.770  0.327E-01  0.327E-01
   7.780  0.371E-01  0.371E-01
   7.790  0.402E-01  0.402E-01
   7.800  0.415E-01  0.415E-01
   7.810  0.411E-01  0.411E-01
   7.820  0.392E-01  0.392E-01
   7.830  0.364E-01  0.364E-01
   7.840  0.333E-01  0.333E-01
   7.850  0.305E-01  0.305E-01
   7.860  0.284E-01  0.284E-01
   7.870  0.269E-01  0.269E-01
   7.880  0.260E-01  0.260E-01
   7.890  0.254E-01  0.254E-01
   7.900  0.250E-01  0.250E-01
   7.910  0.248E-01  0.248E-01
   7.920  0.250E-01  0.250E-01
   7.930  0.260E-01  0.260E-01
   7.940  0.283E-01  0.283E-01
   7.950  0.320E-01  0.320E-01
   7.960  0.370E-01  0.370E-01
   7.970  0.431E-01  0.431E-01
   7.980  0.494E-01  0.494E-01
   7.990  0.550E-01  0.550E-01
   8.000  0.589E-01  0.589E-01
   8.010  0.605E-01  0.605E-01
   8.020  0.592E-01  0.592E-01
   8.030  0.551E-01  0.551E-01
   8.040  0.487E-01  0.487E-01
   8.050  0.405E-01  0.405E-01
   8.060  0.317E-01  0.317E-01
   8.070  0.229E-01  0.229E-01
   8.080  0.151E-01  0.151E-01
   8.090  0.860E-02  0.860E-02
   8.100  0.387E-02  0.387E-02
   8.110  0.994E-03  0.994E-03
   8.120 -0.229E-04 -0.229E-04
   8.130  0.720E-03  0.720E-03
   8.140  0.307E-02  0.307E-02
   8.150  0.680E-02  0.680E-02
   8.160  0.116E-01  0.116E-01
   8.170  0.171E-01  0.171E-01
   8.180  0.227E-01  0.227E-01
   8.190  0.278E-01  0.278E-01
   8.200  0.319E-01  0.319E-01
   8.210  0.343E-01  0.343E-01
   8.220  0.348E-01  0.348E-01
   8.230  0.332E-01  0.332E-01
   8.240  0.300E-01  0.300E-01
   8.250  0.256E-01  0.256E-01
   8.260  0.208E-01  0.208E-01
   8.270  0.165E-01  0.165E-01
   8.280  0.131E-01  0.131E-01
   8.290  0.110E-01  0.110E-01
   8.300  0.103E-01  0.103E-01
   8.310  0.107E-01  0.107E-01
   8.320  0.118E-01  0.118E-01
   8.330  0.130E-01  0.130E-01
   8.340  0.140E-01  0.140E-01
   8.350  0.143E-01  0.143E-01
   8.360  0.138E-01  0.138E-01
   8.370  0.125E-01  0.125E-01
   8.380  0.106E-01  0.106E-01
   8.390  0.838E-02  0.838E-02
   8.400  0.616E-02  0.616E-02
   8.410  0.434E-02  0.434E-02
   8.420  0.327E-02  0.327E-02
   8.430  0.327E-02  0.327E-02
   8.440  0.458E-02  0.458E-02
   8.450  0.737E-02  0.737E-02
   8.460  0.117E-01  0.117E-01
   8.470  0.175E-01  0.175E-01
   8.480  0.246E-01  0.246E-01
   8.490  0.325E-01  0.325E-01
   8.500  0.405E-01  0.405E-01
   8.510  0.478E-01  0.478E-01
   8.520  0.534E-01  0.534E-01
   8.530  0.566E-01  0.566E-01
   8.540  0.566E-01  0.566E-01
   8.550  0.536E-01  0.536E-01
   8.560  0.477E-01  0.477E-01
   8.570  0.398E-01  0.398E-01
   8.580  0.310E-01  0.310E-01
   8.590  0.225E-01  0.225E-01
   8.600  0.153E-01  0.153E-01
   8.610  0.100E-01  0.100E-01
   8.620  0.691E-02  0.691E-02
   8.630  0.577E-02  0.577E-02
   8.640  0.615E-02  0.615E-02
   8.650  0.745E-02  0.745E-02
   8.660  0.907E-02  0.907E-02
   8.670  0.106E-01  0.106E-01
   8.680  0.116E-01  0.116E-01
   8.690  0.123E-01  0.123E-01
   8.700  0.126E-01  0.126E-01
   8.710  0.128E-01  0.128E-01
   8.720  0.131E-01  0.131E-01
   8.730  0.138E-01  0.138E-01
   8.740  0.150E-01  0.150E-01
   8.750  0.168E-01  0.168E-01
   8.760  0.192E-01  0.192E-01
   8.770  0.220E-01  0.220E-01
   8.780  0.249E-01  0.249E-01
   8.790  0.276E-01  0.276E-01
   8.800  0.296E-01  0.296E-01
   8.810  0.305E-01  0.305E-01
   8.820  0.302E-01  0.302E-01
   8.830  0.283E-01  0.283E-01
   8.840  0.252E-01  0.252E-01
   8.850  0.210E-01  0.210E-01
   8.860  0.164E-01  0.164E-01
   8.870  0.118E-01  0.118E-01
   8.880  0.768E-02  0.768E-02
   8.890  0.441E-02  0.441E-02
   8.900  0.208E-02  0.208E-02
   8.910  0.654E-03  0.654E-03
   8.920  0.411E-05  0.411E-05
   8.930 -0.436E-04 -0.436E-04
   8.940  0.372E-03  0.372E-03
   8.950  0.117E-02  0.117E-02
   8.960  0.232E-02  0.232E-02
   8.970  0.382E-02  0.382E-02
   8.980  0.564E-02  0.564E-02
   8.990  0.771E-02  0.771E-02
   9.000  0.987E-02  0.987E-02
   9.010  0.119E-01  0.119E-01
   9.020  0.135E-01  0.135E-01
   9.030  0.145E-01  0.145E-01
   9.040  0.148E-01  0.148E-01
   9.050  0.141E-01  0.141E-01
   9.060  0.128E-01  0.128E-01
   9.070  0.109E-01  0.109E-01
   9.080  0.878E-02  0.878E-02
   9.090  0.682E-02  0.682E-02
   9.100  0.529E-02  0.529E-02
   9.110  0.437E-02  0.437E-02
   9.120  0.414E-02  0.414E-02
   9.130  0.458E-02  0.458E-02
   9.140  0.560E-02  0.560E-02
   9.150  0.706E-02  0.706E-02
   9.160  0.884E-02  0.884E-02
   9.170  0.108E-01  0.108E-01
   9.180  0.129E-01  0.129E-01
   9.190  0.148E-01  0.148E-01
   9.200  0.166E-01  0.166E-01
   9.210  0.179E-01  0.179E-01
   9.220  0.186E-01  0.186E-01
   9.230  0.186E-01  0.186E-01
   9.240  0.179E-01  0.179E-01
   9.250  0.166E-01  0.166E-01
   9.260  0.150E-01  0.150E-01
   9.270  0.134E-01  0.134E-01
   9.280  0.121E-01  0.121E-01
   9.290  0.115E-01  0.115E-01
   9.300  0.118E-01  0.118E-01
   9.310  0.130E-01  0.130E-01
   9.320  0.150E-01  0.150E-01
   9.330  0.176E-01  0.176E-01
   9.340  0.203E-01  0.203E-01
   9.350  0.227E-01  0.227E-01
   9.360  0.244E-01  0.244E-01
   9.370  0.249E-01  0.249E-01
   9.380  0.241E-01  0.241E-01
   9.390  0.220E-01  0.220E-01
   9.400  0.186E-01  0.186E-01
   9.410  0.145E-01  0.145E-01
   9.420  0.101E-01  0.101E-01
   9.430  0.591E-02  0.591E-02
   9.440  0.233E-02  0.233E-02
   9.450 -0.385E-03 -0.385E-03
   9.460 -0.215E-02 -0.215E-02
   9.470 -0.303E-02 -0.303E-02
   9.480 -0.323E-02 -0.323E-02
   9.490 -0.297E-02 -0.297E-02
   9.500 -0.246E-02 -0.246E-02
   9.510 -0.188E-02 -0.188E-02
   9.520 -0.134E-02 -0.134E-02
   9.530 -0.897E-03 -0.897E-03
   9.540 -0.566E-03 -0.566E-03
   9.550 -0.337E-03 -0.337E-03
   9.560 -0.190E-03 -0.190E-03
   9.570 -0.982E-04 -0.982E-04
   9.580 -0.415E-04 -0.415E-04
   9.590 -0.131E-05 -0.131E-05
   9.600  0.387E-04  0.387E-04
   9.610  0.950E-04  0.950E-04
   9.620  0.188E-03  0.188E-03
   9.630  0.343E-03  0.343E-03
   9.640  0.593E-03  0.593E-03
   9.650  0.980E-03  0.980E-03
   9.660  0.154E-02  0.154E-02
   9.670  0.232E-02  0.232E-02
   9.680  0.334E-02  0.334E-02
   9.690  0.457E-02  0.457E-02
   9.700  0.597E-02  0.597E-02
   9.710  0.745E-02  0.745E-02
   9.720  0.888E-02  0.888E-02
   9.730  0.101E-01  0.101E-01
   9.740  0.111E-01  0.111E-01
   9.750  0.116E-01  0.116E-01
   9.760  0.118E-01  0.118E-01
   9.770  0.118E-01  0.118E-01
   9.780  0.116E-01  0.116E-01
   9.790  0.115E-01  0.115E-01
   9.800  0.115E-01  0.115E-01
   9.810  0.116E-01  0.116E-01
   9.820  0.118E-01  0.118E-01
   9.830  0.118E-01  0.118E-01
   9.840  0.116E-01  0.116E-01
   9.850  0.109E-01  0.109E-01
   9.860  0.963E-02  0.963E-02
   9.870  0.795E-02  0.795E-02
   9.880  0.598E-02  0.598E-02
   9.890  0.394E-02  0.394E-02
   9.900  0.205E-02  0.205E-02
   9.910  0.506E-03  0.506E-03
   9.920 -0.600E-03 -0.600E-03
   9.930 -0.124E-02 -0.124E-02
   9.940 -0.147E-02 -0.147E-02
   9.950 -0.137E-02 -0.137E-02
   9.960 -0.103E-02 -0.103E-02
   9.970 -0.544E-03 -0.544E-03
   9.980  0.365E-04  0.365E-04
   9.990  0.675E-03  0.675E-03
  10.000  0.135E-02  0.135E-02
  10.010  0.204E-02  0.204E-02
  10.020  0.271E-02  0.271E-02
  10.030  0.332E-02  0.332E-02
  10.040  0.381E-02  0.381E-02
  10.050  0.413E-02  0.413E-02
  10.060  0.422E-02  0.422E-02
  10.070  0.409E-02  0.409E-02
  10.080  0.375E-02  0.375E-02
  10.090  0.327E-02  0.327E-02
  10.100  0.274E-02  0.274E-02
  10.110  0.227E-02  0.227E-02
  10.120  0.196E-02  0.196E-02
  10.130  0.188E-02  0.188E-02
  10.140  0.204E-02  0.204E-02
  10.150  0.244E-02  0.244E-02
  10.160  0.297E-02  0.297E-02
  10.170  0.355E-02  0.355E-02
  10.180  0.405E-02  0.405E-02
  10.190  0.435E-02  0.435E-02
  10.200  0.439E-02  0.439E-02
  10.210  0.414E-02  0.414E-02
  10.220  0.363E-02  0.363E-02
  10.230  0.291E-02  0.291E-02
  10.240  0.210E-02  0.210E-02
  10.250  0.130E-02  0.130E-02
  10.260  0.595E-03  0.595E-03
  10.270  0.462E-04  0.462E-04
  10.280 -0.321E-03 -0.321E-03
  10.290 -0.516E-03 -0.516E-03
  10.300 -0.567E-03 -0.567E-03
  10.310 -0.516E-03 -0.516E-03
  10.320 -0.402E-03 -0.402E-03
  10.330 -0.253E-03 -0.253E-03
  10.340 -0.886E-04 -0.886E-04
  10.350  0.857E-04  0.857E-04
  10.360  0.272E-03  0.272E-03
  10.370  0.478E-03  0.478E-03
  10.380  0.709E-03  0.709E-03
  10.390  0.967E-03  0.967E-03
  10.400  0.125E-02  0.125E-02
  10.410  0.153E-02  0.153E-02
  10.420  0.180E-02  0.180E-02
  10.430  0.202E-02  0.202E-02
  10.440  0.216E-02  0.216E-02
  10.450  0.219E-02  0.219E-02
  10.460  0.210E-02  0.210E-02
  10.470  0.189E-02  0.189E-02
  10.480  0.158E-02  0.158E-02
  10.490  0.121E-02  0.121E-02
  10.500  0.829E-03  0.829E-03
  10.510  0.470E-03  0.470E-03
  10.520  0.170E-03  0.170E-03
  10.530 -0.521E-04 -0.521E-04
  10.540 -0.192E-03 -0.192E-03
  10.550 -0.259E-03 -0.259E-03
  10.560 -0.270E-03 -0.270E-03
  10.570 -0.244E-03 -0.244E-03
  10.580 -0.200E-03 -0.200E-03
  10.590 -0.151E-03 -0.151E-03
  10.600 -0.107E-03 -0.107E-03
  10.610 -0.707E-04 -0.707E-04
  10.620 -0.442E-04 -0.442E-04
  10.630 -0.262E-04 -0.262E-04
  10.640 -0.147E-04 -0.147E-04
  10.650 -0.785E-05 -0.785E-05
  10.660 -0.398E-05 -0.398E-05
  10.670 -0.192E-05 -0.192E-05
  10.680 -0.873E-06 -0.873E-06
  10.690 -0.371E-06 -0.371E-06
  10.700 -0.141E-06 -0.141E-06
  10.710 -0.400E-07 -0.400E-07
  10.720  0.151E-08  0.151E-08
  10.730  0.169E-07  0.169E-07
  10.740  0.207E-07  0.207E-07
  10.750  0.193E-07  0.193E-07
  10.760  0.156E-07  0.156E-07
  10.770  0.111E-07  0.111E-07
  10.780  0.662E-08  0.662E-08
  10.790  0.276E-08  0.276E-08
  10.800 -0.188E-09 -0.188E-09
  10.810 -0.211E-08 -0.211E-08
  10.820 -0.308E-08 -0.308E-08
  10.830 -0.332E-08 -0.332E-08
  10.840 -0.306E-08 -0.306E-08
  10.850 -0.254E-08 -0.254E-08
  10.860 -0.194E-08 -0.194E-08
  10.870 -0.138E-08 -0.138E-08
  10.880 -0.924E-09 -0.924E-09
  10.890 -0.582E-09 -0.582E-09
  10.900 -0.347E-09 -0.347E-09
  10.910 -0.196E-09 -0.196E-09
